cm-1,A
4000.0,0.0085
3999.0,0.0086
3998.0,0.0087
3997.0,0.0087
3996.0,0.0088
3995.0,0.0088
3994.0,0.0089
3993.0,0.0089
3992.0,0.0089
3991.0,0.0089
3990.0,0.0088
3989.0,0.0088
3988.0,0.0088
3987.0,0.0088
3986.0,0.0088
3985.0,0.0088
3984.0,0.0088
3983.0,0.0088
3982.0,0.0087
3981.0,0.0086
3980.0,0.0086
3979.0,0.0085
3978.0,0.0086
3977.0,0.0086
3976.0,0.0087
3975.0,0.0088
3974.0,0.0088
3973.0,0.0088
3972.0,0.0088
3971.0,0.0087
3970.0,0.0087
3969.0,0.0087
3968.0,0.0088
3967.0,0.0088
3966.0,0.0089
3965.0,0.0089
3964.0,0.0089
3963.0,0.0089
3962.0,0.0089
3961.0,0.0087
3960.0,0.0087
3959.0,0.0086
3958.0,0.0086
3957.0,0.0087
3956.0,0.0088
3955.0,0.0088
3954.0,0.0088
3953.0,0.0088
3952.0,0.0087
3951.0,0.0086
3950.0,0.0086
3949.0,0.0086
3948.0,0.0086
3947.0,0.0086
3946.0,0.0086
3945.0,0.0086
3944.0,0.0086
3943.0,0.0087
3942.0,0.0087
3941.0,0.0087
3940.0,0.0088
3939.0,0.0089
3938.0,0.009
3937.0,0.0089
3936.0,0.0089
3935.0,0.0088
3934.0,0.0088
3933.0,0.0088
3932.0,0.0088
3931.0,0.0088
3930.0,0.0088
3929.0,0.0087
3928.0,0.0087
3927.0,0.0088
3926.0,0.0089
3925.0,0.0089
3924.0,0.0088
3923.0,0.0086
3922.0,0.0085
3921.0,0.0085
3920.0,0.0086
3919.0,0.0088
3918.0,0.009
3917.0,0.0091
3916.0,0.0092
3915.0,0.0092
3914.0,0.0092
3913.0,0.0093
3912.0,0.0093
3911.0,0.0093
3910.0,0.0092
3909.0,0.009
3908.0,0.0088
3907.0,0.0087
3906.0,0.0086
3905.0,0.0086
3904.0,0.0086
3903.0,0.0085
3902.0,0.0084
3901.0,0.0086
3900.0,0.0088
3899.0,0.0089
3898.0,0.0089
3897.0,0.0089
3896.0,0.0088
3895.0,0.0087
3894.0,0.0086
3893.0,0.0085
3892.0,0.0086
3891.0,0.0086
3890.0,0.0086
3889.0,0.0086
3888.0,0.0087
3887.0,0.009
3886.0,0.0091
3885.0,0.0089
3884.0,0.0086
3883.0,0.0084
3882.0,0.0085
3881.0,0.0088
3880.0,0.0088
3879.0,0.0086
3878.0,0.0085
3877.0,0.0086
3876.0,0.0087
3875.0,0.0088
3874.0,0.0086
3873.0,0.0084
3872.0,0.0084
3871.0,0.0086
3870.0,0.0088
3869.0,0.0087
3868.0,0.0086
3867.0,0.0086
3866.0,0.0089
3865.0,0.0092
3864.0,0.0092
3863.0,0.009
3862.0,0.0089
3861.0,0.0088
3860.0,0.0088
3859.0,0.0088
3858.0,0.0086
3857.0,0.0083
3856.0,0.008
3855.0,0.008
3854.0,0.0084
3853.0,0.0086
3852.0,0.0085
3851.0,0.0087
3850.0,0.0092
3849.0,0.0095
3848.0,0.0095
3847.0,0.0094
3846.0,0.0092
3845.0,0.0091
3844.0,0.009
3843.0,0.0087
3842.0,0.0085
3841.0,0.0083
3840.0,0.0083
3839.0,0.0085
3838.0,0.0085
3837.0,0.0085
3836.0,0.0086
3835.0,0.0087
3834.0,0.0089
3833.0,0.0091
3832.0,0.0092
3831.0,0.0092
3830.0,0.0092
3829.0,0.0092
3828.0,0.0092
3827.0,0.0092
3826.0,0.009
3825.0,0.0087
3824.0,0.0084
3823.0,0.0085
3822.0,0.0088
3821.0,0.0089
3820.0,0.0086
3819.0,0.0083
3818.0,0.0085
3817.0,0.009
3816.0,0.0095
3815.0,0.0097
3814.0,0.0096
3813.0,0.0097
3812.0,0.0098
3811.0,0.0097
3810.0,0.0095
3809.0,0.0094
3808.0,0.0094
3807.0,0.0095
3806.0,0.0093
3805.0,0.009
3804.0,0.0088
3803.0,0.009
3802.0,0.0093
3801.0,0.0094
3800.0,0.0092
3799.0,0.0092
3798.0,0.0096
3797.0,0.0098
3796.0,0.0099
3795.0,0.0097
3794.0,0.0097
3793.0,0.0099
3792.0,0.01
3791.0,0.0101
3790.0,0.01
3789.0,0.0099
3788.0,0.0097
3787.0,0.0097
3786.0,0.0097
3785.0,0.0097
3784.0,0.0096
3783.0,0.0094
3782.0,0.0093
3781.0,0.0094
3780.0,0.0095
3779.0,0.0096
3778.0,0.0096
3777.0,0.0096
3776.0,0.0097
3775.0,0.0098
3774.0,0.0097
3773.0,0.0096
3772.0,0.0096
3771.0,0.0097
3770.0,0.0097
3769.0,0.0096
3768.0,0.0095
3767.0,0.0096
3766.0,0.0098
3765.0,0.0099
3764.0,0.0099
3763.0,0.0098
3762.0,0.0098
3761.0,0.0099
3760.0,0.0099
3759.0,0.0098
3758.0,0.0095
3757.0,0.0093
3756.0,0.0091
3755.0,0.0091
3754.0,0.009
3753.0,0.0091
3752.0,0.0093
3751.0,0.0095
3750.0,0.0095
3749.0,0.0094
3748.0,0.0094
3747.0,0.0096
3746.0,0.01
3745.0,0.0104
3744.0,0.0104
3743.0,0.0101
3742.0,0.01
3741.0,0.0103
3740.0,0.0104
3739.0,0.0102
3738.0,0.0099
3737.0,0.0099
3736.0,0.01
3735.0,0.0101
3734.0,0.0101
3733.0,0.0102
3732.0,0.0104
3731.0,0.0105
3730.0,0.0106
3729.0,0.0107
3728.0,0.0109
3727.0,0.0109
3726.0,0.0109
3725.0,0.0108
3724.0,0.0108
3723.0,0.0109
3722.0,0.0109
3721.0,0.0108
3720.0,0.0107
3719.0,0.0106
3718.0,0.0105
3717.0,0.0105
3716.0,0.0105
3715.0,0.0104
3714.0,0.0102
3713.0,0.0101
3712.0,0.0102
3711.0,0.0104
3710.0,0.0104
3709.0,0.0105
3708.0,0.0106
3707.0,0.0108
3706.0,0.0109
3705.0,0.011
3704.0,0.0111
3703.0,0.0111
3702.0,0.0112
3701.0,0.0112
3700.0,0.0111
3699.0,0.0112
3698.0,0.0113
3697.0,0.0113
3696.0,0.0113
3695.0,0.0111
3694.0,0.011
3693.0,0.0108
3692.0,0.0109
3691.0,0.0111
3690.0,0.0113
3689.0,0.0114
3688.0,0.0113
3687.0,0.0113
3686.0,0.0115
3685.0,0.0118
3684.0,0.0119
3683.0,0.0119
3682.0,0.0118
3681.0,0.0116
3680.0,0.0113
3679.0,0.0109
3678.0,0.0107
3677.0,0.0109
3676.0,0.0115
3675.0,0.0117
3674.0,0.0114
3673.0,0.0113
3672.0,0.0116
3671.0,0.0122
3670.0,0.0125
3669.0,0.0126
3668.0,0.0125
3667.0,0.0126
3666.0,0.0129
3665.0,0.0131
3664.0,0.0132
3663.0,0.0133
3662.0,0.0134
3661.0,0.0134
3660.0,0.0134
3659.0,0.0134
3658.0,0.0137
3657.0,0.014
3656.0,0.0142
3655.0,0.014
3654.0,0.0138
3653.0,0.0136
3652.0,0.0134
3651.0,0.0134
3650.0,0.0138
3649.0,0.0141
3648.0,0.0142
3647.0,0.0144
3646.0,0.0147
3645.0,0.015
3644.0,0.0154
3643.0,0.0156
3642.0,0.0159
3641.0,0.0161
3640.0,0.0162
3639.0,0.0164
3638.0,0.0165
3637.0,0.0166
3636.0,0.0168
3635.0,0.017
3634.0,0.017
3633.0,0.0169
3632.0,0.0167
3631.0,0.0168
3630.0,0.0172
3629.0,0.0178
3628.0,0.0181
3627.0,0.0181
3626.0,0.0184
3625.0,0.0188
3624.0,0.0189
3623.0,0.0188
3622.0,0.0187
3621.0,0.0187
3620.0,0.0189
3619.0,0.0191
3618.0,0.0192
3617.0,0.0192
3616.0,0.0193
3615.0,0.0197
3614.0,0.02
3613.0,0.0202
3612.0,0.0202
3611.0,0.0201
3610.0,0.0203
3609.0,0.0206
3608.0,0.021
3607.0,0.0214
3606.0,0.0216
3605.0,0.0217
3604.0,0.0219
3603.0,0.0222
3602.0,0.0224
3601.0,0.0225
3600.0,0.0226
3599.0,0.0227
3598.0,0.0227
3597.0,0.0229
3596.0,0.0232
3595.0,0.0236
3594.0,0.0237
3593.0,0.0237
3592.0,0.0236
3591.0,0.0234
3590.0,0.0234
3589.0,0.0237
3588.0,0.0243
3587.0,0.0248
3586.0,0.025
3585.0,0.0252
3584.0,0.0254
3583.0,0.0257
3582.0,0.026
3581.0,0.0262
3580.0,0.0264
3579.0,0.0265
3578.0,0.0266
3577.0,0.0267
3576.0,0.0269
3575.0,0.0272
3574.0,0.0274
3573.0,0.0277
3572.0,0.0278
3571.0,0.0278
3570.0,0.0278
3569.0,0.0279
3568.0,0.0282
3567.0,0.0287
3566.0,0.0289
3565.0,0.029
3564.0,0.0292
3563.0,0.0294
3562.0,0.0297
3561.0,0.03
3560.0,0.0303
3559.0,0.0305
3558.0,0.0307
3557.0,0.0309
3556.0,0.031
3555.0,0.0311
3554.0,0.0313
3553.0,0.0315
3552.0,0.0316
3551.0,0.0317
3550.0,0.0318
3549.0,0.0319
3548.0,0.032
3547.0,0.0323
3546.0,0.0326
3545.0,0.0328
3544.0,0.033
3543.0,0.0331
3542.0,0.0333
3541.0,0.0335
3540.0,0.0337
3539.0,0.0339
3538.0,0.0341
3537.0,0.0343
3536.0,0.0345
3535.0,0.0345
3534.0,0.0345
3533.0,0.0345
3532.0,0.0345
3531.0,0.0347
3530.0,0.0349
3529.0,0.0351
3528.0,0.0353
3527.0,0.0354
3526.0,0.0355
3525.0,0.0357
3524.0,0.036
3523.0,0.0361
3522.0,0.0362
3521.0,0.0363
3520.0,0.0364
3519.0,0.0367
3518.0,0.0369
3517.0,0.0371
3516.0,0.0373
3515.0,0.0374
3514.0,0.0375
3513.0,0.0376
3512.0,0.0378
3511.0,0.038
3510.0,0.0383
3509.0,0.0385
3508.0,0.0387
3507.0,0.0387
3506.0,0.0388
3505.0,0.039
3504.0,0.0392
3503.0,0.0395
3502.0,0.0397
3501.0,0.0399
3500.0,0.04
3499.0,0.0402
3498.0,0.0404
3497.0,0.0406
3496.0,0.0408
3495.0,0.0409
3494.0,0.0411
3493.0,0.0412
3492.0,0.0414
3491.0,0.0415
3490.0,0.0418
3489.0,0.042
3488.0,0.0423
3487.0,0.0426
3486.0,0.0429
3485.0,0.0431
3484.0,0.0434
3483.0,0.0436
3482.0,0.0438
3481.0,0.044
3480.0,0.0442
3479.0,0.0445
3478.0,0.0447
3477.0,0.0449
3476.0,0.0451
3475.0,0.0454
3474.0,0.0456
3473.0,0.0458
3472.0,0.0459
3471.0,0.0461
3470.0,0.0462
3469.0,0.0464
3468.0,0.0467
3467.0,0.047
3466.0,0.0472
3465.0,0.0474
3464.0,0.0477
3463.0,0.048
3462.0,0.0483
3461.0,0.0486
3460.0,0.0488
3459.0,0.0491
3458.0,0.0494
3457.0,0.0497
3456.0,0.0501
3455.0,0.0504
3454.0,0.0507
3453.0,0.051
3452.0,0.0513
3451.0,0.0516
3450.0,0.0518
3449.0,0.0521
3448.0,0.0525
3447.0,0.0529
3446.0,0.0532
3445.0,0.0534
3444.0,0.0537
3443.0,0.054
3442.0,0.0543
3441.0,0.0546
3440.0,0.0549
3439.0,0.0553
3438.0,0.0556
3437.0,0.056
3436.0,0.0563
3435.0,0.0565
3434.0,0.0568
3433.0,0.057
3432.0,0.0572
3431.0,0.0574
3430.0,0.0576
3429.0,0.058
3428.0,0.0583
3427.0,0.0586
3426.0,0.0589
3425.0,0.0591
3424.0,0.0593
3423.0,0.0594
3422.0,0.0595
3421.0,0.0597
3420.0,0.0598
3419.0,0.0599
3418.0,0.06
3417.0,0.0601
3416.0,0.0603
3415.0,0.0604
3414.0,0.0605
3413.0,0.0605
3412.0,0.0605
3411.0,0.0606
3410.0,0.0607
3409.0,0.0608
3408.0,0.0608
3407.0,0.0609
3406.0,0.0609
3405.0,0.061
3404.0,0.0609
3403.0,0.0608
3402.0,0.0607
3401.0,0.0606
3400.0,0.0605
3399.0,0.0606
3398.0,0.0606
3397.0,0.0607
3396.0,0.0608
3395.0,0.0608
3394.0,0.0608
3393.0,0.0608
3392.0,0.0608
3391.0,0.0608
3390.0,0.0608
3389.0,0.0608
3388.0,0.0607
3387.0,0.0606
3386.0,0.0605
3385.0,0.0604
3384.0,0.0604
3383.0,0.0602
3382.0,0.0601
3381.0,0.0599
3380.0,0.0596
3379.0,0.0595
3378.0,0.0593
3377.0,0.0592
3376.0,0.0592
3375.0,0.0592
3374.0,0.0591
3373.0,0.059
3372.0,0.0589
3371.0,0.0587
3370.0,0.0585
3369.0,0.0584
3368.0,0.0583
3367.0,0.0581
3366.0,0.0579
3365.0,0.0576
3364.0,0.0573
3363.0,0.057
3362.0,0.0569
3361.0,0.0568
3360.0,0.0567
3359.0,0.0567
3358.0,0.0567
3357.0,0.0566
3356.0,0.0564
3355.0,0.0562
3354.0,0.0561
3353.0,0.0559
3352.0,0.0557
3351.0,0.0555
3350.0,0.0553
3349.0,0.055
3348.0,0.0548
3347.0,0.0546
3346.0,0.0544
3345.0,0.0543
3344.0,0.0542
3343.0,0.054
3342.0,0.0538
3341.0,0.0536
3340.0,0.0534
3339.0,0.0533
3338.0,0.0532
3337.0,0.0529
3336.0,0.0527
3335.0,0.0525
3334.0,0.0523
3333.0,0.0522
3332.0,0.052
3331.0,0.0519
3330.0,0.0517
3329.0,0.0515
3328.0,0.0513
3327.0,0.0511
3326.0,0.0509
3325.0,0.0508
3324.0,0.0506
3323.0,0.0504
3322.0,0.0501
3321.0,0.0499
3320.0,0.0496
3319.0,0.0494
3318.0,0.0493
3317.0,0.0492
3316.0,0.0491
3315.0,0.049
3314.0,0.0488
3313.0,0.0486
3312.0,0.0484
3311.0,0.0482
3310.0,0.048
3309.0,0.0479
3308.0,0.0478
3307.0,0.0477
3306.0,0.0476
3305.0,0.0475
3304.0,0.0474
3303.0,0.0473
3302.0,0.0472
3301.0,0.047
3300.0,0.0467
3299.0,0.0465
3298.0,0.0463
3297.0,0.0463
3296.0,0.0463
3295.0,0.0463
3294.0,0.0462
3293.0,0.046
3292.0,0.0459
3291.0,0.0457
3290.0,0.0456
3289.0,0.0455
3288.0,0.0453
3287.0,0.0452
3286.0,0.045
3285.0,0.0449
3284.0,0.0449
3283.0,0.0448
3282.0,0.0448
3281.0,0.0448
3280.0,0.0448
3279.0,0.0447
3278.0,0.0445
3277.0,0.0444
3276.0,0.0444
3275.0,0.0444
3274.0,0.0444
3273.0,0.0443
3272.0,0.0442
3271.0,0.044
3270.0,0.0439
3269.0,0.0438
3268.0,0.0438
3267.0,0.0437
3266.0,0.0436
3265.0,0.0436
3264.0,0.0435
3263.0,0.0435
3262.0,0.0434
3261.0,0.0433
3260.0,0.0433
3259.0,0.0432
3258.0,0.0432
3257.0,0.0432
3256.0,0.0432
3255.0,0.0431
3254.0,0.043
3253.0,0.0428
3252.0,0.0426
3251.0,0.0424
3250.0,0.0423
3249.0,0.0422
3248.0,0.0421
3247.0,0.042
3246.0,0.0419
3245.0,0.0418
3244.0,0.0417
3243.0,0.0415
3242.0,0.0414
3241.0,0.0413
3240.0,0.0412
3239.0,0.0411
3238.0,0.0411
3237.0,0.041
3236.0,0.0408
3235.0,0.0406
3234.0,0.0404
3233.0,0.0402
3232.0,0.0399
3231.0,0.0397
3230.0,0.0394
3229.0,0.0392
3228.0,0.039
3227.0,0.0389
3226.0,0.0388
3225.0,0.0386
3224.0,0.0384
3223.0,0.0382
3222.0,0.0379
3221.0,0.0377
3220.0,0.0375
3219.0,0.0374
3218.0,0.0372
3217.0,0.0371
3216.0,0.0369
3215.0,0.0367
3214.0,0.0365
3213.0,0.0363
3212.0,0.0362
3211.0,0.036
3210.0,0.0359
3209.0,0.0357
3208.0,0.0354
3207.0,0.035
3206.0,0.0347
3205.0,0.0345
3204.0,0.0345
3203.0,0.0344
3202.0,0.0344
3201.0,0.0342
3200.0,0.034
3199.0,0.0338
3198.0,0.0336
3197.0,0.0334
3196.0,0.0333
3195.0,0.0331
3194.0,0.0329
3193.0,0.0327
3192.0,0.0325
3191.0,0.0323
3190.0,0.0322
3189.0,0.032
3188.0,0.0318
3187.0,0.0316
3186.0,0.0315
3185.0,0.0314
3184.0,0.0312
3183.0,0.031
3182.0,0.0308
3181.0,0.0307
3180.0,0.0306
3179.0,0.0305
3178.0,0.0304
3177.0,0.0302
3176.0,0.03
3175.0,0.0298
3174.0,0.0297
3173.0,0.0295
3172.0,0.0294
3171.0,0.0293
3170.0,0.0291
3169.0,0.0289
3168.0,0.0288
3167.0,0.0287
3166.0,0.0286
3165.0,0.0285
3164.0,0.0283
3163.0,0.0282
3162.0,0.0279
3161.0,0.0277
3160.0,0.0275
3159.0,0.0273
3158.0,0.0272
3157.0,0.0271
3156.0,0.0271
3155.0,0.0269
3154.0,0.0268
3153.0,0.0267
3152.0,0.0266
3151.0,0.0265
3150.0,0.0265
3149.0,0.0264
3148.0,0.0262
3147.0,0.0259
3146.0,0.0257
3145.0,0.0256
3144.0,0.0255
3143.0,0.0255
3142.0,0.0254
3141.0,0.0254
3140.0,0.0253
3139.0,0.0253
3138.0,0.0252
3137.0,0.0252
3136.0,0.0251
3135.0,0.025
3134.0,0.0248
3133.0,0.0247
3132.0,0.0246
3131.0,0.0246
3130.0,0.0247
3129.0,0.0247
3128.0,0.0247
3127.0,0.0246
3126.0,0.0244
3125.0,0.0242
3124.0,0.024
3123.0,0.0239
3122.0,0.0238
3121.0,0.0237
3120.0,0.0237
3119.0,0.0236
3118.0,0.0235
3117.0,0.0235
3116.0,0.0234
3115.0,0.0234
3114.0,0.0233
3113.0,0.0233
3112.0,0.0232
3111.0,0.0233
3110.0,0.0234
3109.0,0.0235
3108.0,0.0236
3107.0,0.0236
3106.0,0.0236
3105.0,0.0236
3104.0,0.0235
3103.0,0.0234
3102.0,0.0233
3101.0,0.0233
3100.0,0.0231
3099.0,0.0229
3098.0,0.0227
3097.0,0.0225
3096.0,0.0223
3095.0,0.0222
3094.0,0.0221
3093.0,0.022
3092.0,0.022
3091.0,0.022
3090.0,0.022
3089.0,0.0221
3088.0,0.0221
3087.0,0.0222
3086.0,0.0223
3085.0,0.0224
3084.0,0.0224
3083.0,0.0224
3082.0,0.0223
3081.0,0.0222
3080.0,0.0222
3079.0,0.0221
3078.0,0.0221
3077.0,0.0221
3076.0,0.022
3075.0,0.022
3074.0,0.0219
3073.0,0.0219
3072.0,0.0218
3071.0,0.0218
3070.0,0.0217
3069.0,0.0216
3068.0,0.0216
3067.0,0.0215
3066.0,0.0214
3065.0,0.0213
3064.0,0.0212
3063.0,0.0212
3062.0,0.0211
3061.0,0.0211
3060.0,0.0211
3059.0,0.0211
3058.0,0.0212
3057.0,0.0212
3056.0,0.0212
3055.0,0.0211
3054.0,0.0211
3053.0,0.021
3052.0,0.0209
3051.0,0.0207
3050.0,0.0204
3049.0,0.02
3048.0,0.0197
3047.0,0.0193
3046.0,0.019
3045.0,0.0187
3044.0,0.0185
3043.0,0.0184
3042.0,0.0183
3041.0,0.0183
3040.0,0.0182
3039.0,0.0181
3038.0,0.018
3037.0,0.0179
3036.0,0.0178
3035.0,0.0178
3034.0,0.0177
3033.0,0.0177
3032.0,0.0176
3031.0,0.0176
3030.0,0.0176
3029.0,0.0176
3028.0,0.0176
3027.0,0.0177
3026.0,0.0177
3025.0,0.0178
3024.0,0.0179
3023.0,0.018
3022.0,0.0181
3021.0,0.0182
3020.0,0.0183
3019.0,0.0184
3018.0,0.0186
3017.0,0.0187
3016.0,0.0189
3015.0,0.0191
3014.0,0.0192
3013.0,0.0194
3012.0,0.0196
3011.0,0.0198
3010.0,0.02
3009.0,0.0202
3008.0,0.0204
3007.0,0.0206
3006.0,0.0208
3005.0,0.0209
3004.0,0.021
3003.0,0.0211
3002.0,0.0212
3001.0,0.0213
3000.0,0.0214
2999.0,0.0215
2998.0,0.0216
2997.0,0.0217
2996.0,0.0219
2995.0,0.022
2994.0,0.0221
2993.0,0.0223
2992.0,0.0224
2991.0,0.0227
2990.0,0.023
2989.0,0.0232
2988.0,0.0235
2987.0,0.0238
2986.0,0.024
2985.0,0.0243
2984.0,0.0246
2983.0,0.025
2982.0,0.0254
2981.0,0.0258
2980.0,0.0262
2979.0,0.0266
2978.0,0.0271
2977.0,0.0276
2976.0,0.028
2975.0,0.0285
2974.0,0.0289
2973.0,0.0293
2972.0,0.0298
2971.0,0.0302
2970.0,0.0306
2969.0,0.031
2968.0,0.0314
2967.0,0.0317
2966.0,0.032
2965.0,0.0323
2964.0,0.0325
2963.0,0.0327
2962.0,0.0327
2961.0,0.0327
2960.0,0.0326
2959.0,0.0325
2958.0,0.0323
2957.0,0.032
2956.0,0.0317
2955.0,0.0313
2954.0,0.031
2953.0,0.0306
2952.0,0.0301
2951.0,0.0297
2950.0,0.0292
2949.0,0.0287
2948.0,0.0283
2947.0,0.0278
2946.0,0.0274
2945.0,0.027
2944.0,0.0267
2943.0,0.0265
2942.0,0.0264
2941.0,0.0263
2940.0,0.0262
2939.0,0.0261
2938.0,0.0261
2937.0,0.0261
2936.0,0.0262
2935.0,0.0263
2934.0,0.0265
2933.0,0.0267
2932.0,0.027
2931.0,0.0272
2930.0,0.0274
2929.0,0.0276
2928.0,0.0277
2927.0,0.0279
2926.0,0.0279
2925.0,0.028
2924.0,0.028
2923.0,0.0278
2922.0,0.0276
2921.0,0.0272
2920.0,0.0268
2919.0,0.0264
2918.0,0.026
2917.0,0.0257
2916.0,0.0254
2915.0,0.0251
2914.0,0.0248
2913.0,0.0246
2912.0,0.0245
2911.0,0.0245
2910.0,0.0244
2909.0,0.0243
2908.0,0.0242
2907.0,0.024
2906.0,0.0238
2905.0,0.0235
2904.0,0.0232
2903.0,0.0229
2902.0,0.0226
2901.0,0.0223
2900.0,0.0221
2899.0,0.0219
2898.0,0.0218
2897.0,0.0217
2896.0,0.0216
2895.0,0.0215
2894.0,0.0214
2893.0,0.0212
2892.0,0.0211
2891.0,0.0211
2890.0,0.021
2889.0,0.0208
2888.0,0.0207
2887.0,0.0206
2886.0,0.0204
2885.0,0.0203
2884.0,0.0202
2883.0,0.0201
2882.0,0.0199
2881.0,0.0198
2880.0,0.0197
2879.0,0.0197
2878.0,0.0196
2877.0,0.0196
2876.0,0.0195
2875.0,0.0195
2874.0,0.0194
2873.0,0.0194
2872.0,0.0193
2871.0,0.0192
2870.0,0.0191
2869.0,0.0191
2868.0,0.0192
2867.0,0.0192
2866.0,0.0193
2865.0,0.0194
2864.0,0.0196
2863.0,0.0198
2862.0,0.0201
2861.0,0.0203
2860.0,0.0206
2859.0,0.0209
2858.0,0.0212
2857.0,0.0214
2856.0,0.0215
2855.0,0.0215
2854.0,0.0214
2853.0,0.0211
2852.0,0.0207
2851.0,0.0202
2850.0,0.0197
2849.0,0.0191
2848.0,0.0186
2847.0,0.0181
2846.0,0.0176
2845.0,0.0171
2844.0,0.0167
2843.0,0.0164
2842.0,0.0162
2841.0,0.016
2840.0,0.0157
2839.0,0.0155
2838.0,0.0153
2837.0,0.0151
2836.0,0.0149
2835.0,0.0148
2834.0,0.0147
2833.0,0.0146
2832.0,0.0145
2831.0,0.0144
2830.0,0.0143
2829.0,0.0142
2828.0,0.014
2827.0,0.014
2826.0,0.0139
2825.0,0.0139
2824.0,0.014
2823.0,0.014
2822.0,0.0139
2821.0,0.0139
2820.0,0.0138
2819.0,0.0138
2818.0,0.0138
2817.0,0.0138
2816.0,0.0137
2815.0,0.0136
2814.0,0.0136
2813.0,0.0135
2812.0,0.0135
2811.0,0.0136
2810.0,0.0136
2809.0,0.0136
2808.0,0.0136
2807.0,0.0135
2806.0,0.0135
2805.0,0.0134
2804.0,0.0134
2803.0,0.0133
2802.0,0.0133
2801.0,0.0133
2800.0,0.0132
2799.0,0.0132
2798.0,0.0132
2797.0,0.0132
2796.0,0.0132
2795.0,0.0132
2794.0,0.0132
2793.0,0.0131
2792.0,0.013
2791.0,0.013
2790.0,0.0129
2789.0,0.0129
2788.0,0.0128
2787.0,0.0128
2786.0,0.0128
2785.0,0.0128
2784.0,0.0128
2783.0,0.0127
2782.0,0.0127
2781.0,0.0126
2780.0,0.0126
2779.0,0.0125
2778.0,0.0125
2777.0,0.0124
2776.0,0.0124
2775.0,0.0125
2774.0,0.0125
2773.0,0.0125
2772.0,0.0124
2771.0,0.0124
2770.0,0.0124
2769.0,0.0125
2768.0,0.0125
2767.0,0.0125
2766.0,0.0124
2765.0,0.0124
2764.0,0.0123
2763.0,0.0122
2762.0,0.0122
2761.0,0.0123
2760.0,0.0123
2759.0,0.0123
2758.0,0.0123
2757.0,0.0123
2756.0,0.0122
2755.0,0.0122
2754.0,0.0121
2753.0,0.0121
2752.0,0.0121
2751.0,0.0121
2750.0,0.0121
2749.0,0.012
2748.0,0.012
2747.0,0.012
2746.0,0.0119
2745.0,0.0119
2744.0,0.012
2743.0,0.012
2742.0,0.012
2741.0,0.012
2740.0,0.012
2739.0,0.012
2738.0,0.012
2737.0,0.012
2736.0,0.012
2735.0,0.012
2734.0,0.012
2733.0,0.012
2732.0,0.0119
2731.0,0.0119
2730.0,0.0118
2729.0,0.0118
2728.0,0.0117
2727.0,0.0117
2726.0,0.0117
2725.0,0.0117
2724.0,0.0117
2723.0,0.0117
2722.0,0.0116
2721.0,0.0116
2720.0,0.0115
2719.0,0.0115
2718.0,0.0115
2717.0,0.0114
2716.0,0.0114
2715.0,0.0114
2714.0,0.0114
2713.0,0.0114
2712.0,0.0114
2711.0,0.0114
2710.0,0.0114
2709.0,0.0115
2708.0,0.0115
2707.0,0.0115
2706.0,0.0115
2705.0,0.0115
2704.0,0.0115
2703.0,0.0114
2702.0,0.0113
2701.0,0.0113
2700.0,0.0113
2699.0,0.0113
2698.0,0.0113
2697.0,0.0113
2696.0,0.0113
2695.0,0.0114
2694.0,0.0114
2693.0,0.0114
2692.0,0.0113
2691.0,0.0113
2690.0,0.0113
2689.0,0.0113
2688.0,0.0113
2687.0,0.0113
2686.0,0.0113
2685.0,0.0113
2684.0,0.0112
2683.0,0.0111
2682.0,0.011
2681.0,0.011
2680.0,0.011
2679.0,0.011
2678.0,0.011
2677.0,0.011
2676.0,0.011
2675.0,0.0109
2674.0,0.0109
2673.0,0.0109
2672.0,0.0109
2671.0,0.0109
2670.0,0.0109
2669.0,0.0109
2668.0,0.0109
2667.0,0.0109
2666.0,0.0109
2665.0,0.0108
2664.0,0.0108
2663.0,0.0107
2662.0,0.0107
2661.0,0.0107
2660.0,0.0107
2659.0,0.0107
2658.0,0.0107
2657.0,0.0107
2656.0,0.0107
2655.0,0.0107
2654.0,0.0107
2653.0,0.0107
2652.0,0.0107
2651.0,0.0106
2650.0,0.0106
2649.0,0.0106
2648.0,0.0106
2647.0,0.0106
2646.0,0.0106
2645.0,0.0106
2644.0,0.0106
2643.0,0.0107
2642.0,0.0107
2641.0,0.0107
2640.0,0.0106
2639.0,0.0106
2638.0,0.0106
2637.0,0.0106
2636.0,0.0106
2635.0,0.0106
2634.0,0.0106
2633.0,0.0107
2632.0,0.0107
2631.0,0.0108
2630.0,0.0109
2629.0,0.0109
2628.0,0.0109
2627.0,0.0109
2626.0,0.0109
2625.0,0.0108
2624.0,0.0108
2623.0,0.0108
2622.0,0.0107
2621.0,0.0107
2620.0,0.0107
2619.0,0.0107
2618.0,0.0107
2617.0,0.0106
2616.0,0.0106
2615.0,0.0106
2614.0,0.0106
2613.0,0.0106
2612.0,0.0106
2611.0,0.0106
2610.0,0.0106
2609.0,0.0106
2608.0,0.0106
2607.0,0.0106
2606.0,0.0107
2605.0,0.0107
2604.0,0.0108
2603.0,0.0108
2602.0,0.0108
2601.0,0.0108
2600.0,0.0107
2599.0,0.0107
2598.0,0.0107
2597.0,0.0107
2596.0,0.0107
2595.0,0.0107
2594.0,0.0107
2593.0,0.0107
2592.0,0.0107
2591.0,0.0108
2590.0,0.0108
2589.0,0.0108
2588.0,0.0108
2587.0,0.0108
2586.0,0.0108
2585.0,0.0108
2584.0,0.0109
2583.0,0.0109
2582.0,0.011
2581.0,0.011
2580.0,0.0109
2579.0,0.0109
2578.0,0.0109
2577.0,0.0109
2576.0,0.0109
2575.0,0.0109
2574.0,0.0109
2573.0,0.0109
2572.0,0.0109
2571.0,0.0109
2570.0,0.0109
2569.0,0.0109
2568.0,0.0109
2567.0,0.0109
2566.0,0.0109
2565.0,0.0108
2564.0,0.0107
2563.0,0.0107
2562.0,0.0108
2561.0,0.0108
2560.0,0.0108
2559.0,0.0108
2558.0,0.0108
2557.0,0.0109
2556.0,0.0108
2555.0,0.0108
2554.0,0.0107
2553.0,0.0107
2552.0,0.0107
2551.0,0.0107
2550.0,0.0108
2549.0,0.0108
2548.0,0.0107
2547.0,0.0107
2546.0,0.0107
2545.0,0.0107
2544.0,0.0107
2543.0,0.0106
2542.0,0.0106
2541.0,0.0106
2540.0,0.0105
2539.0,0.0106
2538.0,0.0106
2537.0,0.0106
2536.0,0.0107
2535.0,0.0107
2534.0,0.0107
2533.0,0.0108
2532.0,0.0107
2531.0,0.0107
2530.0,0.0106
2529.0,0.0106
2528.0,0.0106
2527.0,0.0106
2526.0,0.0106
2525.0,0.0106
2524.0,0.0106
2523.0,0.0106
2522.0,0.0106
2521.0,0.0106
2520.0,0.0106
2519.0,0.0106
2518.0,0.0106
2517.0,0.0105
2516.0,0.0105
2515.0,0.0105
2514.0,0.0104
2513.0,0.0104
2512.0,0.0104
2511.0,0.0104
2510.0,0.0104
2509.0,0.0104
2508.0,0.0104
2507.0,0.0103
2506.0,0.0103
2505.0,0.0103
2504.0,0.0103
2503.0,0.0102
2502.0,0.0102
2501.0,0.0102
2500.0,0.0102
2499.0,0.0102
2498.0,0.0102
2497.0,0.0102
2496.0,0.0102
2495.0,0.0102
2494.0,0.0102
2493.0,0.0102
2492.0,0.0102
2491.0,0.0102
2490.0,0.0101
2489.0,0.01
2488.0,0.01
2487.0,0.0099
2486.0,0.0099
2485.0,0.0098
2484.0,0.0098
2483.0,0.0098
2482.0,0.0098
2481.0,0.0098
2480.0,0.0098
2479.0,0.0097
2478.0,0.0097
2477.0,0.0096
2476.0,0.0095
2475.0,0.0095
2474.0,0.0095
2473.0,0.0095
2472.0,0.0096
2471.0,0.0096
2470.0,0.0096
2469.0,0.0096
2468.0,0.0096
2467.0,0.0096
2466.0,0.0097
2465.0,0.0097
2464.0,0.0096
2463.0,0.0096
2462.0,0.0095
2461.0,0.0095
2460.0,0.0094
2459.0,0.0095
2458.0,0.0095
2457.0,0.0094
2456.0,0.0094
2455.0,0.0094
2454.0,0.0094
2453.0,0.0095
2452.0,0.0095
2451.0,0.0095
2450.0,0.0095
2449.0,0.0094
2448.0,0.0093
2447.0,0.0093
2446.0,0.0093
2445.0,0.0094
2444.0,0.0094
2443.0,0.0094
2442.0,0.0094
2441.0,0.0094
2440.0,0.0094
2439.0,0.0094
2438.0,0.0094
2437.0,0.0094
2436.0,0.0094
2435.0,0.0094
2434.0,0.0094
2433.0,0.0094
2432.0,0.0094
2431.0,0.0095
2430.0,0.0095
2429.0,0.0096
2428.0,0.0097
2427.0,0.0097
2426.0,0.0097
2425.0,0.0097
2424.0,0.0097
2423.0,0.0097
2422.0,0.0098
2421.0,0.0098
2420.0,0.0098
2419.0,0.0098
2418.0,0.0098
2417.0,0.0098
2416.0,0.0098
2415.0,0.0098
2414.0,0.0098
2413.0,0.0098
2412.0,0.0099
2411.0,0.0099
2410.0,0.01
2409.0,0.01
2408.0,0.0101
2407.0,0.0101
2406.0,0.01
2405.0,0.01
2404.0,0.01
2403.0,0.01
2402.0,0.01
2401.0,0.01
2400.0,0.01
2399.0,0.01
2398.0,0.0101
2397.0,0.0101
2396.0,0.0101
2395.0,0.0102
2394.0,0.0102
2393.0,0.0102
2392.0,0.0102
2391.0,0.0102
2390.0,0.0103
2389.0,0.0104
2388.0,0.0105
2387.0,0.0107
2386.0,0.0109
2385.0,0.0111
2384.0,0.0113
2383.0,0.0114
2382.0,0.0115
2381.0,0.0116
2380.0,0.0117
2379.0,0.0117
2378.0,0.0116
2377.0,0.0115
2376.0,0.0116
2375.0,0.0119
2374.0,0.0123
2373.0,0.0127
2372.0,0.0129
2371.0,0.0131
2370.0,0.0135
2369.0,0.0141
2368.0,0.0151
2367.0,0.0163
2366.0,0.0171
2365.0,0.0163
2364.0,0.0147
2363.0,0.0136
2362.0,0.0133
2361.0,0.0134
2360.0,0.0138
2359.0,0.0143
2358.0,0.0142
2357.0,0.0132
2356.0,0.0123
2355.0,0.0122
2354.0,0.0126
2353.0,0.0133
2352.0,0.0149
2351.0,0.0176
2350.0,0.0201
2349.0,0.0208
2348.0,0.019
2347.0,0.016
2346.0,0.014
2345.0,0.0137
2344.0,0.0146
2343.0,0.0152
2342.0,0.0151
2341.0,0.0145
2340.0,0.014
2339.0,0.0136
2338.0,0.0131
2337.0,0.0128
2336.0,0.0129
2335.0,0.0132
2334.0,0.013
2333.0,0.012
2332.0,0.011
2331.0,0.0108
2330.0,0.011
2329.0,0.0114
2328.0,0.0114
2327.0,0.0112
2326.0,0.011
2325.0,0.0107
2324.0,0.0108
2323.0,0.0109
2322.0,0.0111
2321.0,0.0112
2320.0,0.0113
2319.0,0.0114
2318.0,0.0115
2317.0,0.0115
2316.0,0.0113
2315.0,0.0111
2314.0,0.011
2313.0,0.011
2312.0,0.0111
2311.0,0.0114
2310.0,0.0115
2309.0,0.0115
2308.0,0.0114
2307.0,0.0112
2306.0,0.0109
2305.0,0.0107
2304.0,0.0106
2303.0,0.0106
2302.0,0.0106
2301.0,0.0107
2300.0,0.0107
2299.0,0.0107
2298.0,0.0107
2297.0,0.0106
2296.0,0.0106
2295.0,0.0106
2294.0,0.0105
2293.0,0.0104
2292.0,0.0104
2291.0,0.0104
2290.0,0.0103
2289.0,0.0103
2288.0,0.0101
2287.0,0.01
2286.0,0.0099
2285.0,0.0099
2284.0,0.0099
2283.0,0.0098
2282.0,0.0098
2281.0,0.0098
2280.0,0.0098
2279.0,0.0098
2278.0,0.0098
2277.0,0.0098
2276.0,0.0098
2275.0,0.0097
2274.0,0.0097
2273.0,0.0097
2272.0,0.0097
2271.0,0.0097
2270.0,0.0096
2269.0,0.0096
2268.0,0.0095
2267.0,0.0095
2266.0,0.0095
2265.0,0.0095
2264.0,0.0095
2263.0,0.0095
2262.0,0.0094
2261.0,0.0094
2260.0,0.0094
2259.0,0.0094
2258.0,0.0093
2257.0,0.0093
2256.0,0.0093
2255.0,0.0093
2254.0,0.0093
2253.0,0.0093
2252.0,0.0092
2251.0,0.0092
2250.0,0.0092
2249.0,0.0091
2248.0,0.0091
2247.0,0.009
2246.0,0.009
2245.0,0.0089
2244.0,0.0088
2243.0,0.0088
2242.0,0.0088
2241.0,0.0088
2240.0,0.0087
2239.0,0.0087
2238.0,0.0087
2237.0,0.0086
2236.0,0.0086
2235.0,0.0085
2234.0,0.0085
2233.0,0.0084
2232.0,0.0084
2231.0,0.0085
2230.0,0.0085
2229.0,0.0084
2228.0,0.0084
2227.0,0.0084
2226.0,0.0084
2225.0,0.0084
2224.0,0.0083
2223.0,0.0083
2222.0,0.0083
2221.0,0.0083
2220.0,0.0082
2219.0,0.0082
2218.0,0.0082
2217.0,0.0082
2216.0,0.0082
2215.0,0.0082
2214.0,0.0082
2213.0,0.0081
2212.0,0.0081
2211.0,0.008
2210.0,0.008
2209.0,0.0079
2208.0,0.0079
2207.0,0.0078
2206.0,0.0078
2205.0,0.0077
2204.0,0.0077
2203.0,0.0077
2202.0,0.0077
2201.0,0.0077
2200.0,0.0077
2199.0,0.0077
2198.0,0.0076
2197.0,0.0076
2196.0,0.0075
2195.0,0.0075
2194.0,0.0075
2193.0,0.0075
2192.0,0.0075
2191.0,0.0075
2190.0,0.0075
2189.0,0.0075
2188.0,0.0074
2187.0,0.0074
2186.0,0.0074
2185.0,0.0073
2184.0,0.0074
2183.0,0.0074
2182.0,0.0074
2181.0,0.0074
2180.0,0.0074
2179.0,0.0073
2178.0,0.0073
2177.0,0.0073
2176.0,0.0073
2175.0,0.0073
2174.0,0.0072
2173.0,0.0072
2172.0,0.0072
2171.0,0.0072
2170.0,0.0072
2169.0,0.0073
2168.0,0.0073
2167.0,0.0073
2166.0,0.0073
2165.0,0.0073
2164.0,0.0073
2163.0,0.0073
2162.0,0.0074
2161.0,0.0074
2160.0,0.0073
2159.0,0.0073
2158.0,0.0073
2157.0,0.0073
2156.0,0.0073
2155.0,0.0073
2154.0,0.0074
2153.0,0.0074
2152.0,0.0074
2151.0,0.0074
2150.0,0.0074
2149.0,0.0074
2148.0,0.0075
2147.0,0.0075
2146.0,0.0075
2145.0,0.0074
2144.0,0.0074
2143.0,0.0074
2142.0,0.0074
2141.0,0.0074
2140.0,0.0074
2139.0,0.0074
2138.0,0.0074
2137.0,0.0074
2136.0,0.0074
2135.0,0.0075
2134.0,0.0075
2133.0,0.0075
2132.0,0.0074
2131.0,0.0075
2130.0,0.0075
2129.0,0.0075
2128.0,0.0075
2127.0,0.0075
2126.0,0.0075
2125.0,0.0075
2124.0,0.0075
2123.0,0.0076
2122.0,0.0076
2121.0,0.0076
2120.0,0.0076
2119.0,0.0076
2118.0,0.0076
2117.0,0.0076
2116.0,0.0076
2115.0,0.0076
2114.0,0.0076
2113.0,0.0076
2112.0,0.0076
2111.0,0.0076
2110.0,0.0076
2109.0,0.0076
2108.0,0.0076
2107.0,0.0076
2106.0,0.0076
2105.0,0.0076
2104.0,0.0076
2103.0,0.0076
2102.0,0.0076
2101.0,0.0075
2100.0,0.0074
2099.0,0.0074
2098.0,0.0074
2097.0,0.0074
2096.0,0.0074
2095.0,0.0074
2094.0,0.0073
2093.0,0.0073
2092.0,0.0072
2091.0,0.0072
2090.0,0.0072
2089.0,0.0072
2088.0,0.0072
2087.0,0.0072
2086.0,0.0072
2085.0,0.0071
2084.0,0.0071
2083.0,0.007
2082.0,0.007
2081.0,0.0069
2080.0,0.0069
2079.0,0.0069
2078.0,0.0068
2077.0,0.0068
2076.0,0.0067
2075.0,0.0067
2074.0,0.0067
2073.0,0.0066
2072.0,0.0065
2071.0,0.0065
2070.0,0.0063
2069.0,0.0062
2068.0,0.0062
2067.0,0.0062
2066.0,0.0062
2065.0,0.0061
2064.0,0.0061
2063.0,0.006
2062.0,0.006
2061.0,0.006
2060.0,0.0059
2059.0,0.0058
2058.0,0.0057
2057.0,0.0056
2056.0,0.0056
2055.0,0.0055
2054.0,0.0055
2053.0,0.0055
2052.0,0.0054
2051.0,0.0054
2050.0,0.0053
2049.0,0.0052
2048.0,0.0052
2047.0,0.0052
2046.0,0.0051
2045.0,0.0051
2044.0,0.005
2043.0,0.005
2042.0,0.005
2041.0,0.005
2040.0,0.0049
2039.0,0.0048
2038.0,0.0047
2037.0,0.0046
2036.0,0.0045
2035.0,0.0045
2034.0,0.0045
2033.0,0.0045
2032.0,0.0045
2031.0,0.0046
2030.0,0.0046
2029.0,0.0046
2028.0,0.0046
2027.0,0.0046
2026.0,0.0046
2025.0,0.0045
2024.0,0.0045
2023.0,0.0044
2022.0,0.0044
2021.0,0.0044
2020.0,0.0043
2019.0,0.0043
2018.0,0.0044
2017.0,0.0044
2016.0,0.0044
2015.0,0.0044
2014.0,0.0044
2013.0,0.0044
2012.0,0.0044
2011.0,0.0043
2010.0,0.0043
2009.0,0.0043
2008.0,0.0043
2007.0,0.0043
2006.0,0.0044
2005.0,0.0044
2004.0,0.0044
2003.0,0.0044
2002.0,0.0044
2001.0,0.0044
2000.0,0.0044
1999.0,0.0044
1998.0,0.0044
1997.0,0.0045
1996.0,0.0045
1995.0,0.0045
1994.0,0.0046
1993.0,0.0047
1992.0,0.0047
1991.0,0.0048
1990.0,0.0048
1989.0,0.0048
1988.0,0.0049
1987.0,0.0049
1986.0,0.0049
1985.0,0.0049
1984.0,0.0049
1983.0,0.0049
1982.0,0.0049
1981.0,0.0049
1980.0,0.0049
1979.0,0.005
1978.0,0.005
1977.0,0.005
1976.0,0.005
1975.0,0.005
1974.0,0.0051
1973.0,0.0051
1972.0,0.0051
1971.0,0.0052
1970.0,0.0052
1969.0,0.0053
1968.0,0.0055
1967.0,0.0057
1966.0,0.0059
1965.0,0.0059
1964.0,0.006
1963.0,0.0061
1962.0,0.0063
1961.0,0.0063
1960.0,0.0064
1959.0,0.0065
1958.0,0.0066
1957.0,0.0066
1956.0,0.0067
1955.0,0.0068
1954.0,0.0069
1953.0,0.0069
1952.0,0.0069
1951.0,0.0069
1950.0,0.0069
1949.0,0.0069
1948.0,0.0068
1947.0,0.0067
1946.0,0.0066
1945.0,0.0064
1944.0,0.0063
1943.0,0.0062
1942.0,0.006
1941.0,0.0058
1940.0,0.0055
1939.0,0.0053
1938.0,0.0051
1937.0,0.0049
1936.0,0.0047
1935.0,0.0045
1934.0,0.0043
1933.0,0.0041
1932.0,0.004
1931.0,0.0039
1930.0,0.0038
1929.0,0.0036
1928.0,0.0034
1927.0,0.0033
1926.0,0.0031
1925.0,0.003
1924.0,0.0029
1923.0,0.0028
1922.0,0.0027
1921.0,0.0026
1920.0,0.0025
1919.0,0.0024
1918.0,0.0023
1917.0,0.0021
1916.0,0.0019
1915.0,0.0019
1914.0,0.0018
1913.0,0.0017
1912.0,0.0016
1911.0,0.0015
1910.0,0.0014
1909.0,0.0013
1908.0,0.0012
1907.0,0.0011
1906.0,0.001
1905.0,0.0009
1904.0,0.0009
1903.0,0.0008
1902.0,0.0007
1901.0,0.0005
1900.0,0.0003
1899.0,0.0002
1898.0,0.0001
1897.0,0.0
1896.0,-0.0
1895.0,-0.0001
1894.0,-0.0003
1893.0,-0.0004
1892.0,-0.0004
1891.0,-0.0004
1890.0,-0.0004
1889.0,-0.0006
1888.0,-0.0007
1887.0,-0.0008
1886.0,-0.0008
1885.0,-0.001
1884.0,-0.0011
1883.0,-0.0012
1882.0,-0.0013
1881.0,-0.0014
1880.0,-0.0015
1879.0,-0.0016
1878.0,-0.0016
1877.0,-0.0017
1876.0,-0.0018
1875.0,-0.0019
1874.0,-0.002
1873.0,-0.0021
1872.0,-0.0021
1871.0,-0.002
1870.0,-0.0019
1869.0,-0.0019
1868.0,-0.0021
1867.0,-0.0023
1866.0,-0.0023
1865.0,-0.0024
1864.0,-0.0025
1863.0,-0.0025
1862.0,-0.0025
1861.0,-0.0026
1860.0,-0.0027
1859.0,-0.0027
1858.0,-0.0027
1857.0,-0.0028
1856.0,-0.0028
1855.0,-0.0028
1854.0,-0.0028
1853.0,-0.0029
1852.0,-0.0029
1851.0,-0.0029
1850.0,-0.0028
1849.0,-0.0027
1848.0,-0.0027
1847.0,-0.0026
1846.0,-0.0024
1845.0,-0.0023
1844.0,-0.0024
1843.0,-0.0025
1842.0,-0.0024
1841.0,-0.0023
1840.0,-0.0023
1839.0,-0.0023
1838.0,-0.0023
1837.0,-0.0023
1836.0,-0.0023
1835.0,-0.0023
1834.0,-0.0022
1833.0,-0.0022
1832.0,-0.0021
1831.0,-0.002
1830.0,-0.002
1829.0,-0.0021
1828.0,-0.0022
1827.0,-0.002
1826.0,-0.0018
1825.0,-0.0019
1824.0,-0.002
1823.0,-0.0021
1822.0,-0.0021
1821.0,-0.0022
1820.0,-0.0024
1819.0,-0.0024
1818.0,-0.0025
1817.0,-0.0026
1816.0,-0.0028
1815.0,-0.0029
1814.0,-0.003
1813.0,-0.0031
1812.0,-0.0033
1811.0,-0.0034
1810.0,-0.0036
1809.0,-0.0038
1808.0,-0.0039
1807.0,-0.0039
1806.0,-0.004
1805.0,-0.0042
1804.0,-0.0043
1803.0,-0.0044
1802.0,-0.0044
1801.0,-0.0046
1800.0,-0.0048
1799.0,-0.005
1798.0,-0.0051
1797.0,-0.0053
1796.0,-0.0054
1795.0,-0.0054
1794.0,-0.0054
1793.0,-0.0056
1792.0,-0.0059
1791.0,-0.006
1790.0,-0.0061
1789.0,-0.0061
1788.0,-0.0062
1787.0,-0.0062
1786.0,-0.0063
1785.0,-0.0064
1784.0,-0.0066
1783.0,-0.0067
1782.0,-0.0067
1781.0,-0.0068
1780.0,-0.007
1779.0,-0.0071
1778.0,-0.007
1777.0,-0.007
1776.0,-0.0071
1775.0,-0.0069
1774.0,-0.0067
1773.0,-0.0069
1772.0,-0.0072
1771.0,-0.0071
1770.0,-0.0067
1769.0,-0.0064
1768.0,-0.0061
1767.0,-0.0059
1766.0,-0.0057
1765.0,-0.0054
1764.0,-0.0051
1763.0,-0.0044
1762.0,-0.0036
1761.0,-0.0031
1760.0,-0.0025
1759.0,-0.0015
1758.0,-0.0003
1757.0,0.0008
1756.0,0.0019
1755.0,0.0033
1754.0,0.005
1753.0,0.0068
1752.0,0.0092
1751.0,0.0125
1750.0,0.0165
1749.0,0.0208
1748.0,0.0256
1747.0,0.0309
1746.0,0.0368
1745.0,0.0436
1744.0,0.0516
1743.0,0.0606
1742.0,0.0699
1741.0,0.0805
1740.0,0.0935
1739.0,0.1067
1738.0,0.1173
1737.0,0.1253
1736.0,0.1346
1735.0,0.1512
1734.0,0.1744
1733.0,0.1933
1732.0,0.2066
1731.0,0.2204
1730.0,0.2367
1729.0,0.2539
1728.0,0.2704
1727.0,0.2867
1726.0,0.3038
1725.0,0.3228
1724.0,0.3437
1723.0,0.3649
1722.0,0.383
1721.0,0.3968
1720.0,0.4087
1719.0,0.4249
1718.0,0.4488
1717.0,0.4697
1716.0,0.4781
1715.0,0.4782
1714.0,0.4724
1713.0,0.4598
1712.0,0.4409
1711.0,0.4178
1710.0,0.3927
1709.0,0.3671
1708.0,0.341
1707.0,0.3132
1706.0,0.2844
1705.0,0.2599
1704.0,0.2426
1703.0,0.2296
1702.0,0.2163
1701.0,0.1997
1700.0,0.1832
1699.0,0.1722
1698.0,0.1652
1697.0,0.1583
1696.0,0.1502
1695.0,0.1429
1694.0,0.1377
1693.0,0.1342
1692.0,0.1307
1691.0,0.1268
1690.0,0.1229
1689.0,0.1199
1688.0,0.1176
1687.0,0.1154
1686.0,0.1128
1685.0,0.1103
1684.0,0.1083
1683.0,0.1062
1682.0,0.1045
1681.0,0.1029
1680.0,0.101
1679.0,0.0987
1678.0,0.0965
1677.0,0.0946
1676.0,0.0927
1675.0,0.0906
1674.0,0.0888
1673.0,0.0874
1672.0,0.0862
1671.0,0.0847
1670.0,0.0831
1669.0,0.0818
1668.0,0.0806
1667.0,0.0794
1666.0,0.0782
1665.0,0.0769
1664.0,0.0756
1663.0,0.0743
1662.0,0.073
1661.0,0.0721
1660.0,0.0713
1659.0,0.0703
1658.0,0.0693
1657.0,0.0684
1656.0,0.0676
1655.0,0.0666
1654.0,0.0662
1653.0,0.0665
1652.0,0.0661
1651.0,0.0656
1650.0,0.0652
1649.0,0.0647
1648.0,0.0642
1647.0,0.0639
1646.0,0.0637
1645.0,0.0635
1644.0,0.0632
1643.0,0.0626
1642.0,0.0619
1641.0,0.0611
1640.0,0.0602
1639.0,0.0592
1638.0,0.0581
1637.0,0.0571
1636.0,0.056
1635.0,0.0546
1634.0,0.0534
1633.0,0.0527
1632.0,0.0519
1631.0,0.0509
1630.0,0.0499
1629.0,0.049
1628.0,0.0482
1627.0,0.0474
1626.0,0.0467
1625.0,0.0463
1624.0,0.0459
1623.0,0.0454
1622.0,0.045
1621.0,0.0449
1620.0,0.0448
1619.0,0.0448
1618.0,0.0452
1617.0,0.0463
1616.0,0.0472
1615.0,0.0475
1614.0,0.0475
1613.0,0.0473
1612.0,0.0468
1611.0,0.046
1610.0,0.045
1609.0,0.044
1608.0,0.0429
1607.0,0.0418
1606.0,0.0408
1605.0,0.0398
1604.0,0.0389
1603.0,0.038
1602.0,0.0371
1601.0,0.0362
1600.0,0.0355
1599.0,0.0347
1598.0,0.034
1597.0,0.0334
1596.0,0.033
1595.0,0.0326
1594.0,0.0323
1593.0,0.0321
1592.0,0.032
1591.0,0.0318
1590.0,0.0316
1589.0,0.0316
1588.0,0.0317
1587.0,0.0319
1586.0,0.0325
1585.0,0.0333
1584.0,0.0347
1583.0,0.0364
1582.0,0.0384
1581.0,0.0403
1580.0,0.042
1579.0,0.043
1578.0,0.0434
1577.0,0.0427
1576.0,0.041
1575.0,0.039
1574.0,0.0374
1573.0,0.0361
1572.0,0.0348
1571.0,0.0332
1570.0,0.0314
1569.0,0.0299
1568.0,0.029
1567.0,0.0283
1566.0,0.0276
1565.0,0.0268
1564.0,0.0261
1563.0,0.0256
1562.0,0.0252
1561.0,0.0248
1560.0,0.0245
1559.0,0.0243
1558.0,0.0236
1557.0,0.0232
1556.0,0.0233
1555.0,0.0232
1554.0,0.0228
1553.0,0.0224
1552.0,0.0221
1551.0,0.0218
1550.0,0.0215
1549.0,0.0212
1548.0,0.021
1547.0,0.0207
1546.0,0.0204
1545.0,0.0202
1544.0,0.02
1543.0,0.0198
1542.0,0.0196
1541.0,0.0197
1540.0,0.0196
1539.0,0.0191
1538.0,0.0189
1537.0,0.019
1536.0,0.0191
1535.0,0.0191
1534.0,0.0192
1533.0,0.0194
1532.0,0.0196
1531.0,0.0196
1530.0,0.0196
1529.0,0.0196
1528.0,0.0196
1527.0,0.0195
1526.0,0.0193
1525.0,0.019
1524.0,0.0188
1523.0,0.0184
1522.0,0.018
1521.0,0.0176
1520.0,0.0173
1519.0,0.017
1518.0,0.0168
1517.0,0.0166
1516.0,0.0165
1515.0,0.0165
1514.0,0.0168
1513.0,0.0174
1512.0,0.0184
1511.0,0.0196
1510.0,0.0214
1509.0,0.0242
1508.0,0.0306
1507.0,0.0404
1506.0,0.0462
1505.0,0.0464
1504.0,0.0442
1503.0,0.0406
1502.0,0.0362
1501.0,0.0316
1500.0,0.0274
1499.0,0.0238
1498.0,0.0208
1497.0,0.0186
1496.0,0.017
1495.0,0.0158
1494.0,0.015
1493.0,0.0146
1492.0,0.0144
1491.0,0.0143
1490.0,0.0145
1489.0,0.0151
1488.0,0.0159
1487.0,0.0167
1486.0,0.0174
1485.0,0.0184
1484.0,0.0194
1483.0,0.0207
1482.0,0.0222
1481.0,0.0238
1480.0,0.0253
1479.0,0.0265
1478.0,0.0276
1477.0,0.0286
1476.0,0.0297
1475.0,0.0304
1474.0,0.031
1473.0,0.0318
1472.0,0.0324
1471.0,0.0327
1470.0,0.0329
1469.0,0.0331
1468.0,0.0334
1467.0,0.0338
1466.0,0.0348
1465.0,0.0364
1464.0,0.0381
1463.0,0.0396
1462.0,0.0408
1461.0,0.042
1460.0,0.0432
1459.0,0.0447
1458.0,0.0471
1457.0,0.0499
1456.0,0.0514
1455.0,0.0516
1454.0,0.0514
1453.0,0.051
1452.0,0.0503
1451.0,0.0494
1450.0,0.0485
1449.0,0.0476
1448.0,0.0467
1447.0,0.0458
1446.0,0.0451
1445.0,0.0446
1444.0,0.0441
1443.0,0.0436
1442.0,0.0431
1441.0,0.0426
1440.0,0.0421
1439.0,0.0413
1438.0,0.0402
1437.0,0.0386
1436.0,0.0365
1435.0,0.0345
1434.0,0.0325
1433.0,0.0305
1432.0,0.0282
1431.0,0.0258
1430.0,0.0234
1429.0,0.0213
1428.0,0.0198
1427.0,0.0186
1426.0,0.0178
1425.0,0.0172
1424.0,0.0169
1423.0,0.0171
1422.0,0.0176
1421.0,0.0189
1420.0,0.0215
1419.0,0.0261
1418.0,0.032
1417.0,0.0386
1416.0,0.0464
1415.0,0.0558
1414.0,0.0673
1413.0,0.081
1412.0,0.0962
1411.0,0.1102
1410.0,0.1208
1409.0,0.1268
1408.0,0.1277
1407.0,0.1236
1406.0,0.115
1405.0,0.1042
1404.0,0.0937
1403.0,0.0849
1402.0,0.0778
1401.0,0.0715
1400.0,0.0654
1399.0,0.0596
1398.0,0.0549
1397.0,0.0514
1396.0,0.0483
1395.0,0.0452
1394.0,0.0424
1393.0,0.0402
1392.0,0.0385
1391.0,0.037
1390.0,0.0356
1389.0,0.0346
1388.0,0.0338
1387.0,0.0333
1386.0,0.0331
1385.0,0.033
1384.0,0.0333
1383.0,0.0337
1382.0,0.0344
1381.0,0.0355
1380.0,0.0368
1379.0,0.0383
1378.0,0.0398
1377.0,0.0412
1376.0,0.0427
1375.0,0.0442
1374.0,0.0457
1373.0,0.0468
1372.0,0.0474
1371.0,0.0474
1370.0,0.0469
1369.0,0.0458
1368.0,0.0439
1367.0,0.0415
1366.0,0.0388
1365.0,0.0359
1364.0,0.0328
1363.0,0.0295
1362.0,0.0267
1361.0,0.0246
1360.0,0.0232
1359.0,0.0222
1358.0,0.0215
1357.0,0.0213
1356.0,0.0214
1355.0,0.0219
1354.0,0.0228
1353.0,0.0241
1352.0,0.026
1351.0,0.0285
1350.0,0.0318
1349.0,0.036
1348.0,0.041
1347.0,0.0469
1346.0,0.0537
1345.0,0.0614
1344.0,0.0697
1343.0,0.078
1342.0,0.0861
1341.0,0.0937
1340.0,0.0998
1339.0,0.1024
1338.0,0.1006
1337.0,0.0947
1336.0,0.086
1335.0,0.0755
1334.0,0.0644
1333.0,0.0539
1332.0,0.0447
1331.0,0.0374
1330.0,0.0319
1329.0,0.0282
1328.0,0.0258
1327.0,0.0245
1326.0,0.0241
1325.0,0.0243
1324.0,0.025
1323.0,0.026
1322.0,0.0273
1321.0,0.0287
1320.0,0.0304
1319.0,0.0322
1318.0,0.034
1317.0,0.0358
1316.0,0.0377
1315.0,0.0396
1314.0,0.0418
1313.0,0.0442
1312.0,0.0468
1311.0,0.0494
1310.0,0.0521
1309.0,0.055
1308.0,0.058
1307.0,0.0609
1306.0,0.0636
1305.0,0.0663
1304.0,0.0691
1303.0,0.0723
1302.0,0.076
1301.0,0.0804
1300.0,0.0856
1299.0,0.0914
1298.0,0.0976
1297.0,0.1043
1296.0,0.1113
1295.0,0.1183
1294.0,0.1252
1293.0,0.132
1292.0,0.1388
1291.0,0.1453
1290.0,0.1517
1289.0,0.1579
1288.0,0.164
1287.0,0.1697
1286.0,0.1749
1285.0,0.1799
1284.0,0.1847
1283.0,0.1892
1282.0,0.1934
1281.0,0.1974
1280.0,0.2014
1279.0,0.2053
1278.0,0.2092
1277.0,0.2136
1276.0,0.2186
1275.0,0.2244
1274.0,0.2312
1273.0,0.2396
1272.0,0.2499
1271.0,0.2616
1270.0,0.2746
1269.0,0.2889
1268.0,0.3042
1267.0,0.3202
1266.0,0.3362
1265.0,0.3523
1264.0,0.3681
1263.0,0.3826
1262.0,0.3953
1261.0,0.4063
1260.0,0.4155
1259.0,0.4223
1258.0,0.427
1257.0,0.4308
1256.0,0.4348
1255.0,0.439
1254.0,0.4441
1253.0,0.4509
1252.0,0.4598
1251.0,0.47
1250.0,0.4813
1249.0,0.4939
1248.0,0.5077
1247.0,0.5215
1246.0,0.5344
1245.0,0.5465
1244.0,0.5571
1243.0,0.5645
1242.0,0.5676
1241.0,0.5668
1240.0,0.5617
1239.0,0.5517
1238.0,0.5369
1237.0,0.5191
1236.0,0.499
1235.0,0.477
1234.0,0.454
1233.0,0.4313
1232.0,0.4093
1231.0,0.3881
1230.0,0.3679
1229.0,0.349
1228.0,0.3314
1227.0,0.3147
1226.0,0.2989
1225.0,0.284
1224.0,0.2702
1223.0,0.2571
1222.0,0.2446
1221.0,0.2329
1220.0,0.2219
1219.0,0.2115
1218.0,0.2017
1217.0,0.1926
1216.0,0.1843
1215.0,0.1765
1214.0,0.1693
1213.0,0.1627
1212.0,0.1566
1211.0,0.1511
1210.0,0.1459
1209.0,0.1411
1208.0,0.1366
1207.0,0.1323
1206.0,0.1281
1205.0,0.1241
1204.0,0.1204
1203.0,0.1168
1202.0,0.1134
1201.0,0.1101
1200.0,0.107
1199.0,0.1039
1198.0,0.1009
1197.0,0.098
1196.0,0.0952
1195.0,0.0925
1194.0,0.0899
1193.0,0.0874
1192.0,0.0852
1191.0,0.0831
1190.0,0.0812
1189.0,0.0795
1188.0,0.0781
1187.0,0.077
1186.0,0.0762
1185.0,0.0759
1184.0,0.076
1183.0,0.0766
1182.0,0.0777
1181.0,0.0792
1180.0,0.081
1179.0,0.0829
1178.0,0.0847
1177.0,0.0863
1176.0,0.0875
1175.0,0.0881
1174.0,0.0879
1173.0,0.087
1172.0,0.0853
1171.0,0.0829
1170.0,0.0799
1169.0,0.0767
1168.0,0.0736
1167.0,0.0708
1166.0,0.0685
1165.0,0.0669
1164.0,0.0658
1163.0,0.0652
1162.0,0.0648
1161.0,0.0645
1160.0,0.0645
1159.0,0.0645
1158.0,0.0649
1157.0,0.0655
1156.0,0.0664
1155.0,0.0677
1154.0,0.0693
1153.0,0.0713
1152.0,0.0736
1151.0,0.0763
1150.0,0.0792
1149.0,0.0826
1148.0,0.0862
1147.0,0.0902
1146.0,0.0944
1145.0,0.0989
1144.0,0.1037
1143.0,0.1087
1142.0,0.1138
1141.0,0.1191
1140.0,0.1246
1139.0,0.1302
1138.0,0.1359
1137.0,0.1417
1136.0,0.1479
1135.0,0.1543
1134.0,0.1611
1133.0,0.1684
1132.0,0.1763
1131.0,0.1848
1130.0,0.1939
1129.0,0.2036
1128.0,0.2141
1127.0,0.2252
1126.0,0.237
1125.0,0.2494
1124.0,0.2623
1123.0,0.2752
1122.0,0.2877
1121.0,0.2997
1120.0,0.3107
1119.0,0.3199
1118.0,0.3266
1117.0,0.3306
1116.0,0.3319
1115.0,0.3302
1114.0,0.3266
1113.0,0.3226
1112.0,0.3201
1111.0,0.3203
1110.0,0.3242
1109.0,0.3327
1108.0,0.3456
1107.0,0.3619
1106.0,0.3806
1105.0,0.4009
1104.0,0.4221
1103.0,0.4431
1102.0,0.463
1101.0,0.4818
1100.0,0.4992
1099.0,0.5138
1098.0,0.5252
1097.0,0.5335
1096.0,0.5387
1095.0,0.5399
1094.0,0.5372
1093.0,0.5317
1092.0,0.5239
1091.0,0.5137
1090.0,0.5015
1089.0,0.4888
1088.0,0.476
1087.0,0.4628
1086.0,0.4492
1085.0,0.4358
1084.0,0.4224
1083.0,0.4082
1082.0,0.393
1081.0,0.377
1080.0,0.3605
1079.0,0.3434
1078.0,0.3259
1077.0,0.3089
1076.0,0.2926
1075.0,0.2771
1074.0,0.2625
1073.0,0.2492
1072.0,0.237
1071.0,0.2259
1070.0,0.2158
1069.0,0.2068
1068.0,0.1987
1067.0,0.1914
1066.0,0.1847
1065.0,0.1787
1064.0,0.1732
1063.0,0.1682
1062.0,0.1635
1061.0,0.1595
1060.0,0.156
1059.0,0.1531
1058.0,0.1508
1057.0,0.1492
1056.0,0.1483
1055.0,0.1479
1054.0,0.148
1053.0,0.1486
1052.0,0.1496
1051.0,0.1509
1050.0,0.1523
1049.0,0.1539
1048.0,0.1555
1047.0,0.1569
1046.0,0.1581
1045.0,0.159
1044.0,0.1594
1043.0,0.1593
1042.0,0.1586
1041.0,0.1574
1040.0,0.1558
1039.0,0.1537
1038.0,0.1513
1037.0,0.1488
1036.0,0.1463
1035.0,0.1439
1034.0,0.1415
1033.0,0.1392
1032.0,0.137
1031.0,0.1349
1030.0,0.1331
1029.0,0.1319
1028.0,0.1321
1027.0,0.1342
1026.0,0.1393
1025.0,0.1483
1024.0,0.162
1023.0,0.1808
1022.0,0.2046
1021.0,0.2326
1020.0,0.2623
1019.0,0.2894
1018.0,0.308
1017.0,0.3134
1016.0,0.3041
1015.0,0.2828
1014.0,0.2556
1013.0,0.2284
1012.0,0.2046
1011.0,0.1853
1010.0,0.1702
1009.0,0.1584
1008.0,0.1492
1007.0,0.1418
1006.0,0.1358
1005.0,0.1309
1004.0,0.127
1003.0,0.1237
1002.0,0.1208
1001.0,0.1183
1000.0,0.1161
999.0,0.1141
998.0,0.1123
997.0,0.1106
996.0,0.1091
995.0,0.1077
994.0,0.1064
993.0,0.1054
992.0,0.1046
991.0,0.1039
990.0,0.1034
989.0,0.1031
988.0,0.1031
987.0,0.1032
986.0,0.1035
985.0,0.1041
984.0,0.1048
983.0,0.1058
982.0,0.1069
981.0,0.1083
980.0,0.1098
979.0,0.1114
978.0,0.113
977.0,0.1146
976.0,0.1162
975.0,0.1174
974.0,0.1183
973.0,0.1187
972.0,0.1188
971.0,0.1184
970.0,0.1176
969.0,0.1163
968.0,0.1147
967.0,0.1127
966.0,0.1104
965.0,0.1081
964.0,0.1057
963.0,0.1033
962.0,0.1009
961.0,0.0987
960.0,0.0965
959.0,0.0945
958.0,0.0926
957.0,0.0909
956.0,0.0893
955.0,0.0877
954.0,0.0863
953.0,0.0849
952.0,0.0837
951.0,0.0826
950.0,0.0816
949.0,0.0806
948.0,0.0798
947.0,0.079
946.0,0.0781
945.0,0.0774
944.0,0.0767
943.0,0.0761
942.0,0.0756
941.0,0.0752
940.0,0.0747
939.0,0.0742
938.0,0.0737
937.0,0.0732
936.0,0.0728
935.0,0.0724
934.0,0.0719
933.0,0.0714
932.0,0.0708
931.0,0.0702
930.0,0.0697
929.0,0.0693
928.0,0.0689
927.0,0.0684
926.0,0.0678
925.0,0.0672
924.0,0.0667
923.0,0.0663
922.0,0.0658
921.0,0.0654
920.0,0.0651
919.0,0.0647
918.0,0.0644
917.0,0.0642
916.0,0.0641
915.0,0.0642
914.0,0.0644
913.0,0.0648
912.0,0.0654
911.0,0.0663
910.0,0.0674
909.0,0.0688
908.0,0.0705
907.0,0.0723
906.0,0.0741
905.0,0.0761
904.0,0.078
903.0,0.0798
902.0,0.0813
901.0,0.0826
900.0,0.0837
899.0,0.0845
898.0,0.0851
897.0,0.0852
896.0,0.0851
895.0,0.0848
894.0,0.0844
893.0,0.0841
892.0,0.084
891.0,0.084
890.0,0.0843
889.0,0.0849
888.0,0.0858
887.0,0.0873
886.0,0.0893
885.0,0.0921
884.0,0.096
883.0,0.101
882.0,0.1071
881.0,0.1144
880.0,0.1229
879.0,0.1324
878.0,0.1426
877.0,0.1533
876.0,0.1642
875.0,0.1743
874.0,0.1823
873.0,0.1867
872.0,0.1863
871.0,0.1809
870.0,0.1718
869.0,0.1613
868.0,0.151
867.0,0.1419
866.0,0.1344
865.0,0.1285
864.0,0.124
863.0,0.1205
862.0,0.1177
861.0,0.1155
860.0,0.1139
859.0,0.1126
858.0,0.1117
857.0,0.1111
856.0,0.1107
855.0,0.1105
854.0,0.1103
853.0,0.1103
852.0,0.1106
851.0,0.111
850.0,0.1116
849.0,0.1123
848.0,0.113
847.0,0.1135
846.0,0.1135
845.0,0.1131
844.0,0.1125
843.0,0.1118
842.0,0.1108
841.0,0.1098
840.0,0.1086
839.0,0.1072
838.0,0.1057
837.0,0.1042
836.0,0.1026
835.0,0.1008
834.0,0.0989
833.0,0.0969
832.0,0.095
831.0,0.0933
830.0,0.0917
829.0,0.0903
828.0,0.0892
827.0,0.088
826.0,0.0868
825.0,0.0857
824.0,0.0848
823.0,0.0841
822.0,0.0834
821.0,0.0828
820.0,0.0823
819.0,0.082
818.0,0.0817
817.0,0.0815
816.0,0.0814
815.0,0.0812
814.0,0.0809
813.0,0.0807
812.0,0.0804
811.0,0.0801
810.0,0.0798
809.0,0.0794
808.0,0.079
807.0,0.0786
806.0,0.078
805.0,0.0773
804.0,0.0767
803.0,0.0758
802.0,0.0749
801.0,0.0742
800.0,0.0742
799.0,0.0752
798.0,0.0777
797.0,0.0814
796.0,0.086
795.0,0.0903
794.0,0.0932
793.0,0.0942
792.0,0.0932
791.0,0.0906
790.0,0.0873
789.0,0.0839
788.0,0.0807
787.0,0.0778
786.0,0.0751
785.0,0.0727
784.0,0.0706
783.0,0.0688
782.0,0.0671
781.0,0.0656
780.0,0.0644
779.0,0.0633
778.0,0.0622
777.0,0.0612
776.0,0.0601
775.0,0.059
774.0,0.0578
773.0,0.0566
772.0,0.0554
771.0,0.054
770.0,0.0525
769.0,0.051
768.0,0.0495
767.0,0.0479
766.0,0.0463
765.0,0.0449
764.0,0.0435
763.0,0.0422
762.0,0.0409
761.0,0.0397
760.0,0.0385
759.0,0.0374
758.0,0.0363
757.0,0.0351
756.0,0.034
755.0,0.0329
754.0,0.0319
753.0,0.031
752.0,0.0303
751.0,0.0296
750.0,0.0291
749.0,0.0289
748.0,0.029
747.0,0.0294
746.0,0.0303
745.0,0.0321
744.0,0.0353
743.0,0.0402
742.0,0.0471
741.0,0.0567
740.0,0.0693
739.0,0.0851
738.0,0.1038
737.0,0.1252
736.0,0.1487
735.0,0.1736
734.0,0.1994
733.0,0.2266
732.0,0.256
731.0,0.2878
730.0,0.3228
729.0,0.3622
728.0,0.4058
727.0,0.4505
726.0,0.4907
725.0,0.5199
724.0,0.5332
723.0,0.5295
722.0,0.5118
721.0,0.4853
720.0,0.4544
719.0,0.4224
718.0,0.3914
717.0,0.363
716.0,0.3379
715.0,0.3162
714.0,0.2983
713.0,0.2837
712.0,0.2717
711.0,0.2612
710.0,0.2517
709.0,0.2433
708.0,0.2358
707.0,0.2288
706.0,0.222
705.0,0.2157
704.0,0.2096
703.0,0.2034
702.0,0.1966
701.0,0.1897
700.0,0.1829
699.0,0.1761
698.0,0.1694
697.0,0.1634
696.0,0.1585
695.0,0.1544
694.0,0.1508
693.0,0.1478
692.0,0.1454
691.0,0.1433
690.0,0.1414
689.0,0.1397
688.0,0.1383
687.0,0.1369
686.0,0.1357
685.0,0.1347
684.0,0.1343
683.0,0.1338
682.0,0.133
681.0,0.1321
680.0,0.1312
679.0,0.1303
678.0,0.1292
677.0,0.1279
676.0,0.1267
675.0,0.1248
674.0,0.1232
673.0,0.1214
672.0,0.1199
671.0,0.119
670.0,0.1183
669.0,0.1172
668.0,0.1157
667.0,0.1142
666.0,0.1129
665.0,0.112
664.0,0.1111
663.0,0.11
662.0,0.1079
661.0,0.1061
660.0,0.105
659.0,0.1042
658.0,0.1038
657.0,0.1034
656.0,0.1031
655.0,0.1027
654.0,0.1022
653.0,0.1019
652.0,0.1018
651.0,0.1016
650.0,0.1006
649.0,0.0992
648.0,0.0981
647.0,0.0973
646.0,0.0964
645.0,0.0959
644.0,0.0958
643.0,0.096
642.0,0.096
641.0,0.0958
640.0,0.0958
639.0,0.0961
638.0,0.0968
637.0,0.0981
636.0,0.1001
635.0,0.1028
634.0,0.1051
633.0,0.1064
632.0,0.1062
631.0,0.1044
630.0,0.1016
629.0,0.0988
628.0,0.0969
627.0,0.0956
626.0,0.0946
625.0,0.0938
624.0,0.0934
623.0,0.0931
622.0,0.0926
621.0,0.092
620.0,0.0913
619.0,0.0907
618.0,0.0901
617.0,0.0898
616.0,0.0894
615.0,0.0886
614.0,0.0876
613.0,0.0871
612.0,0.0875
611.0,0.0879
610.0,0.0874
609.0,0.0864
608.0,0.0856
607.0,0.0856
606.0,0.0859
605.0,0.0866
604.0,0.0874
603.0,0.0875
602.0,0.0862
601.0,0.0844
600.0,0.0835
