cm-1,A
4000.0,0.0095
3999.0,0.0095
3998.0,0.0095
3997.0,0.0095
3996.0,0.0095
3995.0,0.0094
3994.0,0.0094
3993.0,0.0093
3992.0,0.0094
3991.0,0.0094
3990.0,0.0094
3989.0,0.0094
3988.0,0.0094
3987.0,0.0094
3986.0,0.0095
3985.0,0.0095
3984.0,0.0095
3983.0,0.0095
3982.0,0.0095
3981.0,0.0094
3980.0,0.0094
3979.0,0.0094
3978.0,0.0094
3977.0,0.0095
3976.0,0.0095
3975.0,0.0096
3974.0,0.0096
3973.0,0.0097
3972.0,0.0097
3971.0,0.0097
3970.0,0.0097
3969.0,0.0098
3968.0,0.0098
3967.0,0.0098
3966.0,0.0097
3965.0,0.0097
3964.0,0.0096
3963.0,0.0096
3962.0,0.0097
3961.0,0.0098
3960.0,0.0098
3959.0,0.0099
3958.0,0.0099
3957.0,0.0098
3956.0,0.0098
3955.0,0.0098
3954.0,0.0097
3953.0,0.0096
3952.0,0.0095
3951.0,0.0095
3950.0,0.0096
3949.0,0.0096
3948.0,0.0096
3947.0,0.0096
3946.0,0.0096
3945.0,0.0097
3944.0,0.0097
3943.0,0.0098
3942.0,0.0098
3941.0,0.0099
3940.0,0.0099
3939.0,0.0099
3938.0,0.0098
3937.0,0.0097
3936.0,0.0096
3935.0,0.0095
3934.0,0.0095
3933.0,0.0095
3932.0,0.0096
3931.0,0.0096
3930.0,0.0096
3929.0,0.0097
3928.0,0.0097
3927.0,0.0097
3926.0,0.0097
3925.0,0.0097
3924.0,0.0097
3923.0,0.0097
3922.0,0.0097
3921.0,0.0098
3920.0,0.0098
3919.0,0.0099
3918.0,0.0099
3917.0,0.0099
3916.0,0.0099
3915.0,0.01
3914.0,0.01
3913.0,0.01
3912.0,0.01
3911.0,0.0099
3910.0,0.0099
3909.0,0.0098
3908.0,0.0097
3907.0,0.0095
3906.0,0.0094
3905.0,0.0093
3904.0,0.0092
3903.0,0.0093
3902.0,0.0095
3901.0,0.0097
3900.0,0.0097
3899.0,0.0097
3898.0,0.0097
3897.0,0.0098
3896.0,0.0098
3895.0,0.0098
3894.0,0.0099
3893.0,0.01
3892.0,0.0101
3891.0,0.01
3890.0,0.0099
3889.0,0.01
3888.0,0.0102
3887.0,0.0102
3886.0,0.01
3885.0,0.0098
3884.0,0.0098
3883.0,0.0099
3882.0,0.01
3881.0,0.0099
3880.0,0.0098
3879.0,0.0097
3878.0,0.0099
3877.0,0.01
3876.0,0.01
3875.0,0.0098
3874.0,0.0097
3873.0,0.0097
3872.0,0.0099
3871.0,0.0099
3870.0,0.0098
3869.0,0.0097
3868.0,0.0099
3867.0,0.0102
3866.0,0.0103
3865.0,0.0102
3864.0,0.0101
3863.0,0.01
3862.0,0.01
3861.0,0.01
3860.0,0.01
3859.0,0.01
3858.0,0.0099
3857.0,0.0099
3856.0,0.0099
3855.0,0.0102
3854.0,0.0106
3853.0,0.0104
3852.0,0.0103
3851.0,0.0105
3850.0,0.0107
3849.0,0.0106
3848.0,0.0105
3847.0,0.0104
3846.0,0.0103
3845.0,0.0101
3844.0,0.0099
3843.0,0.0097
3842.0,0.0096
3841.0,0.0098
3840.0,0.01
3839.0,0.0103
3838.0,0.0103
3837.0,0.0103
3836.0,0.0102
3835.0,0.0103
3834.0,0.0105
3833.0,0.0106
3832.0,0.0105
3831.0,0.0105
3830.0,0.0104
3829.0,0.0104
3828.0,0.0104
3827.0,0.0103
3826.0,0.01
3825.0,0.0099
3824.0,0.0098
3823.0,0.0099
3822.0,0.0099
3821.0,0.0098
3820.0,0.0098
3819.0,0.0101
3818.0,0.0105
3817.0,0.0107
3816.0,0.0106
3815.0,0.0105
3814.0,0.0107
3813.0,0.0109
3812.0,0.0109
3811.0,0.0108
3810.0,0.0107
3809.0,0.0107
3808.0,0.0107
3807.0,0.0105
3806.0,0.0103
3805.0,0.0104
3804.0,0.0106
3803.0,0.0107
3802.0,0.0107
3801.0,0.0105
3800.0,0.0105
3799.0,0.0107
3798.0,0.0108
3797.0,0.0108
3796.0,0.0108
3795.0,0.0108
3794.0,0.011
3793.0,0.0111
3792.0,0.0112
3791.0,0.0111
3790.0,0.0111
3789.0,0.011
3788.0,0.0109
3787.0,0.0109
3786.0,0.0109
3785.0,0.0109
3784.0,0.0109
3783.0,0.0108
3782.0,0.0108
3781.0,0.0108
3780.0,0.0109
3779.0,0.0109
3778.0,0.011
3777.0,0.0111
3776.0,0.0111
3775.0,0.0109
3774.0,0.0108
3773.0,0.0108
3772.0,0.0108
3771.0,0.0108
3770.0,0.0108
3769.0,0.0109
3768.0,0.011
3767.0,0.0111
3766.0,0.0111
3765.0,0.0109
3764.0,0.0107
3763.0,0.0106
3762.0,0.0106
3761.0,0.0106
3760.0,0.0106
3759.0,0.0107
3758.0,0.0107
3757.0,0.0107
3756.0,0.0107
3755.0,0.0108
3754.0,0.0108
3753.0,0.0107
3752.0,0.0106
3751.0,0.0106
3750.0,0.0104
3749.0,0.0103
3748.0,0.0104
3747.0,0.0108
3746.0,0.0111
3745.0,0.0111
3744.0,0.0108
3743.0,0.0107
3742.0,0.0111
3741.0,0.0112
3740.0,0.0111
3739.0,0.0109
3738.0,0.0108
3737.0,0.0108
3736.0,0.0108
3735.0,0.0109
3734.0,0.0111
3733.0,0.0112
3732.0,0.0113
3731.0,0.0114
3730.0,0.0116
3729.0,0.0118
3728.0,0.0119
3727.0,0.0118
3726.0,0.0117
3725.0,0.0116
3724.0,0.0115
3723.0,0.0114
3722.0,0.0113
3721.0,0.0112
3720.0,0.0112
3719.0,0.0112
3718.0,0.0112
3717.0,0.0111
3716.0,0.011
3715.0,0.011
3714.0,0.011
3713.0,0.0112
3712.0,0.0115
3711.0,0.0117
3710.0,0.0117
3709.0,0.0117
3708.0,0.0117
3707.0,0.0118
3706.0,0.0117
3705.0,0.0117
3704.0,0.0116
3703.0,0.0116
3702.0,0.0116
3701.0,0.0116
3700.0,0.0116
3699.0,0.0117
3698.0,0.0118
3697.0,0.0118
3696.0,0.0117
3695.0,0.0116
3694.0,0.0114
3693.0,0.0113
3692.0,0.0112
3691.0,0.0114
3690.0,0.0116
3689.0,0.0116
3688.0,0.0115
3687.0,0.0117
3686.0,0.0119
3685.0,0.0121
3684.0,0.0121
3683.0,0.012
3682.0,0.012
3681.0,0.0119
3680.0,0.0117
3679.0,0.0114
3678.0,0.0113
3677.0,0.0114
3676.0,0.0115
3675.0,0.0113
3674.0,0.0113
3673.0,0.0115
3672.0,0.0117
3671.0,0.0119
3670.0,0.012
3669.0,0.012
3668.0,0.0121
3667.0,0.0123
3666.0,0.0123
3665.0,0.0123
3664.0,0.0122
3663.0,0.0122
3662.0,0.0122
3661.0,0.0121
3660.0,0.0121
3659.0,0.0122
3658.0,0.0122
3657.0,0.0123
3656.0,0.0123
3655.0,0.0122
3654.0,0.0122
3653.0,0.0121
3652.0,0.0119
3651.0,0.0117
3650.0,0.0119
3649.0,0.0121
3648.0,0.0122
3647.0,0.0122
3646.0,0.0124
3645.0,0.0126
3644.0,0.0127
3643.0,0.0128
3642.0,0.0129
3641.0,0.0129
3640.0,0.013
3639.0,0.013
3638.0,0.013
3637.0,0.0131
3636.0,0.0131
3635.0,0.0131
3634.0,0.013
3633.0,0.013
3632.0,0.013
3631.0,0.0131
3630.0,0.0132
3629.0,0.0133
3628.0,0.0132
3627.0,0.0133
3626.0,0.0135
3625.0,0.0136
3624.0,0.0134
3623.0,0.0132
3622.0,0.0131
3621.0,0.013
3620.0,0.0129
3619.0,0.0129
3618.0,0.0129
3617.0,0.0131
3616.0,0.0132
3615.0,0.0132
3614.0,0.013
3613.0,0.0128
3612.0,0.0127
3611.0,0.0127
3610.0,0.0129
3609.0,0.013
3608.0,0.0132
3607.0,0.0132
3606.0,0.0133
3605.0,0.0134
3604.0,0.0135
3603.0,0.0136
3602.0,0.0137
3601.0,0.0136
3600.0,0.0134
3599.0,0.0132
3598.0,0.0131
3597.0,0.0132
3596.0,0.0133
3595.0,0.0134
3594.0,0.0135
3593.0,0.0134
3592.0,0.0133
3591.0,0.0132
3590.0,0.0131
3589.0,0.0132
3588.0,0.0133
3587.0,0.0133
3586.0,0.0133
3585.0,0.0133
3584.0,0.0134
3583.0,0.0134
3582.0,0.0135
3581.0,0.0136
3580.0,0.0137
3579.0,0.0137
3578.0,0.0138
3577.0,0.0138
3576.0,0.0137
3575.0,0.0137
3574.0,0.0135
3573.0,0.0134
3572.0,0.0134
3571.0,0.0133
3570.0,0.0133
3569.0,0.0133
3568.0,0.0134
3567.0,0.0135
3566.0,0.0136
3565.0,0.0137
3564.0,0.0138
3563.0,0.014
3562.0,0.0142
3561.0,0.0142
3560.0,0.0143
3559.0,0.0144
3558.0,0.0144
3557.0,0.0145
3556.0,0.0146
3555.0,0.0146
3554.0,0.0146
3553.0,0.0146
3552.0,0.0145
3551.0,0.0143
3550.0,0.0142
3549.0,0.0141
3548.0,0.0141
3547.0,0.0142
3546.0,0.0144
3545.0,0.0146
3544.0,0.0147
3543.0,0.0147
3542.0,0.0147
3541.0,0.0147
3540.0,0.0146
3539.0,0.0145
3538.0,0.0145
3537.0,0.0145
3536.0,0.0146
3535.0,0.0146
3534.0,0.0146
3533.0,0.0145
3532.0,0.0145
3531.0,0.0144
3530.0,0.0144
3529.0,0.0144
3528.0,0.0144
3527.0,0.0144
3526.0,0.0144
3525.0,0.0145
3524.0,0.0146
3523.0,0.0147
3522.0,0.0147
3521.0,0.0147
3520.0,0.0147
3519.0,0.0147
3518.0,0.0146
3517.0,0.0146
3516.0,0.0145
3515.0,0.0145
3514.0,0.0144
3513.0,0.0144
3512.0,0.0144
3511.0,0.0144
3510.0,0.0145
3509.0,0.0145
3508.0,0.0144
3507.0,0.0144
3506.0,0.0143
3505.0,0.0143
3504.0,0.0143
3503.0,0.0144
3502.0,0.0144
3501.0,0.0145
3500.0,0.0145
3499.0,0.0145
3498.0,0.0144
3497.0,0.0144
3496.0,0.0144
3495.0,0.0145
3494.0,0.0145
3493.0,0.0145
3492.0,0.0145
3491.0,0.0145
3490.0,0.0145
3489.0,0.0145
3488.0,0.0145
3487.0,0.0145
3486.0,0.0145
3485.0,0.0145
3484.0,0.0145
3483.0,0.0146
3482.0,0.0147
3481.0,0.0147
3480.0,0.0148
3479.0,0.0148
3478.0,0.0147
3477.0,0.0147
3476.0,0.0146
3475.0,0.0147
3474.0,0.0147
3473.0,0.0147
3472.0,0.0147
3471.0,0.0147
3470.0,0.0147
3469.0,0.0148
3468.0,0.0148
3467.0,0.0149
3466.0,0.0149
3465.0,0.0148
3464.0,0.0147
3463.0,0.0147
3462.0,0.0148
3461.0,0.0148
3460.0,0.0149
3459.0,0.015
3458.0,0.0151
3457.0,0.0151
3456.0,0.0152
3455.0,0.0152
3454.0,0.0153
3453.0,0.0153
3452.0,0.0153
3451.0,0.0153
3450.0,0.0153
3449.0,0.0153
3448.0,0.0153
3447.0,0.0154
3446.0,0.0154
3445.0,0.0155
3444.0,0.0155
3443.0,0.0156
3442.0,0.0157
3441.0,0.0158
3440.0,0.0159
3439.0,0.0159
3438.0,0.0159
3437.0,0.016
3436.0,0.0161
3435.0,0.0161
3434.0,0.0162
3433.0,0.0161
3432.0,0.0161
3431.0,0.0161
3430.0,0.016
3429.0,0.016
3428.0,0.016
3427.0,0.016
3426.0,0.016
3425.0,0.0161
3424.0,0.0161
3423.0,0.0161
3422.0,0.016
3421.0,0.016
3420.0,0.0161
3419.0,0.0161
3418.0,0.0161
3417.0,0.0161
3416.0,0.016
3415.0,0.0159
3414.0,0.0158
3413.0,0.0157
3412.0,0.0156
3411.0,0.0155
3410.0,0.0155
3409.0,0.0154
3408.0,0.0154
3407.0,0.0154
3406.0,0.0154
3405.0,0.0155
3404.0,0.0155
3403.0,0.0155
3402.0,0.0155
3401.0,0.0154
3400.0,0.0154
3399.0,0.0153
3398.0,0.0152
3397.0,0.0151
3396.0,0.015
3395.0,0.0151
3394.0,0.0152
3393.0,0.0153
3392.0,0.0154
3391.0,0.0154
3390.0,0.0153
3389.0,0.0151
3388.0,0.015
3387.0,0.0149
3386.0,0.0149
3385.0,0.0149
3384.0,0.0149
3383.0,0.015
3382.0,0.015
3381.0,0.0149
3380.0,0.0149
3379.0,0.0148
3378.0,0.0148
3377.0,0.0148
3376.0,0.0148
3375.0,0.0149
3374.0,0.0149
3373.0,0.0149
3372.0,0.0149
3371.0,0.0149
3370.0,0.0149
3369.0,0.0149
3368.0,0.0149
3367.0,0.015
3366.0,0.015
3365.0,0.015
3364.0,0.015
3363.0,0.0149
3362.0,0.0148
3361.0,0.0148
3360.0,0.0148
3359.0,0.0149
3358.0,0.015
3357.0,0.015
3356.0,0.0151
3355.0,0.0151
3354.0,0.0151
3353.0,0.015
3352.0,0.015
3351.0,0.0149
3350.0,0.0149
3349.0,0.0149
3348.0,0.0149
3347.0,0.0149
3346.0,0.0149
3345.0,0.0149
3344.0,0.0149
3343.0,0.0149
3342.0,0.0149
3341.0,0.0149
3340.0,0.0149
3339.0,0.0149
3338.0,0.0149
3337.0,0.0148
3336.0,0.0148
3335.0,0.0148
3334.0,0.0148
3333.0,0.0149
3332.0,0.0151
3331.0,0.0151
3330.0,0.0151
3329.0,0.015
3328.0,0.015
3327.0,0.015
3326.0,0.015
3325.0,0.015
3324.0,0.015
3323.0,0.0149
3322.0,0.0148
3321.0,0.0147
3320.0,0.0147
3319.0,0.0147
3318.0,0.0147
3317.0,0.0147
3316.0,0.0146
3315.0,0.0146
3314.0,0.0147
3313.0,0.0148
3312.0,0.0148
3311.0,0.0149
3310.0,0.0149
3309.0,0.0149
3308.0,0.0149
3307.0,0.0148
3306.0,0.0148
3305.0,0.0148
3304.0,0.0148
3303.0,0.0149
3302.0,0.0149
3301.0,0.015
3300.0,0.0149
3299.0,0.0148
3298.0,0.0148
3297.0,0.0147
3296.0,0.0147
3295.0,0.0146
3294.0,0.0146
3293.0,0.0147
3292.0,0.0147
3291.0,0.0147
3290.0,0.0147
3289.0,0.0147
3288.0,0.0146
3287.0,0.0145
3286.0,0.0145
3285.0,0.0145
3284.0,0.0146
3283.0,0.0146
3282.0,0.0147
3281.0,0.0147
3280.0,0.0148
3279.0,0.0148
3278.0,0.0149
3277.0,0.0149
3276.0,0.0148
3275.0,0.0148
3274.0,0.0147
3273.0,0.0147
3272.0,0.0148
3271.0,0.0148
3270.0,0.0148
3269.0,0.0147
3268.0,0.0147
3267.0,0.0147
3266.0,0.0147
3265.0,0.0147
3264.0,0.0147
3263.0,0.0146
3262.0,0.0145
3261.0,0.0145
3260.0,0.0144
3259.0,0.0144
3258.0,0.0144
3257.0,0.0143
3256.0,0.0143
3255.0,0.0143
3254.0,0.0143
3253.0,0.0144
3252.0,0.0144
3251.0,0.0145
3250.0,0.0145
3249.0,0.0144
3248.0,0.0144
3247.0,0.0144
3246.0,0.0144
3245.0,0.0145
3244.0,0.0145
3243.0,0.0145
3242.0,0.0145
3241.0,0.0145
3240.0,0.0145
3239.0,0.0144
3238.0,0.0144
3237.0,0.0145
3236.0,0.0145
3235.0,0.0145
3234.0,0.0146
3233.0,0.0145
3232.0,0.0145
3231.0,0.0144
3230.0,0.0144
3229.0,0.0144
3228.0,0.0144
3227.0,0.0144
3226.0,0.0144
3225.0,0.0144
3224.0,0.0144
3223.0,0.0144
3222.0,0.0145
3221.0,0.0145
3220.0,0.0145
3219.0,0.0144
3218.0,0.0144
3217.0,0.0143
3216.0,0.0143
3215.0,0.0143
3214.0,0.0143
3213.0,0.0143
3212.0,0.0143
3211.0,0.0142
3210.0,0.0141
3209.0,0.0141
3208.0,0.0141
3207.0,0.0141
3206.0,0.0142
3205.0,0.0142
3204.0,0.0143
3203.0,0.0144
3202.0,0.0144
3201.0,0.0144
3200.0,0.0143
3199.0,0.0143
3198.0,0.0142
3197.0,0.0142
3196.0,0.0141
3195.0,0.0142
3194.0,0.0142
3193.0,0.0143
3192.0,0.0143
3191.0,0.0143
3190.0,0.0143
3189.0,0.0142
3188.0,0.0142
3187.0,0.0142
3186.0,0.0142
3185.0,0.0142
3184.0,0.0142
3183.0,0.0142
3182.0,0.0141
3181.0,0.0141
3180.0,0.0141
3179.0,0.0141
3178.0,0.0141
3177.0,0.0141
3176.0,0.0141
3175.0,0.0141
3174.0,0.0141
3173.0,0.0141
3172.0,0.0141
3171.0,0.0141
3170.0,0.0141
3169.0,0.0142
3168.0,0.0143
3167.0,0.0143
3166.0,0.0143
3165.0,0.0143
3164.0,0.0143
3163.0,0.0142
3162.0,0.0142
3161.0,0.0141
3160.0,0.0141
3159.0,0.0142
3158.0,0.0142
3157.0,0.0143
3156.0,0.0144
3155.0,0.0144
3154.0,0.0144
3153.0,0.0144
3152.0,0.0143
3151.0,0.0142
3150.0,0.0141
3149.0,0.0141
3148.0,0.0141
3147.0,0.0141
3146.0,0.0141
3145.0,0.0141
3144.0,0.0142
3143.0,0.0143
3142.0,0.0143
3141.0,0.0144
3140.0,0.0143
3139.0,0.0143
3138.0,0.0142
3137.0,0.0141
3136.0,0.0141
3135.0,0.0141
3134.0,0.0142
3133.0,0.0142
3132.0,0.0142
3131.0,0.0143
3130.0,0.0143
3129.0,0.0143
3128.0,0.0144
3127.0,0.0144
3126.0,0.0144
3125.0,0.0144
3124.0,0.0144
3123.0,0.0144
3122.0,0.0144
3121.0,0.0144
3120.0,0.0144
3119.0,0.0144
3118.0,0.0144
3117.0,0.0144
3116.0,0.0144
3115.0,0.0145
3114.0,0.0146
3113.0,0.0147
3112.0,0.0148
3111.0,0.0148
3110.0,0.0149
3109.0,0.0149
3108.0,0.0149
3107.0,0.015
3106.0,0.015
3105.0,0.0151
3104.0,0.0151
3103.0,0.0151
3102.0,0.0151
3101.0,0.015
3100.0,0.015
3099.0,0.015
3098.0,0.0149
3097.0,0.0149
3096.0,0.015
3095.0,0.015
3094.0,0.015
3093.0,0.0149
3092.0,0.0149
3091.0,0.0148
3090.0,0.0148
3089.0,0.0149
3088.0,0.015
3087.0,0.0152
3086.0,0.0153
3085.0,0.0154
3084.0,0.0154
3083.0,0.0154
3082.0,0.0154
3081.0,0.0154
3080.0,0.0154
3079.0,0.0155
3078.0,0.0156
3077.0,0.0157
3076.0,0.0158
3075.0,0.0158
3074.0,0.0157
3073.0,0.0157
3072.0,0.0156
3071.0,0.0156
3070.0,0.0156
3069.0,0.0156
3068.0,0.0156
3067.0,0.0155
3066.0,0.0155
3065.0,0.0154
3064.0,0.0154
3063.0,0.0155
3062.0,0.0156
3061.0,0.0156
3060.0,0.0157
3059.0,0.0158
3058.0,0.0158
3057.0,0.0158
3056.0,0.0158
3055.0,0.0158
3054.0,0.0158
3053.0,0.0158
3052.0,0.0157
3051.0,0.0156
3050.0,0.0155
3049.0,0.0154
3048.0,0.0153
3047.0,0.0152
3046.0,0.0152
3045.0,0.0151
3044.0,0.015
3043.0,0.0149
3042.0,0.0148
3041.0,0.0147
3040.0,0.0146
3039.0,0.0146
3038.0,0.0145
3037.0,0.0146
3036.0,0.0146
3035.0,0.0147
3034.0,0.0147
3033.0,0.0146
3032.0,0.0146
3031.0,0.0146
3030.0,0.0146
3029.0,0.0146
3028.0,0.0146
3027.0,0.0146
3026.0,0.0147
3025.0,0.0147
3024.0,0.0147
3023.0,0.0147
3022.0,0.0147
3021.0,0.0147
3020.0,0.0147
3019.0,0.0148
3018.0,0.0149
3017.0,0.015
3016.0,0.015
3015.0,0.0151
3014.0,0.0151
3013.0,0.0152
3012.0,0.0153
3011.0,0.0154
3010.0,0.0155
3009.0,0.0156
3008.0,0.0157
3007.0,0.0158
3006.0,0.0158
3005.0,0.0158
3004.0,0.0159
3003.0,0.016
3002.0,0.016
3001.0,0.0161
3000.0,0.0163
2999.0,0.0164
2998.0,0.0164
2997.0,0.0164
2996.0,0.0165
2995.0,0.0165
2994.0,0.0166
2993.0,0.0167
2992.0,0.0168
2991.0,0.0169
2990.0,0.0171
2989.0,0.0172
2988.0,0.0174
2987.0,0.0176
2986.0,0.0177
2985.0,0.0179
2984.0,0.0181
2983.0,0.0182
2982.0,0.0183
2981.0,0.0184
2980.0,0.0185
2979.0,0.0187
2978.0,0.0189
2977.0,0.0192
2976.0,0.0194
2975.0,0.0197
2974.0,0.0199
2973.0,0.0202
2972.0,0.0205
2971.0,0.0207
2970.0,0.0209
2969.0,0.0212
2968.0,0.0215
2967.0,0.0218
2966.0,0.022
2965.0,0.0222
2964.0,0.0225
2963.0,0.0228
2962.0,0.0231
2961.0,0.0233
2960.0,0.0234
2959.0,0.0235
2958.0,0.0235
2957.0,0.0236
2956.0,0.0235
2955.0,0.0234
2954.0,0.0233
2953.0,0.0231
2952.0,0.0229
2951.0,0.0227
2950.0,0.0225
2949.0,0.0222
2948.0,0.0219
2947.0,0.0216
2946.0,0.0212
2945.0,0.0209
2944.0,0.0206
2943.0,0.0203
2942.0,0.02
2941.0,0.0197
2940.0,0.0195
2939.0,0.0193
2938.0,0.0191
2937.0,0.019
2936.0,0.0188
2935.0,0.0186
2934.0,0.0184
2933.0,0.0183
2932.0,0.0183
2931.0,0.0183
2930.0,0.0183
2929.0,0.0182
2928.0,0.0181
2927.0,0.0181
2926.0,0.018
2925.0,0.0179
2924.0,0.0179
2923.0,0.0178
2922.0,0.0177
2921.0,0.0176
2920.0,0.0175
2919.0,0.0175
2918.0,0.0174
2917.0,0.0174
2916.0,0.0175
2915.0,0.0175
2914.0,0.0176
2913.0,0.0175
2912.0,0.0175
2911.0,0.0174
2910.0,0.0174
2909.0,0.0173
2908.0,0.0173
2907.0,0.0174
2906.0,0.0175
2905.0,0.0176
2904.0,0.0178
2903.0,0.0178
2902.0,0.0178
2901.0,0.0178
2900.0,0.0178
2899.0,0.0179
2898.0,0.0179
2897.0,0.018
2896.0,0.018
2895.0,0.0181
2894.0,0.0181
2893.0,0.0181
2892.0,0.0181
2891.0,0.0182
2890.0,0.0182
2889.0,0.0183
2888.0,0.0183
2887.0,0.0183
2886.0,0.0183
2885.0,0.0183
2884.0,0.0183
2883.0,0.0183
2882.0,0.0181
2881.0,0.0179
2880.0,0.0178
2879.0,0.0177
2878.0,0.0176
2877.0,0.0176
2876.0,0.0176
2875.0,0.0176
2874.0,0.0175
2873.0,0.0175
2872.0,0.0175
2871.0,0.0175
2870.0,0.0175
2869.0,0.0176
2868.0,0.0176
2867.0,0.0176
2866.0,0.0175
2865.0,0.0175
2864.0,0.0174
2863.0,0.0173
2862.0,0.0172
2861.0,0.0172
2860.0,0.0173
2859.0,0.0173
2858.0,0.0174
2857.0,0.0174
2856.0,0.0174
2855.0,0.0174
2854.0,0.0173
2853.0,0.0172
2852.0,0.0171
2851.0,0.017
2850.0,0.0169
2849.0,0.0169
2848.0,0.0168
2847.0,0.0167
2846.0,0.0167
2845.0,0.0166
2844.0,0.0167
2843.0,0.0166
2842.0,0.0165
2841.0,0.0163
2840.0,0.0162
2839.0,0.0161
2838.0,0.0161
2837.0,0.0161
2836.0,0.0161
2835.0,0.0161
2834.0,0.016
2833.0,0.0159
2832.0,0.0158
2831.0,0.0158
2830.0,0.0159
2829.0,0.0159
2828.0,0.016
2827.0,0.0159
2826.0,0.0159
2825.0,0.0158
2824.0,0.0157
2823.0,0.0157
2822.0,0.0157
2821.0,0.0157
2820.0,0.0157
2819.0,0.0157
2818.0,0.0158
2817.0,0.0158
2816.0,0.0158
2815.0,0.0158
2814.0,0.0157
2813.0,0.0157
2812.0,0.0156
2811.0,0.0156
2810.0,0.0156
2809.0,0.0156
2808.0,0.0156
2807.0,0.0157
2806.0,0.0157
2805.0,0.0156
2804.0,0.0156
2803.0,0.0156
2802.0,0.0155
2801.0,0.0155
2800.0,0.0155
2799.0,0.0155
2798.0,0.0155
2797.0,0.0154
2796.0,0.0154
2795.0,0.0155
2794.0,0.0155
2793.0,0.0155
2792.0,0.0155
2791.0,0.0155
2790.0,0.0155
2789.0,0.0155
2788.0,0.0155
2787.0,0.0155
2786.0,0.0154
2785.0,0.0154
2784.0,0.0153
2783.0,0.0153
2782.0,0.0152
2781.0,0.0152
2780.0,0.0152
2779.0,0.0153
2778.0,0.0153
2777.0,0.0153
2776.0,0.0152
2775.0,0.0152
2774.0,0.0152
2773.0,0.0152
2772.0,0.0152
2771.0,0.0152
2770.0,0.0152
2769.0,0.0152
2768.0,0.0152
2767.0,0.0152
2766.0,0.0152
2765.0,0.0152
2764.0,0.0152
2763.0,0.0152
2762.0,0.0152
2761.0,0.0152
2760.0,0.0152
2759.0,0.0152
2758.0,0.0151
2757.0,0.0151
2756.0,0.0151
2755.0,0.0152
2754.0,0.0152
2753.0,0.0152
2752.0,0.0152
2751.0,0.0152
2750.0,0.0152
2749.0,0.0151
2748.0,0.015
2747.0,0.015
2746.0,0.015
2745.0,0.0149
2744.0,0.0149
2743.0,0.015
2742.0,0.015
2741.0,0.015
2740.0,0.015
2739.0,0.015
2738.0,0.015
2737.0,0.015
2736.0,0.015
2735.0,0.015
2734.0,0.015
2733.0,0.015
2732.0,0.015
2731.0,0.015
2730.0,0.0149
2729.0,0.0149
2728.0,0.0149
2727.0,0.015
2726.0,0.015
2725.0,0.015
2724.0,0.015
2723.0,0.015
2722.0,0.015
2721.0,0.015
2720.0,0.015
2719.0,0.0149
2718.0,0.0149
2717.0,0.0148
2716.0,0.0148
2715.0,0.0148
2714.0,0.0148
2713.0,0.0148
2712.0,0.0148
2711.0,0.0148
2710.0,0.0148
2709.0,0.0148
2708.0,0.0148
2707.0,0.0148
2706.0,0.0148
2705.0,0.0148
2704.0,0.0148
2703.0,0.0148
2702.0,0.0147
2701.0,0.0146
2700.0,0.0146
2699.0,0.0145
2698.0,0.0145
2697.0,0.0146
2696.0,0.0146
2695.0,0.0147
2694.0,0.0147
2693.0,0.0147
2692.0,0.0147
2691.0,0.0147
2690.0,0.0146
2689.0,0.0146
2688.0,0.0145
2687.0,0.0145
2686.0,0.0145
2685.0,0.0146
2684.0,0.0146
2683.0,0.0146
2682.0,0.0146
2681.0,0.0146
2680.0,0.0146
2679.0,0.0146
2678.0,0.0146
2677.0,0.0146
2676.0,0.0145
2675.0,0.0145
2674.0,0.0145
2673.0,0.0145
2672.0,0.0145
2671.0,0.0145
2670.0,0.0145
2669.0,0.0146
2668.0,0.0146
2667.0,0.0146
2666.0,0.0146
2665.0,0.0145
2664.0,0.0144
2663.0,0.0144
2662.0,0.0144
2661.0,0.0144
2660.0,0.0145
2659.0,0.0145
2658.0,0.0145
2657.0,0.0144
2656.0,0.0144
2655.0,0.0144
2654.0,0.0145
2653.0,0.0145
2652.0,0.0145
2651.0,0.0145
2650.0,0.0144
2649.0,0.0144
2648.0,0.0144
2647.0,0.0144
2646.0,0.0144
2645.0,0.0145
2644.0,0.0145
2643.0,0.0145
2642.0,0.0145
2641.0,0.0144
2640.0,0.0143
2639.0,0.0143
2638.0,0.0143
2637.0,0.0144
2636.0,0.0145
2635.0,0.0145
2634.0,0.0145
2633.0,0.0145
2632.0,0.0144
2631.0,0.0145
2630.0,0.0145
2629.0,0.0145
2628.0,0.0145
2627.0,0.0144
2626.0,0.0144
2625.0,0.0144
2624.0,0.0144
2623.0,0.0145
2622.0,0.0145
2621.0,0.0145
2620.0,0.0146
2619.0,0.0145
2618.0,0.0145
2617.0,0.0145
2616.0,0.0145
2615.0,0.0145
2614.0,0.0144
2613.0,0.0144
2612.0,0.0143
2611.0,0.0143
2610.0,0.0143
2609.0,0.0143
2608.0,0.0143
2607.0,0.0143
2606.0,0.0143
2605.0,0.0143
2604.0,0.0143
2603.0,0.0143
2602.0,0.0144
2601.0,0.0144
2600.0,0.0144
2599.0,0.0144
2598.0,0.0144
2597.0,0.0144
2596.0,0.0145
2595.0,0.0145
2594.0,0.0146
2593.0,0.0146
2592.0,0.0145
2591.0,0.0145
2590.0,0.0144
2589.0,0.0144
2588.0,0.0143
2587.0,0.0143
2586.0,0.0144
2585.0,0.0144
2584.0,0.0144
2583.0,0.0144
2582.0,0.0144
2581.0,0.0144
2580.0,0.0144
2579.0,0.0145
2578.0,0.0146
2577.0,0.0146
2576.0,0.0147
2575.0,0.0147
2574.0,0.0147
2573.0,0.0147
2572.0,0.0146
2571.0,0.0145
2570.0,0.0144
2569.0,0.0144
2568.0,0.0144
2567.0,0.0144
2566.0,0.0145
2565.0,0.0145
2564.0,0.0145
2563.0,0.0145
2562.0,0.0145
2561.0,0.0145
2560.0,0.0144
2559.0,0.0144
2558.0,0.0144
2557.0,0.0144
2556.0,0.0144
2555.0,0.0145
2554.0,0.0145
2553.0,0.0145
2552.0,0.0145
2551.0,0.0145
2550.0,0.0146
2549.0,0.0146
2548.0,0.0145
2547.0,0.0144
2546.0,0.0143
2545.0,0.0143
2544.0,0.0143
2543.0,0.0144
2542.0,0.0144
2541.0,0.0144
2540.0,0.0144
2539.0,0.0144
2538.0,0.0144
2537.0,0.0144
2536.0,0.0144
2535.0,0.0144
2534.0,0.0144
2533.0,0.0144
2532.0,0.0144
2531.0,0.0145
2530.0,0.0145
2529.0,0.0145
2528.0,0.0144
2527.0,0.0144
2526.0,0.0143
2525.0,0.0143
2524.0,0.0143
2523.0,0.0143
2522.0,0.0144
2521.0,0.0144
2520.0,0.0144
2519.0,0.0144
2518.0,0.0144
2517.0,0.0144
2516.0,0.0143
2515.0,0.0142
2514.0,0.0142
2513.0,0.0142
2512.0,0.0142
2511.0,0.0143
2510.0,0.0143
2509.0,0.0143
2508.0,0.0143
2507.0,0.0143
2506.0,0.0143
2505.0,0.0142
2504.0,0.0142
2503.0,0.0142
2502.0,0.0142
2501.0,0.0142
2500.0,0.0141
2499.0,0.014
2498.0,0.014
2497.0,0.014
2496.0,0.014
2495.0,0.0141
2494.0,0.0141
2493.0,0.0141
2492.0,0.014
2491.0,0.014
2490.0,0.014
2489.0,0.014
2488.0,0.014
2487.0,0.0139
2486.0,0.0139
2485.0,0.0139
2484.0,0.0139
2483.0,0.014
2482.0,0.014
2481.0,0.014
2480.0,0.0139
2479.0,0.0139
2478.0,0.0139
2477.0,0.0139
2476.0,0.0139
2475.0,0.0138
2474.0,0.0138
2473.0,0.0138
2472.0,0.0138
2471.0,0.0138
2470.0,0.0138
2469.0,0.0137
2468.0,0.0137
2467.0,0.0137
2466.0,0.0137
2465.0,0.0136
2464.0,0.0136
2463.0,0.0135
2462.0,0.0135
2461.0,0.0135
2460.0,0.0135
2459.0,0.0135
2458.0,0.0135
2457.0,0.0135
2456.0,0.0135
2455.0,0.0135
2454.0,0.0136
2453.0,0.0136
2452.0,0.0137
2451.0,0.0137
2450.0,0.0136
2449.0,0.0136
2448.0,0.0135
2447.0,0.0134
2446.0,0.0134
2445.0,0.0134
2444.0,0.0134
2443.0,0.0134
2442.0,0.0134
2441.0,0.0134
2440.0,0.0134
2439.0,0.0134
2438.0,0.0134
2437.0,0.0134
2436.0,0.0134
2435.0,0.0135
2434.0,0.0135
2433.0,0.0135
2432.0,0.0135
2431.0,0.0134
2430.0,0.0134
2429.0,0.0134
2428.0,0.0134
2427.0,0.0134
2426.0,0.0134
2425.0,0.0135
2424.0,0.0135
2423.0,0.0135
2422.0,0.0135
2421.0,0.0135
2420.0,0.0135
2419.0,0.0135
2418.0,0.0135
2417.0,0.0136
2416.0,0.0136
2415.0,0.0136
2414.0,0.0136
2413.0,0.0136
2412.0,0.0136
2411.0,0.0136
2410.0,0.0136
2409.0,0.0136
2408.0,0.0136
2407.0,0.0137
2406.0,0.0137
2405.0,0.0137
2404.0,0.0136
2403.0,0.0135
2402.0,0.0135
2401.0,0.0136
2400.0,0.0137
2399.0,0.0138
2398.0,0.0138
2397.0,0.0138
2396.0,0.0138
2395.0,0.0138
2394.0,0.0138
2393.0,0.0138
2392.0,0.0139
2391.0,0.014
2390.0,0.014
2389.0,0.014
2388.0,0.0139
2387.0,0.0139
2386.0,0.014
2385.0,0.0141
2384.0,0.0143
2383.0,0.0144
2382.0,0.0145
2381.0,0.0145
2380.0,0.0144
2379.0,0.0143
2378.0,0.0142
2377.0,0.0142
2376.0,0.0142
2375.0,0.0143
2374.0,0.0144
2373.0,0.0145
2372.0,0.0145
2371.0,0.0144
2370.0,0.0144
2369.0,0.0145
2368.0,0.0149
2367.0,0.0157
2366.0,0.0163
2365.0,0.0164
2364.0,0.0162
2363.0,0.0159
2362.0,0.0149
2361.0,0.0131
2360.0,0.0117
2359.0,0.0117
2358.0,0.013
2357.0,0.0144
2356.0,0.0154
2355.0,0.0158
2354.0,0.0154
2353.0,0.0146
2352.0,0.014
2351.0,0.0139
2350.0,0.014
2349.0,0.0141
2348.0,0.014
2347.0,0.0139
2346.0,0.0137
2345.0,0.0135
2344.0,0.0136
2343.0,0.0139
2342.0,0.0141
2341.0,0.014
2340.0,0.0137
2339.0,0.0137
2338.0,0.0137
2337.0,0.0136
2336.0,0.0135
2335.0,0.0134
2334.0,0.0132
2333.0,0.0128
2332.0,0.0126
2331.0,0.0129
2330.0,0.0133
2329.0,0.0137
2328.0,0.0137
2327.0,0.0135
2326.0,0.0133
2325.0,0.0131
2324.0,0.0132
2323.0,0.0133
2322.0,0.0134
2321.0,0.0134
2320.0,0.0135
2319.0,0.0136
2318.0,0.0136
2317.0,0.0135
2316.0,0.0135
2315.0,0.0136
2314.0,0.0137
2313.0,0.0139
2312.0,0.014
2311.0,0.0142
2310.0,0.0142
2309.0,0.0142
2308.0,0.014
2307.0,0.0139
2306.0,0.0138
2305.0,0.0137
2304.0,0.0136
2303.0,0.0136
2302.0,0.0136
2301.0,0.0136
2300.0,0.0136
2299.0,0.0136
2298.0,0.0135
2297.0,0.0135
2296.0,0.0135
2295.0,0.0135
2294.0,0.0134
2293.0,0.0134
2292.0,0.0133
2291.0,0.0133
2290.0,0.0133
2289.0,0.0133
2288.0,0.0132
2287.0,0.0132
2286.0,0.0131
2285.0,0.013
2284.0,0.013
2283.0,0.013
2282.0,0.013
2281.0,0.013
2280.0,0.013
2279.0,0.013
2278.0,0.0129
2277.0,0.0129
2276.0,0.0128
2275.0,0.0128
2274.0,0.0128
2273.0,0.0128
2272.0,0.0128
2271.0,0.0127
2270.0,0.0127
2269.0,0.0126
2268.0,0.0126
2267.0,0.0126
2266.0,0.0126
2265.0,0.0125
2264.0,0.0125
2263.0,0.0125
2262.0,0.0125
2261.0,0.0124
2260.0,0.0124
2259.0,0.0125
2258.0,0.0125
2257.0,0.0125
2256.0,0.0125
2255.0,0.0125
2254.0,0.0124
2253.0,0.0124
2252.0,0.0124
2251.0,0.0125
2250.0,0.0125
2249.0,0.0125
2248.0,0.0124
2247.0,0.0123
2246.0,0.0123
2245.0,0.0122
2244.0,0.0122
2243.0,0.0122
2242.0,0.0122
2241.0,0.0122
2240.0,0.0122
2239.0,0.0122
2238.0,0.0123
2237.0,0.0123
2236.0,0.0122
2235.0,0.0122
2234.0,0.0121
2233.0,0.012
2232.0,0.012
2231.0,0.012
2230.0,0.012
2229.0,0.012
2228.0,0.012
2227.0,0.0121
2226.0,0.0121
2225.0,0.0121
2224.0,0.0121
2223.0,0.0121
2222.0,0.012
2221.0,0.0119
2220.0,0.0119
2219.0,0.0119
2218.0,0.0119
2217.0,0.012
2216.0,0.012
2215.0,0.0119
2214.0,0.0119
2213.0,0.0118
2212.0,0.0118
2211.0,0.0118
2210.0,0.0118
2209.0,0.0117
2208.0,0.0118
2207.0,0.0118
2206.0,0.0118
2205.0,0.0118
2204.0,0.0117
2203.0,0.0117
2202.0,0.0117
2201.0,0.0117
2200.0,0.0116
2199.0,0.0116
2198.0,0.0116
2197.0,0.0116
2196.0,0.0117
2195.0,0.0117
2194.0,0.0117
2193.0,0.0116
2192.0,0.0116
2191.0,0.0116
2190.0,0.0116
2189.0,0.0115
2188.0,0.0115
2187.0,0.0115
2186.0,0.0114
2185.0,0.0114
2184.0,0.0114
2183.0,0.0115
2182.0,0.0115
2181.0,0.0115
2180.0,0.0114
2179.0,0.0114
2178.0,0.0114
2177.0,0.0114
2176.0,0.0115
2175.0,0.0115
2174.0,0.0116
2173.0,0.0116
2172.0,0.0116
2171.0,0.0116
2170.0,0.0115
2169.0,0.0115
2168.0,0.0115
2167.0,0.0115
2166.0,0.0115
2165.0,0.0115
2164.0,0.0115
2163.0,0.0115
2162.0,0.0115
2161.0,0.0115
2160.0,0.0115
2159.0,0.0115
2158.0,0.0115
2157.0,0.0116
2156.0,0.0116
2155.0,0.0116
2154.0,0.0116
2153.0,0.0115
2152.0,0.0115
2151.0,0.0116
2150.0,0.0116
2149.0,0.0117
2148.0,0.0117
2147.0,0.0117
2146.0,0.0117
2145.0,0.0116
2144.0,0.0116
2143.0,0.0115
2142.0,0.0115
2141.0,0.0115
2140.0,0.0115
2139.0,0.0115
2138.0,0.0116
2137.0,0.0116
2136.0,0.0116
2135.0,0.0116
2134.0,0.0117
2133.0,0.0117
2132.0,0.0117
2131.0,0.0116
2130.0,0.0116
2129.0,0.0116
2128.0,0.0116
2127.0,0.0116
2126.0,0.0116
2125.0,0.0115
2124.0,0.0115
2123.0,0.0115
2122.0,0.0116
2121.0,0.0116
2120.0,0.0115
2119.0,0.0115
2118.0,0.0115
2117.0,0.0115
2116.0,0.0116
2115.0,0.0116
2114.0,0.0116
2113.0,0.0115
2112.0,0.0115
2111.0,0.0114
2110.0,0.0114
2109.0,0.0113
2108.0,0.0113
2107.0,0.0113
2106.0,0.0113
2105.0,0.0114
2104.0,0.0114
2103.0,0.0114
2102.0,0.0114
2101.0,0.0113
2100.0,0.0113
2099.0,0.0113
2098.0,0.0113
2097.0,0.0112
2096.0,0.0112
2095.0,0.0112
2094.0,0.0112
2093.0,0.0111
2092.0,0.0111
2091.0,0.0111
2090.0,0.0111
2089.0,0.0111
2088.0,0.011
2087.0,0.011
2086.0,0.011
2085.0,0.011
2084.0,0.011
2083.0,0.011
2082.0,0.011
2081.0,0.0109
2080.0,0.0109
2079.0,0.0109
2078.0,0.0108
2077.0,0.0108
2076.0,0.0107
2075.0,0.0107
2074.0,0.0107
2073.0,0.0106
2072.0,0.0105
2071.0,0.0105
2070.0,0.0105
2069.0,0.0105
2068.0,0.0104
2067.0,0.0104
2066.0,0.0103
2065.0,0.0103
2064.0,0.0102
2063.0,0.0102
2062.0,0.0102
2061.0,0.0102
2060.0,0.0102
2059.0,0.0102
2058.0,0.0101
2057.0,0.0101
2056.0,0.01
2055.0,0.01
2054.0,0.01
2053.0,0.0099
2052.0,0.0099
2051.0,0.0098
2050.0,0.0097
2049.0,0.0097
2048.0,0.0096
2047.0,0.0096
2046.0,0.0096
2045.0,0.0096
2044.0,0.0096
2043.0,0.0096
2042.0,0.0097
2041.0,0.0096
2040.0,0.0096
2039.0,0.0095
2038.0,0.0094
2037.0,0.0094
2036.0,0.0093
2035.0,0.0093
2034.0,0.0093
2033.0,0.0093
2032.0,0.0093
2031.0,0.0093
2030.0,0.0093
2029.0,0.0093
2028.0,0.0093
2027.0,0.0093
2026.0,0.0093
2025.0,0.0093
2024.0,0.0092
2023.0,0.0092
2022.0,0.0092
2021.0,0.0092
2020.0,0.0092
2019.0,0.0093
2018.0,0.0093
2017.0,0.0092
2016.0,0.0092
2015.0,0.0092
2014.0,0.0091
2013.0,0.0091
2012.0,0.0091
2011.0,0.0091
2010.0,0.0091
2009.0,0.009
2008.0,0.009
2007.0,0.009
2006.0,0.0091
2005.0,0.0091
2004.0,0.0091
2003.0,0.0091
2002.0,0.0092
2001.0,0.0092
2000.0,0.0092
1999.0,0.0092
1998.0,0.0092
1997.0,0.0092
1996.0,0.0092
1995.0,0.0093
1994.0,0.0093
1993.0,0.0094
1992.0,0.0094
1991.0,0.0094
1990.0,0.0093
1989.0,0.0093
1988.0,0.0093
1987.0,0.0093
1986.0,0.0093
1985.0,0.0093
1984.0,0.0093
1983.0,0.0093
1982.0,0.0093
1981.0,0.0093
1980.0,0.0093
1979.0,0.0094
1978.0,0.0094
1977.0,0.0094
1976.0,0.0094
1975.0,0.0094
1974.0,0.0094
1973.0,0.0094
1972.0,0.0095
1971.0,0.0095
1970.0,0.0095
1969.0,0.0095
1968.0,0.0095
1967.0,0.0096
1966.0,0.0097
1965.0,0.0097
1964.0,0.0098
1963.0,0.0099
1962.0,0.0099
1961.0,0.0099
1960.0,0.0099
1959.0,0.01
1958.0,0.01
1957.0,0.0101
1956.0,0.0102
1955.0,0.0103
1954.0,0.0103
1953.0,0.0104
1952.0,0.0104
1951.0,0.0104
1950.0,0.0104
1949.0,0.0104
1948.0,0.0103
1947.0,0.0103
1946.0,0.0103
1945.0,0.0102
1944.0,0.0102
1943.0,0.0101
1942.0,0.01
1941.0,0.0099
1940.0,0.0097
1939.0,0.0096
1938.0,0.0095
1937.0,0.0093
1936.0,0.0092
1935.0,0.0091
1934.0,0.009
1933.0,0.0089
1932.0,0.0087
1931.0,0.0086
1930.0,0.0085
1929.0,0.0084
1928.0,0.0083
1927.0,0.0083
1926.0,0.0082
1925.0,0.0081
1924.0,0.008
1923.0,0.0079
1922.0,0.0079
1921.0,0.0079
1920.0,0.0078
1919.0,0.0077
1918.0,0.0077
1917.0,0.0075
1916.0,0.0074
1915.0,0.0073
1914.0,0.0072
1913.0,0.0071
1912.0,0.007
1911.0,0.0069
1910.0,0.0068
1909.0,0.0067
1908.0,0.0066
1907.0,0.0065
1906.0,0.0064
1905.0,0.0063
1904.0,0.0062
1903.0,0.0062
1902.0,0.0061
1901.0,0.006
1900.0,0.0059
1899.0,0.0058
1898.0,0.0058
1897.0,0.0057
1896.0,0.0056
1895.0,0.0056
1894.0,0.0055
1893.0,0.0053
1892.0,0.0053
1891.0,0.0052
1890.0,0.0052
1889.0,0.0052
1888.0,0.005
1887.0,0.0049
1886.0,0.0049
1885.0,0.0047
1884.0,0.0046
1883.0,0.0045
1882.0,0.0044
1881.0,0.0043
1880.0,0.0043
1879.0,0.0043
1878.0,0.0042
1877.0,0.0041
1876.0,0.004
1875.0,0.0039
1874.0,0.0039
1873.0,0.0039
1872.0,0.0039
1871.0,0.0039
1870.0,0.0039
1869.0,0.0038
1868.0,0.0036
1867.0,0.0035
1866.0,0.0034
1865.0,0.0034
1864.0,0.0033
1863.0,0.0032
1862.0,0.0032
1861.0,0.0031
1860.0,0.0031
1859.0,0.003
1858.0,0.003
1857.0,0.0029
1856.0,0.0029
1855.0,0.0029
1854.0,0.0029
1853.0,0.0028
1852.0,0.0028
1851.0,0.0028
1850.0,0.0028
1849.0,0.0028
1848.0,0.0029
1847.0,0.003
1846.0,0.0031
1845.0,0.0031
1844.0,0.0031
1843.0,0.003
1842.0,0.0029
1841.0,0.0029
1840.0,0.0028
1839.0,0.0028
1838.0,0.0028
1837.0,0.0028
1836.0,0.0027
1835.0,0.0028
1834.0,0.0028
1833.0,0.0028
1832.0,0.0028
1831.0,0.0028
1830.0,0.0028
1829.0,0.0027
1828.0,0.0026
1827.0,0.0027
1826.0,0.0028
1825.0,0.0027
1824.0,0.0025
1823.0,0.0024
1822.0,0.0023
1821.0,0.0022
1820.0,0.002
1819.0,0.002
1818.0,0.0019
1817.0,0.0018
1816.0,0.0016
1815.0,0.0015
1814.0,0.0014
1813.0,0.0013
1812.0,0.0011
1811.0,0.001
1810.0,0.0008
1809.0,0.0006
1808.0,0.0004
1807.0,0.0002
1806.0,0.0001
1805.0,0.0
1804.0,-0.0001
1803.0,-0.0001
1802.0,-0.0001
1801.0,-0.0003
1800.0,-0.0006
1799.0,-0.0008
1798.0,-0.001
1797.0,-0.0011
1796.0,-0.0012
1795.0,-0.0013
1794.0,-0.0013
1793.0,-0.0015
1792.0,-0.0018
1791.0,-0.0019
1790.0,-0.0021
1789.0,-0.0023
1788.0,-0.0024
1787.0,-0.0024
1786.0,-0.0025
1785.0,-0.0027
1784.0,-0.0029
1783.0,-0.003
1782.0,-0.0031
1781.0,-0.0034
1780.0,-0.0036
1779.0,-0.0036
1778.0,-0.0036
1777.0,-0.0037
1776.0,-0.0037
1775.0,-0.0036
1774.0,-0.0036
1773.0,-0.0038
1772.0,-0.0042
1771.0,-0.0043
1770.0,-0.0041
1769.0,-0.004
1768.0,-0.0039
1767.0,-0.0037
1766.0,-0.0035
1765.0,-0.0033
1764.0,-0.003
1763.0,-0.0025
1762.0,-0.0021
1761.0,-0.0018
1760.0,-0.0014
1759.0,-0.0006
1758.0,0.0002
1757.0,0.001
1756.0,0.0018
1755.0,0.0028
1754.0,0.004
1753.0,0.0052
1752.0,0.0068
1751.0,0.0091
1750.0,0.0118
1749.0,0.0146
1748.0,0.0178
1747.0,0.0216
1746.0,0.0259
1745.0,0.0308
1744.0,0.0366
1743.0,0.043
1742.0,0.0499
1741.0,0.058
1740.0,0.068
1739.0,0.0784
1738.0,0.0866
1737.0,0.093
1736.0,0.1003
1735.0,0.1131
1734.0,0.1306
1733.0,0.1446
1732.0,0.154
1731.0,0.1634
1730.0,0.1743
1729.0,0.1855
1728.0,0.1959
1727.0,0.2056
1726.0,0.2152
1725.0,0.2255
1724.0,0.2365
1723.0,0.2468
1722.0,0.2551
1721.0,0.2607
1720.0,0.2652
1719.0,0.2717
1718.0,0.2818
1717.0,0.2905
1716.0,0.2938
1715.0,0.2936
1714.0,0.2912
1713.0,0.286
1712.0,0.2781
1711.0,0.2683
1710.0,0.2574
1709.0,0.2456
1708.0,0.2328
1707.0,0.2186
1706.0,0.2035
1705.0,0.1898
1704.0,0.1792
1703.0,0.1707
1702.0,0.1618
1701.0,0.1509
1700.0,0.1398
1699.0,0.132
1698.0,0.1266
1697.0,0.121
1696.0,0.1148
1695.0,0.1093
1694.0,0.1053
1693.0,0.1022
1692.0,0.0991
1691.0,0.0958
1690.0,0.0927
1689.0,0.0902
1688.0,0.0881
1687.0,0.0861
1686.0,0.0838
1685.0,0.0819
1684.0,0.0804
1683.0,0.0788
1682.0,0.0772
1681.0,0.0756
1680.0,0.0739
1679.0,0.0722
1678.0,0.0705
1677.0,0.0688
1676.0,0.0673
1675.0,0.0656
1674.0,0.064
1673.0,0.0626
1672.0,0.0612
1671.0,0.0598
1670.0,0.0585
1669.0,0.0573
1668.0,0.0562
1667.0,0.055
1666.0,0.0537
1665.0,0.0526
1664.0,0.0514
1663.0,0.0503
1662.0,0.0492
1661.0,0.0483
1660.0,0.0473
1659.0,0.0463
1658.0,0.0453
1657.0,0.0445
1656.0,0.0437
1655.0,0.0429
1654.0,0.0424
1653.0,0.0423
1652.0,0.0417
1651.0,0.041
1650.0,0.0404
1649.0,0.0397
1648.0,0.0393
1647.0,0.0391
1646.0,0.0388
1645.0,0.0385
1644.0,0.038
1643.0,0.0374
1642.0,0.0369
1641.0,0.0364
1640.0,0.0359
1639.0,0.0355
1638.0,0.035
1637.0,0.0348
1636.0,0.0349
1635.0,0.0348
1634.0,0.0345
1633.0,0.0342
1632.0,0.0338
1631.0,0.0333
1630.0,0.0329
1629.0,0.0326
1628.0,0.0323
1627.0,0.032
1626.0,0.0317
1625.0,0.0315
1624.0,0.0314
1623.0,0.0312
1622.0,0.0311
1621.0,0.031
1620.0,0.031
1619.0,0.0311
1618.0,0.0315
1617.0,0.0325
1616.0,0.0334
1615.0,0.0338
1614.0,0.0338
1613.0,0.0335
1612.0,0.0331
1611.0,0.0326
1610.0,0.032
1609.0,0.0314
1608.0,0.0307
1607.0,0.03
1606.0,0.0293
1605.0,0.0286
1604.0,0.028
1603.0,0.0274
1602.0,0.0269
1601.0,0.0264
1600.0,0.026
1599.0,0.0255
1598.0,0.025
1597.0,0.0246
1596.0,0.0243
1595.0,0.024
1594.0,0.0238
1593.0,0.0237
1592.0,0.0236
1591.0,0.0235
1590.0,0.0235
1589.0,0.0235
1588.0,0.0237
1587.0,0.024
1586.0,0.0247
1585.0,0.0257
1584.0,0.0273
1583.0,0.0292
1582.0,0.0313
1581.0,0.0334
1580.0,0.0351
1579.0,0.0361
1578.0,0.0365
1577.0,0.0359
1576.0,0.0345
1575.0,0.0329
1574.0,0.0315
1573.0,0.0303
1572.0,0.0291
1571.0,0.0279
1570.0,0.0266
1569.0,0.0256
1568.0,0.0249
1567.0,0.0243
1566.0,0.0237
1565.0,0.0231
1564.0,0.0226
1563.0,0.0222
1562.0,0.0219
1561.0,0.0215
1560.0,0.0211
1559.0,0.0211
1558.0,0.0209
1557.0,0.0207
1556.0,0.0205
1555.0,0.0203
1554.0,0.02
1553.0,0.0197
1552.0,0.0194
1551.0,0.0191
1550.0,0.0188
1549.0,0.0185
1548.0,0.0183
1547.0,0.0181
1546.0,0.018
1545.0,0.0179
1544.0,0.0178
1543.0,0.0176
1542.0,0.0173
1541.0,0.0173
1540.0,0.0172
1539.0,0.0168
1538.0,0.0166
1537.0,0.0166
1536.0,0.0166
1535.0,0.0166
1534.0,0.0167
1533.0,0.0169
1532.0,0.0169
1531.0,0.0169
1530.0,0.0168
1529.0,0.0169
1528.0,0.0169
1527.0,0.017
1526.0,0.0169
1525.0,0.0168
1524.0,0.0166
1523.0,0.0163
1522.0,0.0162
1521.0,0.016
1520.0,0.0159
1519.0,0.0157
1518.0,0.0155
1517.0,0.0155
1516.0,0.0154
1515.0,0.0154
1514.0,0.0155
1513.0,0.0159
1512.0,0.0165
1511.0,0.0173
1510.0,0.0185
1509.0,0.0202
1508.0,0.0244
1507.0,0.0315
1506.0,0.0362
1505.0,0.0368
1504.0,0.0355
1503.0,0.033
1502.0,0.03
1501.0,0.0268
1500.0,0.0237
1499.0,0.0209
1498.0,0.0185
1497.0,0.0166
1496.0,0.0152
1495.0,0.0141
1494.0,0.0133
1493.0,0.0127
1492.0,0.0124
1491.0,0.0121
1490.0,0.0118
1489.0,0.0116
1488.0,0.0115
1487.0,0.0113
1486.0,0.0112
1485.0,0.0112
1484.0,0.0113
1483.0,0.0113
1482.0,0.0115
1481.0,0.0117
1480.0,0.0119
1479.0,0.0121
1478.0,0.0124
1477.0,0.0127
1476.0,0.013
1475.0,0.0133
1474.0,0.0135
1473.0,0.0139
1472.0,0.0143
1471.0,0.0146
1470.0,0.0149
1469.0,0.0154
1468.0,0.0161
1467.0,0.017
1466.0,0.0185
1465.0,0.0205
1464.0,0.0226
1463.0,0.0243
1462.0,0.0257
1461.0,0.0272
1460.0,0.0288
1459.0,0.0308
1458.0,0.0338
1457.0,0.0373
1456.0,0.0392
1455.0,0.0397
1454.0,0.0399
1453.0,0.0399
1452.0,0.04
1451.0,0.0398
1450.0,0.0396
1449.0,0.0394
1448.0,0.0392
1447.0,0.0389
1446.0,0.0387
1445.0,0.0385
1444.0,0.0384
1443.0,0.0382
1442.0,0.0379
1441.0,0.0376
1440.0,0.0372
1439.0,0.0365
1438.0,0.0354
1437.0,0.0338
1436.0,0.0317
1435.0,0.0296
1434.0,0.0275
1433.0,0.0255
1432.0,0.0234
1431.0,0.0211
1430.0,0.0189
1429.0,0.017
1428.0,0.0155
1427.0,0.0144
1426.0,0.0136
1425.0,0.0128
1424.0,0.0124
1423.0,0.0123
1422.0,0.0126
1421.0,0.0133
1420.0,0.015
1419.0,0.0181
1418.0,0.0221
1417.0,0.0269
1416.0,0.0328
1415.0,0.0404
1414.0,0.0498
1413.0,0.0611
1412.0,0.0732
1411.0,0.0842
1410.0,0.092
1409.0,0.0958
1408.0,0.0957
1407.0,0.0919
1406.0,0.0855
1405.0,0.0781
1404.0,0.0712
1403.0,0.0655
1402.0,0.061
1401.0,0.0572
1400.0,0.0534
1399.0,0.0498
1398.0,0.0468
1397.0,0.0444
1396.0,0.0422
1395.0,0.0399
1394.0,0.0377
1393.0,0.0357
1392.0,0.0341
1391.0,0.0325
1390.0,0.0312
1389.0,0.03
1388.0,0.0288
1387.0,0.0278
1386.0,0.0271
1385.0,0.0267
1384.0,0.0267
1383.0,0.0269
1382.0,0.0276
1381.0,0.0286
1380.0,0.0299
1379.0,0.0315
1378.0,0.0332
1377.0,0.0351
1376.0,0.0372
1375.0,0.0397
1374.0,0.0422
1373.0,0.0442
1372.0,0.0455
1371.0,0.046
1370.0,0.0458
1369.0,0.0449
1368.0,0.043
1367.0,0.0404
1366.0,0.0372
1365.0,0.0337
1364.0,0.0298
1363.0,0.0257
1362.0,0.0219
1361.0,0.0189
1360.0,0.0167
1359.0,0.015
1358.0,0.0136
1357.0,0.0125
1356.0,0.0117
1355.0,0.0111
1354.0,0.0107
1353.0,0.0106
1352.0,0.0108
1351.0,0.0112
1350.0,0.0119
1349.0,0.0129
1348.0,0.0142
1347.0,0.0157
1346.0,0.0174
1345.0,0.0194
1344.0,0.0213
1343.0,0.0231
1342.0,0.0245
1341.0,0.0255
1340.0,0.0259
1339.0,0.0254
1338.0,0.0241
1337.0,0.0222
1336.0,0.0199
1335.0,0.0176
1334.0,0.0156
1333.0,0.014
1332.0,0.013
1331.0,0.0124
1330.0,0.0122
1329.0,0.0125
1328.0,0.0132
1327.0,0.0142
1326.0,0.0153
1325.0,0.0168
1324.0,0.0183
1323.0,0.02
1322.0,0.0217
1321.0,0.0235
1320.0,0.0253
1319.0,0.0272
1318.0,0.029
1317.0,0.0308
1316.0,0.0327
1315.0,0.0346
1314.0,0.0366
1313.0,0.0389
1312.0,0.0414
1311.0,0.044
1310.0,0.0466
1309.0,0.0494
1308.0,0.0523
1307.0,0.0552
1306.0,0.058
1305.0,0.0609
1304.0,0.064
1303.0,0.0674
1302.0,0.0714
1301.0,0.0761
1300.0,0.0817
1299.0,0.0878
1298.0,0.0944
1297.0,0.1014
1296.0,0.1086
1295.0,0.1158
1294.0,0.1228
1293.0,0.1297
1292.0,0.1365
1291.0,0.143
1290.0,0.1491
1289.0,0.155
1288.0,0.1606
1287.0,0.1657
1286.0,0.1702
1285.0,0.1743
1284.0,0.1779
1283.0,0.181
1282.0,0.1836
1281.0,0.1859
1280.0,0.188
1279.0,0.1898
1278.0,0.1914
1277.0,0.1933
1276.0,0.1957
1275.0,0.1988
1274.0,0.2027
1273.0,0.208
1272.0,0.2148
1271.0,0.2228
1270.0,0.2317
1269.0,0.2415
1268.0,0.2519
1267.0,0.2624
1266.0,0.2725
1265.0,0.2824
1264.0,0.2916
1263.0,0.2998
1262.0,0.3066
1261.0,0.3122
1260.0,0.3166
1259.0,0.3193
1258.0,0.3205
1257.0,0.3212
1256.0,0.322
1255.0,0.3228
1254.0,0.3239
1253.0,0.3259
1252.0,0.3289
1251.0,0.3325
1250.0,0.3366
1249.0,0.3415
1248.0,0.347
1247.0,0.3526
1246.0,0.3579
1245.0,0.3632
1244.0,0.3683
1243.0,0.3726
1242.0,0.3757
1241.0,0.3776
1240.0,0.3781
1239.0,0.3763
1238.0,0.372
1237.0,0.3656
1236.0,0.3572
1235.0,0.3467
1234.0,0.3343
1233.0,0.3211
1232.0,0.3076
1231.0,0.2939
1230.0,0.2803
1229.0,0.2675
1228.0,0.2554
1227.0,0.2437
1226.0,0.2325
1225.0,0.2218
1224.0,0.2118
1223.0,0.2023
1222.0,0.1932
1221.0,0.1847
1220.0,0.1769
1219.0,0.1695
1218.0,0.1626
1217.0,0.1563
1216.0,0.1504
1215.0,0.1449
1214.0,0.1398
1213.0,0.135
1212.0,0.1306
1211.0,0.1265
1210.0,0.1225
1209.0,0.1189
1208.0,0.1155
1207.0,0.1123
1206.0,0.1092
1205.0,0.1064
1204.0,0.1037
1203.0,0.1011
1202.0,0.0985
1201.0,0.0961
1200.0,0.0937
1199.0,0.0914
1198.0,0.0891
1197.0,0.087
1196.0,0.0848
1195.0,0.0828
1194.0,0.0808
1193.0,0.079
1192.0,0.0773
1191.0,0.0756
1190.0,0.0741
1189.0,0.0727
1188.0,0.0716
1187.0,0.0707
1186.0,0.07
1185.0,0.0696
1184.0,0.0696
1183.0,0.07
1182.0,0.0708
1181.0,0.0719
1180.0,0.0732
1179.0,0.0746
1178.0,0.0758
1177.0,0.0769
1176.0,0.0778
1175.0,0.0782
1174.0,0.078
1173.0,0.0773
1172.0,0.0758
1171.0,0.0736
1170.0,0.0709
1169.0,0.0679
1168.0,0.0649
1167.0,0.062
1166.0,0.0594
1165.0,0.057
1164.0,0.0551
1163.0,0.0535
1162.0,0.0522
1161.0,0.0512
1160.0,0.0505
1159.0,0.0499
1158.0,0.0496
1157.0,0.0496
1156.0,0.05
1155.0,0.0509
1154.0,0.0522
1153.0,0.0541
1152.0,0.0565
1151.0,0.0594
1150.0,0.0627
1149.0,0.0665
1148.0,0.0708
1147.0,0.0755
1146.0,0.0806
1145.0,0.0859
1144.0,0.0914
1143.0,0.097
1142.0,0.1024
1141.0,0.1076
1140.0,0.1125
1139.0,0.1171
1138.0,0.1213
1137.0,0.1252
1136.0,0.1289
1135.0,0.1324
1134.0,0.1357
1133.0,0.139
1132.0,0.1425
1131.0,0.1462
1130.0,0.1503
1129.0,0.1551
1128.0,0.1606
1127.0,0.167
1126.0,0.1741
1125.0,0.1818
1124.0,0.1901
1123.0,0.1982
1122.0,0.2058
1121.0,0.2126
1120.0,0.2184
1119.0,0.2226
1118.0,0.225
1117.0,0.2257
1116.0,0.2247
1115.0,0.2222
1114.0,0.2187
1113.0,0.2152
1112.0,0.2127
1111.0,0.2117
1110.0,0.213
1109.0,0.2169
1108.0,0.2235
1107.0,0.2321
1106.0,0.2424
1105.0,0.2541
1104.0,0.267
1103.0,0.2804
1102.0,0.294
1101.0,0.3074
1100.0,0.3202
1099.0,0.3317
1098.0,0.3416
1097.0,0.3499
1096.0,0.3565
1095.0,0.3609
1094.0,0.3628
1093.0,0.3628
1092.0,0.3612
1091.0,0.3577
1090.0,0.3525
1089.0,0.3463
1088.0,0.3393
1087.0,0.3315
1086.0,0.3232
1085.0,0.3147
1084.0,0.306
1083.0,0.2967
1082.0,0.2866
1081.0,0.2762
1080.0,0.2655
1079.0,0.2544
1078.0,0.243
1077.0,0.2318
1076.0,0.2211
1075.0,0.2107
1074.0,0.2008
1073.0,0.1915
1072.0,0.1829
1071.0,0.1751
1070.0,0.1678
1069.0,0.1613
1068.0,0.1553
1067.0,0.1498
1066.0,0.1448
1065.0,0.1403
1064.0,0.1363
1063.0,0.1327
1062.0,0.1293
1061.0,0.1265
1060.0,0.1244
1059.0,0.1228
1058.0,0.1219
1057.0,0.1216
1056.0,0.1221
1055.0,0.1231
1054.0,0.1247
1053.0,0.1268
1052.0,0.1295
1051.0,0.1324
1050.0,0.1355
1049.0,0.1388
1048.0,0.142
1047.0,0.145
1046.0,0.1476
1045.0,0.1499
1044.0,0.1517
1043.0,0.1531
1042.0,0.1538
1041.0,0.1539
1040.0,0.1535
1039.0,0.1525
1038.0,0.151
1037.0,0.1493
1036.0,0.1475
1035.0,0.1457
1034.0,0.1438
1033.0,0.142
1032.0,0.1403
1031.0,0.1386
1030.0,0.1368
1029.0,0.1352
1028.0,0.1337
1027.0,0.1326
1026.0,0.1322
1025.0,0.1332
1024.0,0.1367
1023.0,0.1435
1022.0,0.1543
1021.0,0.1693
1020.0,0.1875
1019.0,0.2067
1018.0,0.2234
1017.0,0.2339
1016.0,0.2355
1015.0,0.2277
1014.0,0.213
1013.0,0.1956
1012.0,0.1787
1011.0,0.1642
1010.0,0.1524
1009.0,0.143
1008.0,0.1353
1007.0,0.1289
1006.0,0.1236
1005.0,0.1193
1004.0,0.1157
1003.0,0.1127
1002.0,0.1099
1001.0,0.1075
1000.0,0.1053
999.0,0.1032
998.0,0.1014
997.0,0.0998
996.0,0.0984
995.0,0.0972
994.0,0.0962
993.0,0.0952
992.0,0.0943
991.0,0.0935
990.0,0.0928
989.0,0.0922
988.0,0.0917
987.0,0.0912
986.0,0.0909
985.0,0.0906
984.0,0.0904
983.0,0.0903
982.0,0.0901
981.0,0.09
980.0,0.0901
979.0,0.0901
978.0,0.0901
977.0,0.09
976.0,0.09
975.0,0.0899
974.0,0.0897
973.0,0.0894
972.0,0.089
971.0,0.0885
970.0,0.0877
969.0,0.0869
968.0,0.086
967.0,0.085
966.0,0.0839
965.0,0.0828
964.0,0.0816
963.0,0.0804
962.0,0.0792
961.0,0.0782
960.0,0.0773
959.0,0.0764
958.0,0.0756
957.0,0.0749
956.0,0.0742
955.0,0.0736
954.0,0.0729
953.0,0.0723
952.0,0.0718
951.0,0.0712
950.0,0.0707
949.0,0.0703
948.0,0.0698
947.0,0.0694
946.0,0.069
945.0,0.0687
944.0,0.0685
943.0,0.0682
942.0,0.0678
941.0,0.0675
940.0,0.0672
939.0,0.0669
938.0,0.0667
937.0,0.0666
936.0,0.0664
935.0,0.0662
934.0,0.0659
933.0,0.0656
932.0,0.0653
931.0,0.065
930.0,0.0647
929.0,0.0644
928.0,0.0641
927.0,0.0637
926.0,0.0632
925.0,0.0628
924.0,0.0624
923.0,0.062
922.0,0.0616
921.0,0.0612
920.0,0.0609
919.0,0.0607
918.0,0.0606
917.0,0.0606
916.0,0.0607
915.0,0.0609
914.0,0.0613
913.0,0.0619
912.0,0.0627
911.0,0.0638
910.0,0.0653
909.0,0.0671
908.0,0.0693
907.0,0.0718
906.0,0.0743
905.0,0.0769
904.0,0.0796
903.0,0.0821
902.0,0.0844
901.0,0.0864
900.0,0.0882
899.0,0.0897
898.0,0.0909
897.0,0.0918
896.0,0.0923
895.0,0.0925
894.0,0.0924
893.0,0.0924
892.0,0.0925
891.0,0.0927
890.0,0.0931
889.0,0.0937
888.0,0.0944
887.0,0.0955
886.0,0.0968
885.0,0.0985
884.0,0.1006
883.0,0.1031
882.0,0.1062
881.0,0.11
880.0,0.1145
879.0,0.1197
878.0,0.1253
877.0,0.1312
876.0,0.1369
875.0,0.1418
874.0,0.1454
873.0,0.1472
872.0,0.1468
871.0,0.1441
870.0,0.1394
869.0,0.1335
868.0,0.1271
867.0,0.1207
866.0,0.1145
865.0,0.1091
864.0,0.1047
863.0,0.1011
862.0,0.0981
861.0,0.0957
860.0,0.0939
859.0,0.0926
858.0,0.0918
857.0,0.0914
856.0,0.0911
855.0,0.0909
854.0,0.0908
853.0,0.0908
852.0,0.0908
851.0,0.0909
850.0,0.0911
849.0,0.0913
848.0,0.0915
847.0,0.0914
846.0,0.0912
845.0,0.0912
844.0,0.0915
843.0,0.0918
842.0,0.0919
841.0,0.0919
840.0,0.0919
839.0,0.0918
838.0,0.0916
837.0,0.0911
836.0,0.0902
835.0,0.089
834.0,0.0876
833.0,0.0863
832.0,0.0852
831.0,0.0842
830.0,0.0833
829.0,0.0824
828.0,0.0818
827.0,0.0812
826.0,0.0806
825.0,0.0799
824.0,0.0793
823.0,0.0788
822.0,0.0783
821.0,0.078
820.0,0.0779
819.0,0.0779
818.0,0.0778
817.0,0.0778
816.0,0.0778
815.0,0.0778
814.0,0.0779
813.0,0.078
812.0,0.0782
811.0,0.0783
810.0,0.0782
809.0,0.078
808.0,0.0778
807.0,0.0776
806.0,0.0772
805.0,0.0769
804.0,0.0764
803.0,0.0759
802.0,0.0752
801.0,0.0747
800.0,0.0746
799.0,0.0752
798.0,0.077
797.0,0.0801
796.0,0.0841
795.0,0.0879
794.0,0.0906
793.0,0.0917
792.0,0.0911
791.0,0.089
790.0,0.0858
789.0,0.0823
788.0,0.0788
787.0,0.0755
786.0,0.0725
785.0,0.07
784.0,0.0678
783.0,0.0658
782.0,0.064
781.0,0.0624
780.0,0.061
779.0,0.0596
778.0,0.0583
777.0,0.0572
776.0,0.0562
775.0,0.0554
774.0,0.0546
773.0,0.0537
772.0,0.0528
771.0,0.0518
770.0,0.0507
769.0,0.0497
768.0,0.0488
767.0,0.0478
766.0,0.0468
765.0,0.0456
764.0,0.0444
763.0,0.0433
762.0,0.0423
761.0,0.0414
760.0,0.0405
759.0,0.0395
758.0,0.0384
757.0,0.0373
756.0,0.0362
755.0,0.035
754.0,0.0337
753.0,0.0325
752.0,0.0313
751.0,0.0303
750.0,0.0294
749.0,0.0287
748.0,0.0283
747.0,0.0282
746.0,0.0287
745.0,0.0303
744.0,0.0333
743.0,0.0382
742.0,0.0455
741.0,0.0558
740.0,0.0693
739.0,0.0856
738.0,0.1044
737.0,0.125
736.0,0.1469
735.0,0.1694
734.0,0.1923
733.0,0.2162
732.0,0.2419
731.0,0.2696
730.0,0.2997
729.0,0.333
728.0,0.3693
727.0,0.4058
726.0,0.4376
725.0,0.4589
724.0,0.4642
723.0,0.4507
722.0,0.4203
721.0,0.3796
720.0,0.3369
719.0,0.2986
718.0,0.2673
717.0,0.2423
716.0,0.2223
715.0,0.2064
714.0,0.1943
713.0,0.1855
712.0,0.1791
711.0,0.1739
710.0,0.1689
709.0,0.1639
708.0,0.1593
707.0,0.155
706.0,0.1511
705.0,0.1474
704.0,0.1439
703.0,0.1403
702.0,0.1364
701.0,0.1322
700.0,0.1279
699.0,0.1236
698.0,0.1195
697.0,0.1159
696.0,0.1129
695.0,0.1104
694.0,0.1083
693.0,0.1065
692.0,0.1052
691.0,0.1039
690.0,0.1024
689.0,0.1005
688.0,0.0985
687.0,0.0967
686.0,0.0956
685.0,0.0957
684.0,0.0965
683.0,0.0973
682.0,0.0976
681.0,0.0974
680.0,0.0969
679.0,0.0963
678.0,0.0958
677.0,0.0951
676.0,0.0941
675.0,0.0928
674.0,0.0915
673.0,0.0903
672.0,0.0893
671.0,0.0879
670.0,0.0862
669.0,0.0848
668.0,0.0831
667.0,0.0813
666.0,0.0809
665.0,0.0815
664.0,0.0821
663.0,0.0826
662.0,0.0826
661.0,0.0824
660.0,0.082
659.0,0.0811
658.0,0.08
657.0,0.079
656.0,0.0786
655.0,0.0785
654.0,0.0783
653.0,0.0783
652.0,0.0782
651.0,0.0781
650.0,0.0776
649.0,0.0772
648.0,0.0769
647.0,0.0764
646.0,0.0757
645.0,0.0749
644.0,0.0744
643.0,0.0741
642.0,0.074
641.0,0.074
640.0,0.0745
639.0,0.0754
638.0,0.0767
637.0,0.0785
636.0,0.0807
635.0,0.0829
634.0,0.0849
633.0,0.0867
632.0,0.0875
631.0,0.0866
630.0,0.0842
629.0,0.0817
628.0,0.08
627.0,0.0786
626.0,0.0772
625.0,0.0758
624.0,0.0746
623.0,0.0738
622.0,0.0733
621.0,0.0733
620.0,0.0737
619.0,0.0741
618.0,0.0744
617.0,0.0751
616.0,0.0756
615.0,0.0753
614.0,0.074
613.0,0.0724
612.0,0.0716
611.0,0.0715
610.0,0.0718
609.0,0.0721
608.0,0.0724
607.0,0.0724
606.0,0.072
605.0,0.0719
604.0,0.0719
603.0,0.0716
602.0,0.0708
601.0,0.0703
600.0,0.0706
