cm-1,A
4000.0,-0.0006
3999.0,-0.0006
3998.0,-0.0007
3997.0,-0.0007
3996.0,-0.0006
3995.0,-0.0006
3994.0,-0.0005
3993.0,-0.0005
3992.0,-0.0006
3991.0,-0.0006
3990.0,-0.0007
3989.0,-0.0007
3988.0,-0.0007
3987.0,-0.0007
3986.0,-0.0007
3985.0,-0.0007
3984.0,-0.0007
3983.0,-0.0007
3982.0,-0.0007
3981.0,-0.0007
3980.0,-0.0007
3979.0,-0.0007
3978.0,-0.0008
3977.0,-0.0008
3976.0,-0.0007
3975.0,-0.0007
3974.0,-0.0007
3973.0,-0.0007
3972.0,-0.0007
3971.0,-0.0007
3970.0,-0.0007
3969.0,-0.0007
3968.0,-0.0007
3967.0,-0.0006
3966.0,-0.0006
3965.0,-0.0005
3964.0,-0.0005
3963.0,-0.0004
3962.0,-0.0005
3961.0,-0.0005
3960.0,-0.0006
3959.0,-0.0007
3958.0,-0.0007
3957.0,-0.0007
3956.0,-0.0007
3955.0,-0.0007
3954.0,-0.0007
3953.0,-0.0007
3952.0,-0.0007
3951.0,-0.0006
3950.0,-0.0006
3949.0,-0.0006
3948.0,-0.0006
3947.0,-0.0006
3946.0,-0.0006
3945.0,-0.0007
3944.0,-0.0007
3943.0,-0.0008
3942.0,-0.0008
3941.0,-0.0007
3940.0,-0.0007
3939.0,-0.0006
3938.0,-0.0006
3937.0,-0.0006
3936.0,-0.0007
3935.0,-0.0007
3934.0,-0.0007
3933.0,-0.0007
3932.0,-0.0008
3931.0,-0.0008
3930.0,-0.0009
3929.0,-0.0009
3928.0,-0.0009
3927.0,-0.0008
3926.0,-0.0008
3925.0,-0.0008
3924.0,-0.0008
3923.0,-0.0008
3922.0,-0.0008
3921.0,-0.0007
3920.0,-0.0006
3919.0,-0.0005
3918.0,-0.0004
3917.0,-0.0004
3916.0,-0.0005
3915.0,-0.0006
3914.0,-0.0007
3913.0,-0.0007
3912.0,-0.0007
3911.0,-0.0006
3910.0,-0.0005
3909.0,-0.0006
3908.0,-0.0006
3907.0,-0.0008
3906.0,-0.0008
3905.0,-0.0008
3904.0,-0.0007
3903.0,-0.0006
3902.0,-0.0006
3901.0,-0.0007
3900.0,-0.0008
3899.0,-0.0009
3898.0,-0.0008
3897.0,-0.0007
3896.0,-0.0007
3895.0,-0.0006
3894.0,-0.0006
3893.0,-0.0005
3892.0,-0.0005
3891.0,-0.0006
3890.0,-0.0006
3889.0,-0.0006
3888.0,-0.0006
3887.0,-0.0006
3886.0,-0.0006
3885.0,-0.0006
3884.0,-0.0006
3883.0,-0.0006
3882.0,-0.0006
3881.0,-0.0006
3880.0,-0.0007
3879.0,-0.0007
3878.0,-0.0007
3877.0,-0.0007
3876.0,-0.0007
3875.0,-0.0007
3874.0,-0.0008
3873.0,-0.0007
3872.0,-0.0007
3871.0,-0.0006
3870.0,-0.0005
3869.0,-0.0004
3868.0,-0.0004
3867.0,-0.0004
3866.0,-0.0004
3865.0,-0.0005
3864.0,-0.0005
3863.0,-0.0005
3862.0,-0.0005
3861.0,-0.0005
3860.0,-0.0005
3859.0,-0.0005
3858.0,-0.0004
3857.0,-0.0003
3856.0,-0.0002
3855.0,-0.0002
3854.0,-0.0003
3853.0,-0.0002
3852.0,-0.0001
3851.0,-0.0002
3850.0,-0.0003
3849.0,-0.0005
3848.0,-0.0006
3847.0,-0.0006
3846.0,-0.0006
3845.0,-0.0006
3844.0,-0.0006
3843.0,-0.0006
3842.0,-0.0006
3841.0,-0.0005
3840.0,-0.0004
3839.0,-0.0003
3838.0,-0.0002
3837.0,-0.0002
3836.0,-0.0002
3835.0,-0.0003
3834.0,-0.0004
3833.0,-0.0004
3832.0,-0.0005
3831.0,-0.0004
3830.0,-0.0004
3829.0,-0.0004
3828.0,-0.0005
3827.0,-0.0005
3826.0,-0.0005
3825.0,-0.0005
3824.0,-0.0004
3823.0,-0.0004
3822.0,-0.0004
3821.0,-0.0004
3820.0,-0.0003
3819.0,-0.0001
3818.0,-0.0001
3817.0,-0.0002
3816.0,-0.0003
3815.0,-0.0004
3814.0,-0.0005
3813.0,-0.0005
3812.0,-0.0005
3811.0,-0.0005
3810.0,-0.0005
3809.0,-0.0005
3808.0,-0.0004
3807.0,-0.0003
3806.0,-0.0002
3805.0,-0.0002
3804.0,-0.0001
3803.0,-0.0001
3802.0,-0.0001
3801.0,-0.0002
3800.0,-0.0003
3799.0,-0.0004
3798.0,-0.0004
3797.0,-0.0005
3796.0,-0.0006
3795.0,-0.0006
3794.0,-0.0007
3793.0,-0.0007
3792.0,-0.0007
3791.0,-0.0007
3790.0,-0.0007
3789.0,-0.0007
3788.0,-0.0007
3787.0,-0.0007
3786.0,-0.0007
3785.0,-0.0007
3784.0,-0.0008
3783.0,-0.0008
3782.0,-0.0008
3781.0,-0.0007
3780.0,-0.0007
3779.0,-0.0007
3778.0,-0.0008
3777.0,-0.0008
3776.0,-0.0007
3775.0,-0.0007
3774.0,-0.0006
3773.0,-0.0006
3772.0,-0.0006
3771.0,-0.0007
3770.0,-0.0007
3769.0,-0.0007
3768.0,-0.0007
3767.0,-0.0007
3766.0,-0.0007
3765.0,-0.0007
3764.0,-0.0007
3763.0,-0.0007
3762.0,-0.0007
3761.0,-0.0007
3760.0,-0.0006
3759.0,-0.0006
3758.0,-0.0006
3757.0,-0.0005
3756.0,-0.0006
3755.0,-0.0005
3754.0,-0.0005
3753.0,-0.0003
3752.0,0.0
3751.0,0.0003
3750.0,0.0003
3749.0,0.0003
3748.0,0.0002
3747.0,0.0002
3746.0,0.0001
3745.0,0.0
3744.0,0.0
3743.0,0.0
3742.0,0.0
3741.0,-0.0001
3740.0,-0.0002
3739.0,-0.0002
3738.0,-0.0002
3737.0,-0.0002
3736.0,-0.0003
3735.0,-0.0004
3734.0,-0.0005
3733.0,-0.0006
3732.0,-0.0006
3731.0,-0.0006
3730.0,-0.0006
3729.0,-0.0007
3728.0,-0.0008
3727.0,-0.0008
3726.0,-0.0008
3725.0,-0.0006
3724.0,-0.0005
3723.0,-0.0005
3722.0,-0.0005
3721.0,-0.0005
3720.0,-0.0006
3719.0,-0.0006
3718.0,-0.0006
3717.0,-0.0005
3716.0,-0.0005
3715.0,-0.0004
3714.0,-0.0003
3713.0,-0.0003
3712.0,-0.0002
3711.0,-0.0003
3710.0,-0.0004
3709.0,-0.0004
3708.0,-0.0005
3707.0,-0.0005
3706.0,-0.0005
3705.0,-0.0005
3704.0,-0.0006
3703.0,-0.0006
3702.0,-0.0007
3701.0,-0.0007
3700.0,-0.0006
3699.0,-0.0006
3698.0,-0.0006
3697.0,-0.0005
3696.0,-0.0005
3695.0,-0.0005
3694.0,-0.0004
3693.0,-0.0003
3692.0,-0.0001
3691.0,-0.0
3690.0,-0.0
3689.0,-0.0001
3688.0,-0.0002
3687.0,-0.0003
3686.0,-0.0004
3685.0,-0.0004
3684.0,-0.0004
3683.0,-0.0004
3682.0,-0.0004
3681.0,-0.0004
3680.0,-0.0005
3679.0,-0.0005
3678.0,-0.0006
3677.0,-0.0005
3676.0,-0.0005
3675.0,-0.0005
3674.0,-0.0004
3673.0,-0.0003
3672.0,-0.0003
3671.0,-0.0004
3670.0,-0.0004
3669.0,-0.0004
3668.0,-0.0005
3667.0,-0.0005
3666.0,-0.0006
3665.0,-0.0006
3664.0,-0.0006
3663.0,-0.0006
3662.0,-0.0006
3661.0,-0.0007
3660.0,-0.0007
3659.0,-0.0006
3658.0,-0.0006
3657.0,-0.0005
3656.0,-0.0005
3655.0,-0.0005
3654.0,-0.0004
3653.0,-0.0004
3652.0,-0.0004
3651.0,-0.0004
3650.0,-0.0003
3649.0,-0.0003
3648.0,-0.0003
3647.0,-0.0003
3646.0,-0.0003
3645.0,-0.0002
3644.0,-0.0002
3643.0,-0.0002
3642.0,-0.0003
3641.0,-0.0004
3640.0,-0.0004
3639.0,-0.0005
3638.0,-0.0005
3637.0,-0.0004
3636.0,-0.0005
3635.0,-0.0005
3634.0,-0.0006
3633.0,-0.0006
3632.0,-0.0005
3631.0,-0.0004
3630.0,-0.0002
3629.0,-0.0002
3628.0,-0.0002
3627.0,-0.0003
3626.0,-0.0004
3625.0,-0.0005
3624.0,-0.0005
3623.0,-0.0005
3622.0,-0.0004
3621.0,-0.0004
3620.0,-0.0003
3619.0,-0.0003
3618.0,-0.0003
3617.0,-0.0003
3616.0,-0.0003
3615.0,-0.0003
3614.0,-0.0003
3613.0,-0.0003
3612.0,-0.0002
3611.0,-0.0002
3610.0,-0.0003
3609.0,-0.0004
3608.0,-0.0005
3607.0,-0.0005
3606.0,-0.0005
3605.0,-0.0005
3604.0,-0.0004
3603.0,-0.0003
3602.0,-0.0002
3601.0,-0.0002
3600.0,-0.0002
3599.0,-0.0003
3598.0,-0.0003
3597.0,-0.0002
3596.0,-0.0002
3595.0,-0.0002
3594.0,-0.0003
3593.0,-0.0003
3592.0,-0.0004
3591.0,-0.0004
3590.0,-0.0004
3589.0,-0.0003
3588.0,-0.0003
3587.0,-0.0004
3586.0,-0.0004
3585.0,-0.0004
3584.0,-0.0003
3583.0,-0.0003
3582.0,-0.0003
3581.0,-0.0003
3580.0,-0.0004
3579.0,-0.0005
3578.0,-0.0005
3577.0,-0.0005
3576.0,-0.0005
3575.0,-0.0005
3574.0,-0.0005
3573.0,-0.0004
3572.0,-0.0004
3571.0,-0.0003
3570.0,-0.0003
3569.0,-0.0002
3568.0,-0.0002
3567.0,-0.0002
3566.0,-0.0002
3565.0,-0.0003
3564.0,-0.0003
3563.0,-0.0003
3562.0,-0.0003
3561.0,-0.0002
3560.0,-0.0003
3559.0,-0.0003
3558.0,-0.0003
3557.0,-0.0002
3556.0,-0.0002
3555.0,-0.0002
3554.0,-0.0002
3553.0,-0.0002
3552.0,-0.0002
3551.0,-0.0001
3550.0,-0.0
3549.0,0.0
3548.0,0.0001
3547.0,0.0001
3546.0,-0.0
3545.0,-0.0001
3544.0,-0.0002
3543.0,-0.0003
3542.0,-0.0003
3541.0,-0.0003
3540.0,-0.0003
3539.0,-0.0003
3538.0,-0.0003
3537.0,-0.0003
3536.0,-0.0003
3535.0,-0.0003
3534.0,-0.0003
3533.0,-0.0003
3532.0,-0.0003
3531.0,-0.0002
3530.0,-0.0001
3529.0,-0.0
3528.0,0.0001
3527.0,0.0001
3526.0,-0.0
3525.0,-0.0001
3524.0,-0.0002
3523.0,-0.0002
3522.0,-0.0002
3521.0,-0.0002
3520.0,-0.0001
3519.0,-0.0001
3518.0,-0.0001
3517.0,-0.0001
3516.0,-0.0001
3515.0,-0.0001
3514.0,-0.0001
3513.0,-0.0001
3512.0,-0.0002
3511.0,-0.0002
3510.0,-0.0003
3509.0,-0.0003
3508.0,-0.0002
3507.0,-0.0001
3506.0,-0.0
3505.0,0.0
3504.0,0.0
3503.0,-0.0
3502.0,-0.0001
3501.0,-0.0001
3500.0,-0.0001
3499.0,-0.0001
3498.0,-0.0001
3497.0,-0.0001
3496.0,-0.0002
3495.0,-0.0002
3494.0,-0.0002
3493.0,-0.0002
3492.0,-0.0002
3491.0,-0.0003
3490.0,-0.0003
3489.0,-0.0002
3488.0,-0.0002
3487.0,-0.0002
3486.0,-0.0002
3485.0,-0.0003
3484.0,-0.0004
3483.0,-0.0004
3482.0,-0.0004
3481.0,-0.0003
3480.0,-0.0002
3479.0,-0.0002
3478.0,-0.0002
3477.0,-0.0002
3476.0,-0.0002
3475.0,-0.0002
3474.0,-0.0003
3473.0,-0.0004
3472.0,-0.0004
3471.0,-0.0003
3470.0,-0.0002
3469.0,-0.0001
3468.0,-0.0001
3467.0,-0.0001
3466.0,-0.0001
3465.0,-0.0001
3464.0,-0.0001
3463.0,-0.0001
3462.0,-0.0001
3461.0,-0.0001
3460.0,-0.0
3459.0,0.0
3458.0,0.0
3457.0,-0.0001
3456.0,-0.0001
3455.0,-0.0002
3454.0,-0.0003
3453.0,-0.0003
3452.0,-0.0003
3451.0,-0.0002
3450.0,-0.0001
3449.0,-0.0001
3448.0,-0.0001
3447.0,-0.0001
3446.0,-0.0002
3445.0,-0.0003
3444.0,-0.0003
3443.0,-0.0003
3442.0,-0.0002
3441.0,-0.0
3440.0,0.0001
3439.0,0.0001
3438.0,0.0001
3437.0,0.0
3436.0,-0.0
3435.0,-0.0001
3434.0,-0.0001
3433.0,-0.0001
3432.0,-0.0001
3431.0,-0.0
3430.0,-0.0
3429.0,-0.0
3428.0,-0.0
3427.0,-0.0
3426.0,-0.0
3425.0,0.0
3424.0,0.0001
3423.0,0.0001
3422.0,0.0001
3421.0,0.0001
3420.0,0.0001
3419.0,0.0
3418.0,-0.0001
3417.0,-0.0001
3416.0,-0.0002
3415.0,-0.0002
3414.0,-0.0002
3413.0,-0.0001
3412.0,-0.0001
3411.0,-0.0
3410.0,0.0
3409.0,0.0001
3408.0,0.0001
3407.0,0.0001
3406.0,0.0
3405.0,-0.0
3404.0,-0.0001
3403.0,-0.0002
3402.0,-0.0002
3401.0,-0.0002
3400.0,-0.0002
3399.0,-0.0002
3398.0,-0.0002
3397.0,-0.0001
3396.0,-0.0001
3395.0,-0.0
3394.0,-0.0001
3393.0,-0.0001
3392.0,-0.0
3391.0,0.0
3390.0,0.0001
3389.0,0.0001
3388.0,0.0001
3387.0,0.0001
3386.0,-0.0
3385.0,-0.0001
3384.0,-0.0001
3383.0,-0.0
3382.0,0.0
3381.0,0.0
3380.0,-0.0
3379.0,-0.0001
3378.0,-0.0001
3377.0,-0.0001
3376.0,-0.0
3375.0,0.0
3374.0,0.0
3373.0,-0.0
3372.0,-0.0001
3371.0,-0.0001
3370.0,-0.0
3369.0,-0.0
3368.0,0.0
3367.0,0.0001
3366.0,0.0001
3365.0,0.0001
3364.0,0.0001
3363.0,0.0002
3362.0,0.0002
3361.0,0.0002
3360.0,0.0002
3359.0,0.0
3358.0,-0.0
3357.0,-0.0
3356.0,0.0
3355.0,0.0
3354.0,0.0
3353.0,0.0
3352.0,-0.0
3351.0,-0.0001
3350.0,-0.0002
3349.0,-0.0002
3348.0,-0.0001
3347.0,-0.0
3346.0,0.0001
3345.0,0.0001
3344.0,0.0002
3343.0,0.0002
3342.0,0.0001
3341.0,0.0001
3340.0,0.0001
3339.0,0.0001
3338.0,0.0001
3337.0,0.0
3336.0,0.0
3335.0,0.0
3334.0,0.0001
3333.0,0.0001
3332.0,0.0001
3331.0,0.0001
3330.0,0.0001
3329.0,0.0
3328.0,-0.0
3327.0,-0.0
3326.0,-0.0
3325.0,0.0
3324.0,-0.0
3323.0,-0.0
3322.0,-0.0001
3321.0,-0.0001
3320.0,-0.0001
3319.0,-0.0001
3318.0,-0.0001
3317.0,-0.0001
3316.0,-0.0
3315.0,0.0001
3314.0,0.0003
3313.0,0.0003
3312.0,0.0003
3311.0,0.0002
3310.0,0.0
3309.0,-0.0001
3308.0,-0.0002
3307.0,-0.0002
3306.0,-0.0002
3305.0,-0.0001
3304.0,-0.0001
3303.0,-0.0001
3302.0,-0.0001
3301.0,-0.0001
3300.0,-0.0001
3299.0,-0.0001
3298.0,-0.0
3297.0,0.0
3296.0,0.0001
3295.0,0.0001
3294.0,0.0
3293.0,-0.0001
3292.0,-0.0001
3291.0,-0.0001
3290.0,-0.0001
3289.0,-0.0
3288.0,0.0
3287.0,0.0
3286.0,0.0
3285.0,0.0
3284.0,0.0001
3283.0,0.0001
3282.0,0.0002
3281.0,0.0003
3280.0,0.0003
3279.0,0.0002
3278.0,0.0002
3277.0,0.0001
3276.0,0.0001
3275.0,0.0
3274.0,0.0
3273.0,-0.0
3272.0,-0.0001
3271.0,-0.0001
3270.0,-0.0001
3269.0,-0.0002
3268.0,-0.0001
3267.0,-0.0001
3266.0,-0.0001
3265.0,-0.0001
3264.0,-0.0001
3263.0,-0.0001
3262.0,-0.0001
3261.0,-0.0001
3260.0,-0.0001
3259.0,-0.0
3258.0,-0.0
3257.0,-0.0001
3256.0,-0.0002
3255.0,-0.0002
3254.0,-0.0002
3253.0,-0.0001
3252.0,0.0
3251.0,0.0001
3250.0,0.0001
3249.0,0.0001
3248.0,0.0
3247.0,-0.0
3246.0,-0.0001
3245.0,-0.0002
3244.0,-0.0002
3243.0,-0.0001
3242.0,-0.0001
3241.0,0.0
3240.0,0.0001
3239.0,0.0001
3238.0,0.0001
3237.0,0.0001
3236.0,0.0001
3235.0,0.0001
3234.0,0.0001
3233.0,0.0001
3232.0,0.0
3231.0,-0.0001
3230.0,-0.0001
3229.0,-0.0001
3228.0,-0.0001
3227.0,-0.0
3226.0,-0.0
3225.0,0.0
3224.0,0.0
3223.0,0.0001
3222.0,0.0001
3221.0,0.0
3220.0,-0.0001
3219.0,-0.0002
3218.0,-0.0002
3217.0,-0.0002
3216.0,-0.0001
3215.0,-0.0001
3214.0,-0.0001
3213.0,-0.0002
3212.0,-0.0002
3211.0,-0.0001
3210.0,-0.0001
3209.0,-0.0
3208.0,0.0
3207.0,0.0001
3206.0,0.0001
3205.0,0.0001
3204.0,0.0001
3203.0,0.0001
3202.0,0.0001
3201.0,0.0001
3200.0,0.0001
3199.0,0.0001
3198.0,0.0001
3197.0,0.0001
3196.0,0.0002
3195.0,0.0002
3194.0,0.0002
3193.0,0.0002
3192.0,0.0001
3191.0,0.0001
3190.0,0.0001
3189.0,0.0001
3188.0,0.0002
3187.0,0.0002
3186.0,0.0002
3185.0,0.0001
3184.0,0.0001
3183.0,0.0
3182.0,-0.0001
3181.0,-0.0002
3180.0,-0.0002
3179.0,-0.0002
3178.0,-0.0002
3177.0,-0.0002
3176.0,-0.0001
3175.0,-0.0001
3174.0,0.0
3173.0,0.0001
3172.0,0.0
3171.0,-0.0
3170.0,-0.0001
3169.0,-0.0001
3168.0,-0.0
3167.0,0.0
3166.0,0.0001
3165.0,0.0001
3164.0,0.0001
3163.0,0.0
3162.0,-0.0
3161.0,-0.0001
3160.0,-0.0001
3159.0,-0.0001
3158.0,-0.0
3157.0,0.0
3156.0,0.0001
3155.0,0.0001
3154.0,0.0001
3153.0,0.0001
3152.0,0.0
3151.0,-0.0
3150.0,-0.0001
3149.0,-0.0001
3148.0,-0.0001
3147.0,-0.0001
3146.0,-0.0
3145.0,0.0
3144.0,0.0001
3143.0,0.0
3142.0,0.0
3141.0,-0.0
3140.0,-0.0
3139.0,0.0
3138.0,0.0
3137.0,0.0001
3136.0,0.0001
3135.0,0.0001
3134.0,0.0002
3133.0,0.0002
3132.0,0.0001
3131.0,0.0
3130.0,-0.0
3129.0,-0.0
3128.0,0.0
3127.0,0.0
3126.0,-0.0
3125.0,-0.0001
3124.0,-0.0001
3123.0,-0.0001
3122.0,-0.0001
3121.0,-0.0001
3120.0,-0.0002
3119.0,-0.0002
3118.0,-0.0002
3117.0,-0.0002
3116.0,-0.0001
3115.0,-0.0001
3114.0,-0.0001
3113.0,-0.0001
3112.0,-0.0001
3111.0,-0.0
3110.0,-0.0
3109.0,-0.0
3108.0,-0.0
3107.0,-0.0
3106.0,-0.0
3105.0,-0.0
3104.0,-0.0
3103.0,-0.0001
3102.0,-0.0001
3101.0,-0.0001
3100.0,-0.0001
3099.0,-0.0
3098.0,-0.0
3097.0,-0.0001
3096.0,-0.0001
3095.0,-0.0001
3094.0,-0.0
3093.0,0.0
3092.0,0.0
3091.0,-0.0
3090.0,-0.0001
3089.0,-0.0001
3088.0,-0.0001
3087.0,-0.0
3086.0,0.0
3085.0,0.0
3084.0,0.0
3083.0,-0.0001
3082.0,-0.0001
3081.0,-0.0001
3080.0,-0.0
3079.0,-0.0
3078.0,-0.0001
3077.0,-0.0001
3076.0,-0.0001
3075.0,-0.0001
3074.0,-0.0001
3073.0,-0.0001
3072.0,-0.0
3071.0,-0.0
3070.0,-0.0
3069.0,0.0
3068.0,0.0
3067.0,0.0
3066.0,0.0
3065.0,-0.0
3064.0,0.0
3063.0,0.0001
3062.0,0.0001
3061.0,0.0001
3060.0,0.0001
3059.0,0.0
3058.0,0.0
3057.0,0.0
3056.0,0.0001
3055.0,0.0001
3054.0,0.0001
3053.0,0.0002
3052.0,0.0001
3051.0,0.0001
3050.0,0.0001
3049.0,0.0001
3048.0,0.0001
3047.0,0.0001
3046.0,0.0002
3045.0,0.0002
3044.0,0.0001
3043.0,0.0001
3042.0,0.0001
3041.0,0.0
3040.0,-0.0
3039.0,-0.0
3038.0,-0.0
3037.0,-0.0
3036.0,-0.0
3035.0,-0.0
3034.0,-0.0
3033.0,-0.0001
3032.0,-0.0001
3031.0,-0.0002
3030.0,-0.0002
3029.0,-0.0002
3028.0,-0.0001
3027.0,-0.0001
3026.0,0.0
3025.0,0.0001
3024.0,0.0
3023.0,0.0
3022.0,-0.0
3021.0,-0.0001
3020.0,-0.0001
3019.0,-0.0001
3018.0,-0.0001
3017.0,-0.0001
3016.0,-0.0001
3015.0,-0.0
3014.0,-0.0
3013.0,0.0001
3012.0,0.0001
3011.0,0.0002
3010.0,0.0002
3009.0,0.0001
3008.0,0.0001
3007.0,0.0001
3006.0,0.0
3005.0,0.0
3004.0,0.0001
3003.0,0.0
3002.0,0.0
3001.0,-0.0
3000.0,-0.0
2999.0,-0.0
2998.0,-0.0
2997.0,-0.0001
2996.0,-0.0
2995.0,0.0
2994.0,0.0001
2993.0,0.0001
2992.0,0.0001
2991.0,0.0001
2990.0,0.0001
2989.0,0.0
2988.0,0.0001
2987.0,0.0001
2986.0,0.0001
2985.0,0.0002
2984.0,0.0002
2983.0,0.0001
2982.0,0.0001
2981.0,0.0001
2980.0,0.0002
2979.0,0.0002
2978.0,0.0002
2977.0,0.0002
2976.0,0.0002
2975.0,0.0002
2974.0,0.0002
2973.0,0.0002
2972.0,0.0002
2971.0,0.0002
2970.0,0.0002
2969.0,0.0002
2968.0,0.0002
2967.0,0.0002
2966.0,0.0002
2965.0,0.0002
2964.0,0.0002
2963.0,0.0003
2962.0,0.0004
2961.0,0.0004
2960.0,0.0004
2959.0,0.0004
2958.0,0.0003
2957.0,0.0003
2956.0,0.0003
2955.0,0.0003
2954.0,0.0002
2953.0,0.0002
2952.0,0.0001
2951.0,0.0002
2950.0,0.0002
2949.0,0.0002
2948.0,0.0002
2947.0,0.0001
2946.0,0.0001
2945.0,0.0001
2944.0,0.0001
2943.0,0.0001
2942.0,0.0002
2941.0,0.0002
2940.0,0.0002
2939.0,0.0002
2938.0,0.0003
2937.0,0.0003
2936.0,0.0003
2935.0,0.0002
2934.0,0.0002
2933.0,0.0002
2932.0,0.0002
2931.0,0.0001
2930.0,0.0001
2929.0,0.0001
2928.0,0.0001
2927.0,0.0001
2926.0,0.0001
2925.0,0.0002
2924.0,0.0002
2923.0,0.0002
2922.0,0.0002
2921.0,0.0003
2920.0,0.0003
2919.0,0.0003
2918.0,0.0003
2917.0,0.0002
2916.0,0.0002
2915.0,0.0002
2914.0,0.0002
2913.0,0.0002
2912.0,0.0002
2911.0,0.0002
2910.0,0.0002
2909.0,0.0002
2908.0,0.0002
2907.0,0.0002
2906.0,0.0002
2905.0,0.0002
2904.0,0.0002
2903.0,0.0002
2902.0,0.0002
2901.0,0.0001
2900.0,0.0001
2899.0,0.0002
2898.0,0.0002
2897.0,0.0002
2896.0,0.0002
2895.0,0.0002
2894.0,0.0002
2893.0,0.0001
2892.0,0.0001
2891.0,0.0001
2890.0,0.0001
2889.0,0.0001
2888.0,0.0001
2887.0,0.0001
2886.0,0.0002
2885.0,0.0002
2884.0,0.0001
2883.0,0.0001
2882.0,0.0001
2881.0,0.0002
2880.0,0.0002
2879.0,0.0002
2878.0,0.0002
2877.0,0.0002
2876.0,0.0002
2875.0,0.0002
2874.0,0.0002
2873.0,0.0003
2872.0,0.0003
2871.0,0.0003
2870.0,0.0003
2869.0,0.0003
2868.0,0.0003
2867.0,0.0002
2866.0,0.0001
2865.0,0.0
2864.0,0.0
2863.0,0.0
2862.0,0.0001
2861.0,0.0001
2860.0,0.0001
2859.0,0.0001
2858.0,0.0002
2857.0,0.0003
2856.0,0.0004
2855.0,0.0005
2854.0,0.0005
2853.0,0.0004
2852.0,0.0004
2851.0,0.0003
2850.0,0.0003
2849.0,0.0003
2848.0,0.0002
2847.0,0.0002
2846.0,0.0002
2845.0,0.0002
2844.0,0.0002
2843.0,0.0002
2842.0,0.0003
2841.0,0.0003
2840.0,0.0003
2839.0,0.0003
2838.0,0.0003
2837.0,0.0003
2836.0,0.0003
2835.0,0.0002
2834.0,0.0002
2833.0,0.0001
2832.0,0.0001
2831.0,0.0001
2830.0,0.0002
2829.0,0.0002
2828.0,0.0002
2827.0,0.0002
2826.0,0.0002
2825.0,0.0002
2824.0,0.0002
2823.0,0.0002
2822.0,0.0002
2821.0,0.0002
2820.0,0.0002
2819.0,0.0002
2818.0,0.0002
2817.0,0.0003
2816.0,0.0003
2815.0,0.0003
2814.0,0.0004
2813.0,0.0004
2812.0,0.0003
2811.0,0.0003
2810.0,0.0003
2809.0,0.0003
2808.0,0.0004
2807.0,0.0004
2806.0,0.0004
2805.0,0.0004
2804.0,0.0003
2803.0,0.0003
2802.0,0.0003
2801.0,0.0004
2800.0,0.0004
2799.0,0.0004
2798.0,0.0004
2797.0,0.0004
2796.0,0.0004
2795.0,0.0003
2794.0,0.0003
2793.0,0.0002
2792.0,0.0003
2791.0,0.0003
2790.0,0.0004
2789.0,0.0004
2788.0,0.0004
2787.0,0.0003
2786.0,0.0003
2785.0,0.0002
2784.0,0.0002
2783.0,0.0002
2782.0,0.0003
2781.0,0.0003
2780.0,0.0003
2779.0,0.0003
2778.0,0.0003
2777.0,0.0004
2776.0,0.0004
2775.0,0.0004
2774.0,0.0003
2773.0,0.0003
2772.0,0.0003
2771.0,0.0003
2770.0,0.0003
2769.0,0.0003
2768.0,0.0004
2767.0,0.0003
2766.0,0.0003
2765.0,0.0003
2764.0,0.0003
2763.0,0.0003
2762.0,0.0002
2761.0,0.0002
2760.0,0.0002
2759.0,0.0003
2758.0,0.0004
2757.0,0.0004
2756.0,0.0004
2755.0,0.0004
2754.0,0.0003
2753.0,0.0003
2752.0,0.0003
2751.0,0.0003
2750.0,0.0003
2749.0,0.0003
2748.0,0.0003
2747.0,0.0002
2746.0,0.0003
2745.0,0.0003
2744.0,0.0003
2743.0,0.0003
2742.0,0.0004
2741.0,0.0004
2740.0,0.0005
2739.0,0.0005
2738.0,0.0004
2737.0,0.0003
2736.0,0.0003
2735.0,0.0003
2734.0,0.0003
2733.0,0.0004
2732.0,0.0004
2731.0,0.0004
2730.0,0.0004
2729.0,0.0005
2728.0,0.0005
2727.0,0.0005
2726.0,0.0005
2725.0,0.0004
2724.0,0.0004
2723.0,0.0004
2722.0,0.0004
2721.0,0.0004
2720.0,0.0004
2719.0,0.0005
2718.0,0.0005
2717.0,0.0005
2716.0,0.0005
2715.0,0.0004
2714.0,0.0004
2713.0,0.0004
2712.0,0.0003
2711.0,0.0003
2710.0,0.0003
2709.0,0.0003
2708.0,0.0003
2707.0,0.0003
2706.0,0.0004
2705.0,0.0004
2704.0,0.0004
2703.0,0.0004
2702.0,0.0004
2701.0,0.0004
2700.0,0.0004
2699.0,0.0004
2698.0,0.0004
2697.0,0.0004
2696.0,0.0004
2695.0,0.0004
2694.0,0.0004
2693.0,0.0004
2692.0,0.0004
2691.0,0.0004
2690.0,0.0004
2689.0,0.0003
2688.0,0.0004
2687.0,0.0004
2686.0,0.0005
2685.0,0.0005
2684.0,0.0005
2683.0,0.0005
2682.0,0.0005
2681.0,0.0005
2680.0,0.0005
2679.0,0.0004
2678.0,0.0004
2677.0,0.0004
2676.0,0.0004
2675.0,0.0005
2674.0,0.0005
2673.0,0.0005
2672.0,0.0005
2671.0,0.0005
2670.0,0.0005
2669.0,0.0004
2668.0,0.0004
2667.0,0.0003
2666.0,0.0003
2665.0,0.0003
2664.0,0.0004
2663.0,0.0004
2662.0,0.0004
2661.0,0.0004
2660.0,0.0005
2659.0,0.0005
2658.0,0.0005
2657.0,0.0005
2656.0,0.0005
2655.0,0.0006
2654.0,0.0006
2653.0,0.0006
2652.0,0.0005
2651.0,0.0005
2650.0,0.0004
2649.0,0.0004
2648.0,0.0005
2647.0,0.0005
2646.0,0.0005
2645.0,0.0005
2644.0,0.0005
2643.0,0.0005
2642.0,0.0004
2641.0,0.0004
2640.0,0.0004
2639.0,0.0005
2638.0,0.0005
2637.0,0.0005
2636.0,0.0005
2635.0,0.0005
2634.0,0.0005
2633.0,0.0005
2632.0,0.0005
2631.0,0.0005
2630.0,0.0005
2629.0,0.0005
2628.0,0.0005
2627.0,0.0005
2626.0,0.0005
2625.0,0.0005
2624.0,0.0005
2623.0,0.0006
2622.0,0.0006
2621.0,0.0006
2620.0,0.0006
2619.0,0.0005
2618.0,0.0005
2617.0,0.0004
2616.0,0.0004
2615.0,0.0003
2614.0,0.0003
2613.0,0.0003
2612.0,0.0004
2611.0,0.0004
2610.0,0.0004
2609.0,0.0005
2608.0,0.0005
2607.0,0.0005
2606.0,0.0005
2605.0,0.0005
2604.0,0.0005
2603.0,0.0006
2602.0,0.0006
2601.0,0.0006
2600.0,0.0006
2599.0,0.0005
2598.0,0.0005
2597.0,0.0005
2596.0,0.0005
2595.0,0.0005
2594.0,0.0006
2593.0,0.0006
2592.0,0.0006
2591.0,0.0006
2590.0,0.0006
2589.0,0.0006
2588.0,0.0006
2587.0,0.0007
2586.0,0.0007
2585.0,0.0007
2584.0,0.0006
2583.0,0.0006
2582.0,0.0006
2581.0,0.0006
2580.0,0.0006
2579.0,0.0006
2578.0,0.0006
2577.0,0.0006
2576.0,0.0006
2575.0,0.0005
2574.0,0.0005
2573.0,0.0005
2572.0,0.0005
2571.0,0.0005
2570.0,0.0005
2569.0,0.0006
2568.0,0.0007
2567.0,0.0007
2566.0,0.0007
2565.0,0.0007
2564.0,0.0006
2563.0,0.0006
2562.0,0.0006
2561.0,0.0006
2560.0,0.0006
2559.0,0.0006
2558.0,0.0006
2557.0,0.0007
2556.0,0.0007
2555.0,0.0007
2554.0,0.0007
2553.0,0.0007
2552.0,0.0007
2551.0,0.0007
2550.0,0.0007
2549.0,0.0007
2548.0,0.0007
2547.0,0.0007
2546.0,0.0007
2545.0,0.0008
2544.0,0.0008
2543.0,0.0008
2542.0,0.0007
2541.0,0.0007
2540.0,0.0007
2539.0,0.0007
2538.0,0.0007
2537.0,0.0007
2536.0,0.0007
2535.0,0.0008
2534.0,0.0008
2533.0,0.0008
2532.0,0.0008
2531.0,0.0008
2530.0,0.0008
2529.0,0.0008
2528.0,0.0007
2527.0,0.0007
2526.0,0.0007
2525.0,0.0007
2524.0,0.0008
2523.0,0.0008
2522.0,0.0009
2521.0,0.0009
2520.0,0.0008
2519.0,0.0008
2518.0,0.0008
2517.0,0.0008
2516.0,0.0009
2515.0,0.0009
2514.0,0.0008
2513.0,0.0008
2512.0,0.0008
2511.0,0.0008
2510.0,0.0008
2509.0,0.0008
2508.0,0.0008
2507.0,0.0008
2506.0,0.0007
2505.0,0.0007
2504.0,0.0007
2503.0,0.0007
2502.0,0.0007
2501.0,0.0007
2500.0,0.0007
2499.0,0.0007
2498.0,0.0007
2497.0,0.0007
2496.0,0.0007
2495.0,0.0008
2494.0,0.0007
2493.0,0.0007
2492.0,0.0007
2491.0,0.0007
2490.0,0.0007
2489.0,0.0008
2488.0,0.0008
2487.0,0.0008
2486.0,0.0008
2485.0,0.0009
2484.0,0.0009
2483.0,0.0009
2482.0,0.0009
2481.0,0.0009
2480.0,0.0009
2479.0,0.0008
2478.0,0.0007
2477.0,0.0007
2476.0,0.0007
2475.0,0.0008
2474.0,0.0008
2473.0,0.0009
2472.0,0.0009
2471.0,0.0008
2470.0,0.0007
2469.0,0.0007
2468.0,0.0007
2467.0,0.0007
2466.0,0.0007
2465.0,0.0007
2464.0,0.0007
2463.0,0.0007
2462.0,0.0007
2461.0,0.0007
2460.0,0.0007
2459.0,0.0007
2458.0,0.0007
2457.0,0.0008
2456.0,0.0008
2455.0,0.0008
2454.0,0.0008
2453.0,0.0008
2452.0,0.0009
2451.0,0.0009
2450.0,0.0008
2449.0,0.0008
2448.0,0.0008
2447.0,0.0008
2446.0,0.0008
2445.0,0.0008
2444.0,0.0008
2443.0,0.0008
2442.0,0.0008
2441.0,0.0008
2440.0,0.0009
2439.0,0.0009
2438.0,0.0008
2437.0,0.0008
2436.0,0.0008
2435.0,0.0008
2434.0,0.0008
2433.0,0.0009
2432.0,0.001
2431.0,0.001
2430.0,0.001
2429.0,0.001
2428.0,0.0009
2427.0,0.0009
2426.0,0.0008
2425.0,0.0009
2424.0,0.0009
2423.0,0.001
2422.0,0.0011
2421.0,0.0011
2420.0,0.0011
2419.0,0.0011
2418.0,0.001
2417.0,0.001
2416.0,0.0009
2415.0,0.0008
2414.0,0.0008
2413.0,0.0008
2412.0,0.0008
2411.0,0.0008
2410.0,0.0008
2409.0,0.0008
2408.0,0.0009
2407.0,0.0009
2406.0,0.0009
2405.0,0.0009
2404.0,0.0009
2403.0,0.0009
2402.0,0.0009
2401.0,0.0009
2400.0,0.001
2399.0,0.001
2398.0,0.001
2397.0,0.0011
2396.0,0.0011
2395.0,0.001
2394.0,0.001
2393.0,0.001
2392.0,0.001
2391.0,0.001
2390.0,0.001
2389.0,0.001
2388.0,0.001
2387.0,0.0009
2386.0,0.0009
2385.0,0.0008
2384.0,0.0008
2383.0,0.0009
2382.0,0.0009
2381.0,0.001
2380.0,0.001
2379.0,0.0009
2378.0,0.0007
2377.0,0.0005
2376.0,0.0005
2375.0,0.0006
2374.0,0.0008
2373.0,0.0011
2372.0,0.0012
2371.0,0.001
2370.0,0.0007
2369.0,0.0006
2368.0,0.0008
2367.0,0.0011
2366.0,0.0009
2365.0,-0.0002
2364.0,-0.0017
2363.0,-0.0022
2362.0,-0.0015
2361.0,0.0002
2360.0,0.0022
2359.0,0.0038
2358.0,0.0042
2357.0,0.0033
2356.0,0.002
2355.0,0.0011
2354.0,0.0008
2353.0,0.0008
2352.0,0.0008
2351.0,0.0009
2350.0,0.0009
2349.0,0.0009
2348.0,0.0009
2347.0,0.0008
2346.0,0.0006
2345.0,0.0005
2344.0,0.0005
2343.0,0.0008
2342.0,0.0012
2341.0,0.0016
2340.0,0.0017
2339.0,0.0013
2338.0,0.0005
2337.0,-0.0001
2336.0,-0.0004
2335.0,-0.0002
2334.0,0.0003
2333.0,0.0007
2332.0,0.0009
2331.0,0.0009
2330.0,0.0009
2329.0,0.0009
2328.0,0.001
2327.0,0.0009
2326.0,0.0007
2325.0,0.0005
2324.0,0.0005
2323.0,0.0007
2322.0,0.0008
2321.0,0.0009
2320.0,0.0009
2319.0,0.001
2318.0,0.0011
2317.0,0.0011
2316.0,0.0012
2315.0,0.0012
2314.0,0.0011
2313.0,0.0011
2312.0,0.0011
2311.0,0.0011
2310.0,0.0011
2309.0,0.0012
2308.0,0.0013
2307.0,0.0013
2306.0,0.0013
2305.0,0.0012
2304.0,0.0012
2303.0,0.0011
2302.0,0.0011
2301.0,0.0011
2300.0,0.0011
2299.0,0.0011
2298.0,0.0011
2297.0,0.0011
2296.0,0.0011
2295.0,0.0011
2294.0,0.0011
2293.0,0.0011
2292.0,0.0011
2291.0,0.0011
2290.0,0.0011
2289.0,0.0011
2288.0,0.001
2287.0,0.001
2286.0,0.0011
2285.0,0.0011
2284.0,0.0011
2283.0,0.0012
2282.0,0.0012
2281.0,0.0012
2280.0,0.0012
2279.0,0.0012
2278.0,0.0012
2277.0,0.0013
2276.0,0.0013
2275.0,0.0014
2274.0,0.0013
2273.0,0.0013
2272.0,0.0012
2271.0,0.0011
2270.0,0.0011
2269.0,0.0011
2268.0,0.0011
2267.0,0.0012
2266.0,0.0012
2265.0,0.0011
2264.0,0.0011
2263.0,0.0011
2262.0,0.0011
2261.0,0.0011
2260.0,0.0011
2259.0,0.001
2258.0,0.001
2257.0,0.001
2256.0,0.0011
2255.0,0.0012
2254.0,0.0012
2253.0,0.0012
2252.0,0.0012
2251.0,0.0013
2250.0,0.0013
2249.0,0.0014
2248.0,0.0014
2247.0,0.0013
2246.0,0.0013
2245.0,0.0012
2244.0,0.0012
2243.0,0.0012
2242.0,0.0012
2241.0,0.0012
2240.0,0.0012
2239.0,0.0013
2238.0,0.0013
2237.0,0.0013
2236.0,0.0013
2235.0,0.0013
2234.0,0.0012
2233.0,0.0013
2232.0,0.0013
2231.0,0.0013
2230.0,0.0013
2229.0,0.0013
2228.0,0.0013
2227.0,0.0013
2226.0,0.0013
2225.0,0.0013
2224.0,0.0014
2223.0,0.0014
2222.0,0.0014
2221.0,0.0013
2220.0,0.0013
2219.0,0.0013
2218.0,0.0013
2217.0,0.0013
2216.0,0.0014
2215.0,0.0014
2214.0,0.0014
2213.0,0.0013
2212.0,0.0013
2211.0,0.0013
2210.0,0.0013
2209.0,0.0014
2208.0,0.0014
2207.0,0.0014
2206.0,0.0014
2205.0,0.0014
2204.0,0.0013
2203.0,0.0013
2202.0,0.0013
2201.0,0.0013
2200.0,0.0014
2199.0,0.0014
2198.0,0.0014
2197.0,0.0014
2196.0,0.0013
2195.0,0.0013
2194.0,0.0014
2193.0,0.0014
2192.0,0.0014
2191.0,0.0014
2190.0,0.0014
2189.0,0.0014
2188.0,0.0014
2187.0,0.0014
2186.0,0.0013
2185.0,0.0013
2184.0,0.0013
2183.0,0.0013
2182.0,0.0014
2181.0,0.0014
2180.0,0.0014
2179.0,0.0014
2178.0,0.0014
2177.0,0.0013
2176.0,0.0014
2175.0,0.0014
2174.0,0.0015
2173.0,0.0015
2172.0,0.0016
2171.0,0.0016
2170.0,0.0015
2169.0,0.0015
2168.0,0.0015
2167.0,0.0014
2166.0,0.0014
2165.0,0.0014
2164.0,0.0014
2163.0,0.0014
2162.0,0.0014
2161.0,0.0014
2160.0,0.0015
2159.0,0.0015
2158.0,0.0015
2157.0,0.0015
2156.0,0.0014
2155.0,0.0014
2154.0,0.0014
2153.0,0.0014
2152.0,0.0014
2151.0,0.0014
2150.0,0.0014
2149.0,0.0015
2148.0,0.0015
2147.0,0.0015
2146.0,0.0015
2145.0,0.0015
2144.0,0.0015
2143.0,0.0015
2142.0,0.0015
2141.0,0.0015
2140.0,0.0015
2139.0,0.0015
2138.0,0.0014
2137.0,0.0014
2136.0,0.0015
2135.0,0.0015
2134.0,0.0016
2133.0,0.0016
2132.0,0.0015
2131.0,0.0015
2130.0,0.0015
2129.0,0.0015
2128.0,0.0015
2127.0,0.0015
2126.0,0.0015
2125.0,0.0015
2124.0,0.0015
2123.0,0.0015
2122.0,0.0014
2121.0,0.0015
2120.0,0.0015
2119.0,0.0015
2118.0,0.0015
2117.0,0.0015
2116.0,0.0015
2115.0,0.0015
2114.0,0.0015
2113.0,0.0015
2112.0,0.0016
2111.0,0.0016
2110.0,0.0015
2109.0,0.0015
2108.0,0.0015
2107.0,0.0015
2106.0,0.0015
2105.0,0.0016
2104.0,0.0017
2103.0,0.0016
2102.0,0.0016
2101.0,0.0016
2100.0,0.0016
2099.0,0.0016
2098.0,0.0017
2097.0,0.0017
2096.0,0.0017
2095.0,0.0017
2094.0,0.0017
2093.0,0.0017
2092.0,0.0016
2091.0,0.0016
2090.0,0.0016
2089.0,0.0016
2088.0,0.0016
2087.0,0.0016
2086.0,0.0016
2085.0,0.0016
2084.0,0.0016
2083.0,0.0016
2082.0,0.0016
2081.0,0.0016
2080.0,0.0015
2079.0,0.0015
2078.0,0.0015
2077.0,0.0015
2076.0,0.0015
2075.0,0.0015
2074.0,0.0016
2073.0,0.0016
2072.0,0.0017
2071.0,0.0017
2070.0,0.0017
2069.0,0.0017
2068.0,0.0017
2067.0,0.0016
2066.0,0.0016
2065.0,0.0017
2064.0,0.0017
2063.0,0.0016
2062.0,0.0016
2061.0,0.0015
2060.0,0.0015
2059.0,0.0016
2058.0,0.0016
2057.0,0.0017
2056.0,0.0017
2055.0,0.0017
2054.0,0.0017
2053.0,0.0017
2052.0,0.0017
2051.0,0.0017
2050.0,0.0017
2049.0,0.0016
2048.0,0.0016
2047.0,0.0016
2046.0,0.0017
2045.0,0.0017
2044.0,0.0017
2043.0,0.0017
2042.0,0.0017
2041.0,0.0017
2040.0,0.0017
2039.0,0.0017
2038.0,0.0016
2037.0,0.0016
2036.0,0.0016
2035.0,0.0017
2034.0,0.0017
2033.0,0.0018
2032.0,0.0018
2031.0,0.0018
2030.0,0.0018
2029.0,0.0017
2028.0,0.0017
2027.0,0.0017
2026.0,0.0017
2025.0,0.0017
2024.0,0.0017
2023.0,0.0017
2022.0,0.0017
2021.0,0.0017
2020.0,0.0017
2019.0,0.0017
2018.0,0.0017
2017.0,0.0017
2016.0,0.0017
2015.0,0.0017
2014.0,0.0018
2013.0,0.0018
2012.0,0.0017
2011.0,0.0017
2010.0,0.0017
2009.0,0.0017
2008.0,0.0017
2007.0,0.0017
2006.0,0.0017
2005.0,0.0017
2004.0,0.0017
2003.0,0.0017
2002.0,0.0017
2001.0,0.0017
2000.0,0.0017
1999.0,0.0017
1998.0,0.0018
1997.0,0.0018
1996.0,0.0019
1995.0,0.0019
1994.0,0.0019
1993.0,0.0019
1992.0,0.0019
1991.0,0.0019
1990.0,0.0019
1989.0,0.0019
1988.0,0.0018
1987.0,0.0018
1986.0,0.0018
1985.0,0.0018
1984.0,0.0019
1983.0,0.0019
1982.0,0.0019
1981.0,0.0019
1980.0,0.0019
1979.0,0.0018
1978.0,0.0018
1977.0,0.0018
1976.0,0.0018
1975.0,0.0018
1974.0,0.0018
1973.0,0.0018
1972.0,0.0018
1971.0,0.0019
1970.0,0.0019
1969.0,0.0019
1968.0,0.0019
1967.0,0.0019
1966.0,0.0018
1965.0,0.0018
1964.0,0.0018
1963.0,0.0018
1962.0,0.0018
1961.0,0.0019
1960.0,0.0019
1959.0,0.0019
1958.0,0.0019
1957.0,0.0019
1956.0,0.0019
1955.0,0.0019
1954.0,0.002
1953.0,0.0019
1952.0,0.0019
1951.0,0.0019
1950.0,0.002
1949.0,0.002
1948.0,0.002
1947.0,0.002
1946.0,0.002
1945.0,0.002
1944.0,0.002
1943.0,0.0019
1942.0,0.0019
1941.0,0.0019
1940.0,0.0019
1939.0,0.0019
1938.0,0.002
1937.0,0.002
1936.0,0.002
1935.0,0.0019
1934.0,0.0019
1933.0,0.0019
1932.0,0.002
1931.0,0.002
1930.0,0.002
1929.0,0.002
1928.0,0.0021
1927.0,0.002
1926.0,0.002
1925.0,0.002
1924.0,0.002
1923.0,0.0019
1922.0,0.0019
1921.0,0.0019
1920.0,0.0019
1919.0,0.0019
1918.0,0.0019
1917.0,0.0019
1916.0,0.0019
1915.0,0.0019
1914.0,0.0019
1913.0,0.0019
1912.0,0.0019
1911.0,0.0018
1910.0,0.0018
1909.0,0.0018
1908.0,0.0018
1907.0,0.0019
1906.0,0.0019
1905.0,0.0019
1904.0,0.0019
1903.0,0.0019
1902.0,0.0019
1901.0,0.0019
1900.0,0.0019
1899.0,0.0019
1898.0,0.0019
1897.0,0.0019
1896.0,0.0019
1895.0,0.0019
1894.0,0.0019
1893.0,0.0018
1892.0,0.0018
1891.0,0.0018
1890.0,0.0018
1889.0,0.0018
1888.0,0.0017
1887.0,0.0018
1886.0,0.0018
1885.0,0.0019
1884.0,0.0019
1883.0,0.002
1882.0,0.002
1881.0,0.0019
1880.0,0.0019
1879.0,0.0018
1878.0,0.0018
1877.0,0.0018
1876.0,0.0018
1875.0,0.0017
1874.0,0.0017
1873.0,0.0017
1872.0,0.0017
1871.0,0.0017
1870.0,0.0017
1869.0,0.0017
1868.0,0.0016
1867.0,0.0016
1866.0,0.0017
1865.0,0.0017
1864.0,0.0017
1863.0,0.0017
1862.0,0.0017
1861.0,0.0018
1860.0,0.0018
1859.0,0.0018
1858.0,0.0019
1857.0,0.0019
1856.0,0.0018
1855.0,0.0018
1854.0,0.0017
1853.0,0.0017
1852.0,0.0017
1851.0,0.0017
1850.0,0.0017
1849.0,0.0017
1848.0,0.0017
1847.0,0.0017
1846.0,0.0017
1845.0,0.0017
1844.0,0.0017
1843.0,0.0016
1842.0,0.0016
1841.0,0.0017
1840.0,0.0017
1839.0,0.0017
1838.0,0.0017
1837.0,0.0017
1836.0,0.0017
1835.0,0.0017
1834.0,0.0017
1833.0,0.0017
1832.0,0.0017
1831.0,0.0017
1830.0,0.0017
1829.0,0.0017
1828.0,0.0017
1827.0,0.0017
1826.0,0.0017
1825.0,0.0017
1824.0,0.0016
1823.0,0.0016
1822.0,0.0016
1821.0,0.0015
1820.0,0.0016
1819.0,0.0016
1818.0,0.0016
1817.0,0.0016
1816.0,0.0016
1815.0,0.0016
1814.0,0.0016
1813.0,0.0015
1812.0,0.0015
1811.0,0.0014
1810.0,0.0014
1809.0,0.0014
1808.0,0.0014
1807.0,0.0014
1806.0,0.0014
1805.0,0.0014
1804.0,0.0014
1803.0,0.0014
1802.0,0.0014
1801.0,0.0014
1800.0,0.0013
1799.0,0.0012
1798.0,0.0011
1797.0,0.0011
1796.0,0.0011
1795.0,0.001
1794.0,0.001
1793.0,0.001
1792.0,0.001
1791.0,0.0009
1790.0,0.0009
1789.0,0.0009
1788.0,0.0009
1787.0,0.0009
1786.0,0.0009
1785.0,0.0009
1784.0,0.0008
1783.0,0.0007
1782.0,0.0007
1781.0,0.0006
1780.0,0.0006
1779.0,0.0005
1778.0,0.0005
1777.0,0.0005
1776.0,0.0005
1775.0,0.0004
1774.0,0.0004
1773.0,0.0003
1772.0,0.0002
1771.0,0.0001
1770.0,0.0001
1769.0,0.0002
1768.0,0.0002
1767.0,0.0002
1766.0,0.0002
1765.0,0.0001
1764.0,0.0001
1763.0,0.0001
1762.0,0.0001
1761.0,0.0002
1760.0,0.0002
1759.0,0.0002
1758.0,0.0003
1757.0,0.0004
1756.0,0.0004
1755.0,0.0004
1754.0,0.0005
1753.0,0.0006
1752.0,0.0007
1751.0,0.0008
1750.0,0.001
1749.0,0.0012
1748.0,0.0014
1747.0,0.0018
1746.0,0.0022
1745.0,0.0028
1744.0,0.0034
1743.0,0.0041
1742.0,0.0048
1741.0,0.0057
1740.0,0.0068
1739.0,0.0079
1738.0,0.0088
1737.0,0.0095
1736.0,0.0104
1735.0,0.0117
1734.0,0.0133
1733.0,0.0144
1732.0,0.015
1731.0,0.0157
1730.0,0.0165
1729.0,0.0172
1728.0,0.0179
1727.0,0.0184
1726.0,0.0189
1725.0,0.0194
1724.0,0.02
1723.0,0.0205
1722.0,0.021
1721.0,0.0213
1720.0,0.0215
1719.0,0.0219
1718.0,0.0225
1717.0,0.0231
1716.0,0.0235
1715.0,0.0237
1714.0,0.0239
1713.0,0.0239
1712.0,0.0236
1711.0,0.0233
1710.0,0.0229
1709.0,0.0223
1708.0,0.0216
1707.0,0.0208
1706.0,0.0198
1705.0,0.019
1704.0,0.0184
1703.0,0.0179
1702.0,0.0175
1701.0,0.0169
1700.0,0.0161
1699.0,0.0154
1698.0,0.0149
1697.0,0.0144
1696.0,0.0139
1695.0,0.0135
1694.0,0.0131
1693.0,0.0128
1692.0,0.0125
1691.0,0.0122
1690.0,0.012
1689.0,0.0118
1688.0,0.0116
1687.0,0.0115
1686.0,0.0113
1685.0,0.0112
1684.0,0.011
1683.0,0.0108
1682.0,0.0106
1681.0,0.0105
1680.0,0.0104
1679.0,0.0102
1678.0,0.0101
1677.0,0.0101
1676.0,0.01
1675.0,0.0099
1674.0,0.0097
1673.0,0.0094
1672.0,0.0092
1671.0,0.0091
1670.0,0.009
1669.0,0.009
1668.0,0.0089
1667.0,0.0088
1666.0,0.0087
1665.0,0.0086
1664.0,0.0085
1663.0,0.0084
1662.0,0.0083
1661.0,0.0083
1660.0,0.0082
1659.0,0.0081
1658.0,0.008
1657.0,0.0079
1656.0,0.0078
1655.0,0.0077
1654.0,0.0077
1653.0,0.0076
1652.0,0.0075
1651.0,0.0074
1650.0,0.0073
1649.0,0.0072
1648.0,0.0071
1647.0,0.0071
1646.0,0.0071
1645.0,0.0071
1644.0,0.0071
1643.0,0.0071
1642.0,0.0071
1641.0,0.0071
1640.0,0.007
1639.0,0.0069
1638.0,0.0067
1637.0,0.0065
1636.0,0.0065
1635.0,0.0066
1634.0,0.0067
1633.0,0.0068
1632.0,0.0068
1631.0,0.0068
1630.0,0.0067
1629.0,0.0065
1628.0,0.0064
1627.0,0.0064
1626.0,0.0064
1625.0,0.0064
1624.0,0.0065
1623.0,0.0065
1622.0,0.0064
1621.0,0.0063
1620.0,0.0062
1619.0,0.0062
1618.0,0.0062
1617.0,0.0064
1616.0,0.0065
1615.0,0.0065
1614.0,0.0066
1613.0,0.0066
1612.0,0.0066
1611.0,0.0065
1610.0,0.0064
1609.0,0.0063
1608.0,0.0063
1607.0,0.0062
1606.0,0.0062
1605.0,0.0063
1604.0,0.0062
1603.0,0.0062
1602.0,0.0061
1601.0,0.0061
1600.0,0.0061
1599.0,0.006
1598.0,0.0059
1597.0,0.0058
1596.0,0.0058
1595.0,0.0057
1594.0,0.0057
1593.0,0.0056
1592.0,0.0056
1591.0,0.0056
1590.0,0.0056
1589.0,0.0056
1588.0,0.0056
1587.0,0.0056
1586.0,0.0056
1585.0,0.0057
1584.0,0.0058
1583.0,0.006
1582.0,0.0062
1581.0,0.0063
1580.0,0.0064
1579.0,0.0064
1578.0,0.0064
1577.0,0.0064
1576.0,0.0064
1575.0,0.0063
1574.0,0.0063
1573.0,0.0063
1572.0,0.0062
1571.0,0.0062
1570.0,0.0061
1569.0,0.006
1568.0,0.006
1567.0,0.0059
1566.0,0.0059
1565.0,0.0058
1564.0,0.0057
1563.0,0.0056
1562.0,0.0055
1561.0,0.0055
1560.0,0.0055
1559.0,0.0055
1558.0,0.0055
1557.0,0.0055
1556.0,0.0055
1555.0,0.0055
1554.0,0.0054
1553.0,0.0054
1552.0,0.0053
1551.0,0.0053
1550.0,0.0053
1549.0,0.0053
1548.0,0.0052
1547.0,0.0052
1546.0,0.0051
1545.0,0.0051
1544.0,0.0051
1543.0,0.0051
1542.0,0.005
1541.0,0.005
1540.0,0.005
1539.0,0.0049
1538.0,0.0048
1537.0,0.0047
1536.0,0.0047
1535.0,0.0047
1534.0,0.0048
1533.0,0.0049
1532.0,0.0049
1531.0,0.005
1530.0,0.005
1529.0,0.005
1528.0,0.005
1527.0,0.005
1526.0,0.005
1525.0,0.005
1524.0,0.005
1523.0,0.0049
1522.0,0.0049
1521.0,0.0049
1520.0,0.0048
1519.0,0.0048
1518.0,0.0048
1517.0,0.0047
1516.0,0.0047
1515.0,0.0047
1514.0,0.0048
1513.0,0.0048
1512.0,0.0049
1511.0,0.0049
1510.0,0.0048
1509.0,0.0049
1508.0,0.0052
1507.0,0.0059
1506.0,0.0066
1505.0,0.0068
1504.0,0.0068
1503.0,0.0066
1502.0,0.0064
1501.0,0.0061
1500.0,0.0059
1499.0,0.0056
1498.0,0.0053
1497.0,0.0051
1496.0,0.005
1495.0,0.0049
1494.0,0.0048
1493.0,0.0048
1492.0,0.0047
1491.0,0.0047
1490.0,0.0045
1489.0,0.0044
1488.0,0.0043
1487.0,0.0043
1486.0,0.0043
1485.0,0.0043
1484.0,0.0043
1483.0,0.0043
1482.0,0.0043
1481.0,0.0043
1480.0,0.0043
1479.0,0.0043
1478.0,0.0043
1477.0,0.0042
1476.0,0.0042
1475.0,0.0042
1474.0,0.0042
1473.0,0.0042
1472.0,0.0043
1471.0,0.0043
1470.0,0.0042
1469.0,0.0042
1468.0,0.0043
1467.0,0.0044
1466.0,0.0045
1465.0,0.0047
1464.0,0.0049
1463.0,0.005
1462.0,0.0051
1461.0,0.0053
1460.0,0.0054
1459.0,0.0056
1458.0,0.0059
1457.0,0.0064
1456.0,0.0067
1455.0,0.0068
1454.0,0.0068
1453.0,0.0069
1452.0,0.0069
1451.0,0.0069
1450.0,0.0069
1449.0,0.0069
1448.0,0.0069
1447.0,0.0069
1446.0,0.0068
1445.0,0.0068
1444.0,0.0068
1443.0,0.0068
1442.0,0.0068
1441.0,0.0068
1440.0,0.0068
1439.0,0.0068
1438.0,0.0068
1437.0,0.0067
1436.0,0.0065
1435.0,0.0061
1434.0,0.0058
1433.0,0.0056
1432.0,0.0053
1431.0,0.0051
1430.0,0.0048
1429.0,0.0046
1428.0,0.0044
1427.0,0.0043
1426.0,0.0041
1425.0,0.004
1424.0,0.0038
1423.0,0.0036
1422.0,0.0035
1421.0,0.0035
1420.0,0.0036
1419.0,0.0039
1418.0,0.0043
1417.0,0.0048
1416.0,0.0054
1415.0,0.0063
1414.0,0.0075
1413.0,0.0089
1412.0,0.0104
1411.0,0.0119
1410.0,0.0129
1409.0,0.0135
1408.0,0.0137
1407.0,0.0134
1406.0,0.0127
1405.0,0.0119
1404.0,0.0112
1403.0,0.0106
1402.0,0.0101
1401.0,0.0097
1400.0,0.0093
1399.0,0.0089
1398.0,0.0085
1397.0,0.0082
1396.0,0.0079
1395.0,0.0076
1394.0,0.0074
1393.0,0.0071
1392.0,0.0069
1391.0,0.0067
1390.0,0.0065
1389.0,0.0063
1388.0,0.0061
1387.0,0.0059
1386.0,0.0058
1385.0,0.0057
1384.0,0.0056
1383.0,0.0057
1382.0,0.0057
1381.0,0.0058
1380.0,0.006
1379.0,0.0061
1378.0,0.0063
1377.0,0.0065
1376.0,0.0067
1375.0,0.007
1374.0,0.0073
1373.0,0.0075
1372.0,0.0078
1371.0,0.0079
1370.0,0.008
1369.0,0.0079
1368.0,0.0078
1367.0,0.0075
1366.0,0.0071
1365.0,0.0068
1364.0,0.0063
1363.0,0.0058
1362.0,0.0053
1361.0,0.0049
1360.0,0.0046
1359.0,0.0043
1358.0,0.004
1357.0,0.0038
1356.0,0.0036
1355.0,0.0034
1354.0,0.0033
1353.0,0.0032
1352.0,0.0032
1351.0,0.0032
1350.0,0.0033
1349.0,0.0033
1348.0,0.0035
1347.0,0.0036
1346.0,0.0039
1345.0,0.0041
1344.0,0.0044
1343.0,0.0046
1342.0,0.0048
1341.0,0.0049
1340.0,0.005
1339.0,0.0049
1338.0,0.0048
1337.0,0.0045
1336.0,0.0042
1335.0,0.0038
1334.0,0.0035
1333.0,0.0032
1332.0,0.003
1331.0,0.0029
1330.0,0.0029
1329.0,0.0028
1328.0,0.0029
1327.0,0.003
1326.0,0.0031
1325.0,0.0033
1324.0,0.0035
1323.0,0.0038
1322.0,0.0041
1321.0,0.0044
1320.0,0.0047
1319.0,0.005
1318.0,0.0053
1317.0,0.0056
1316.0,0.0058
1315.0,0.0061
1314.0,0.0064
1313.0,0.0068
1312.0,0.0072
1311.0,0.0077
1310.0,0.0082
1309.0,0.0086
1308.0,0.0091
1307.0,0.0096
1306.0,0.0101
1305.0,0.0107
1304.0,0.0112
1303.0,0.0119
1302.0,0.0127
1301.0,0.0136
1300.0,0.0147
1299.0,0.0159
1298.0,0.0171
1297.0,0.0183
1296.0,0.0195
1295.0,0.0207
1294.0,0.0219
1293.0,0.023
1292.0,0.024
1291.0,0.025
1290.0,0.0259
1289.0,0.0267
1288.0,0.0275
1287.0,0.0281
1286.0,0.0286
1285.0,0.0291
1284.0,0.0295
1283.0,0.0298
1282.0,0.0301
1281.0,0.0303
1280.0,0.0306
1279.0,0.0308
1278.0,0.0311
1277.0,0.0314
1276.0,0.0319
1275.0,0.0325
1274.0,0.0332
1273.0,0.0341
1272.0,0.0351
1271.0,0.0362
1270.0,0.0373
1269.0,0.0384
1268.0,0.0395
1267.0,0.0405
1266.0,0.0415
1265.0,0.0423
1264.0,0.043
1263.0,0.0436
1262.0,0.0441
1261.0,0.0445
1260.0,0.0448
1259.0,0.045
1258.0,0.0451
1257.0,0.0452
1256.0,0.0452
1255.0,0.0454
1254.0,0.0455
1253.0,0.0458
1252.0,0.0461
1251.0,0.0466
1250.0,0.0471
1249.0,0.0477
1248.0,0.0484
1247.0,0.0491
1246.0,0.0498
1245.0,0.0506
1244.0,0.0515
1243.0,0.0523
1242.0,0.0531
1241.0,0.0538
1240.0,0.0544
1239.0,0.0549
1238.0,0.055
1237.0,0.055
1236.0,0.0548
1235.0,0.0543
1234.0,0.0535
1233.0,0.0525
1232.0,0.0514
1231.0,0.0502
1230.0,0.0489
1229.0,0.0476
1228.0,0.0463
1227.0,0.0451
1226.0,0.0439
1225.0,0.0427
1224.0,0.0415
1223.0,0.0404
1222.0,0.0393
1221.0,0.0382
1220.0,0.0372
1219.0,0.0363
1218.0,0.0353
1217.0,0.0344
1216.0,0.0336
1215.0,0.0328
1214.0,0.032
1213.0,0.0312
1212.0,0.0305
1211.0,0.0299
1210.0,0.0293
1209.0,0.0287
1208.0,0.0282
1207.0,0.0276
1206.0,0.0271
1205.0,0.0267
1204.0,0.0262
1203.0,0.0258
1202.0,0.0254
1201.0,0.025
1200.0,0.0247
1199.0,0.0243
1198.0,0.0239
1197.0,0.0235
1196.0,0.0232
1195.0,0.0229
1194.0,0.0225
1193.0,0.0222
1192.0,0.0218
1191.0,0.0215
1190.0,0.0211
1189.0,0.0208
1188.0,0.0205
1187.0,0.0202
1186.0,0.02
1185.0,0.0198
1184.0,0.0198
1183.0,0.0197
1182.0,0.0198
1181.0,0.0198
1180.0,0.0199
1179.0,0.02
1178.0,0.0201
1177.0,0.0202
1176.0,0.0203
1175.0,0.0204
1174.0,0.0204
1173.0,0.0203
1172.0,0.0202
1171.0,0.0199
1170.0,0.0195
1169.0,0.019
1168.0,0.0185
1167.0,0.0181
1166.0,0.0176
1165.0,0.0173
1164.0,0.0169
1163.0,0.0166
1162.0,0.0163
1161.0,0.016
1160.0,0.0158
1159.0,0.0155
1158.0,0.0153
1157.0,0.0152
1156.0,0.0151
1155.0,0.015
1154.0,0.0151
1153.0,0.0152
1152.0,0.0154
1151.0,0.0157
1150.0,0.0162
1149.0,0.0167
1148.0,0.0173
1147.0,0.0181
1146.0,0.0189
1145.0,0.0198
1144.0,0.0207
1143.0,0.0217
1142.0,0.0226
1141.0,0.0235
1140.0,0.0244
1139.0,0.0251
1138.0,0.0258
1137.0,0.0265
1136.0,0.0271
1135.0,0.0279
1134.0,0.0286
1133.0,0.0293
1132.0,0.03
1131.0,0.0307
1130.0,0.0314
1129.0,0.0322
1128.0,0.0332
1127.0,0.0342
1126.0,0.0354
1125.0,0.0368
1124.0,0.0381
1123.0,0.0395
1122.0,0.0408
1121.0,0.0419
1120.0,0.0429
1119.0,0.0436
1118.0,0.044
1117.0,0.0441
1116.0,0.044
1115.0,0.0436
1114.0,0.043
1113.0,0.0425
1112.0,0.0422
1111.0,0.0422
1110.0,0.0425
1109.0,0.0434
1108.0,0.0446
1107.0,0.0461
1106.0,0.0478
1105.0,0.0497
1104.0,0.0518
1103.0,0.0539
1102.0,0.0559
1101.0,0.0579
1100.0,0.0597
1099.0,0.0614
1098.0,0.0628
1097.0,0.0641
1096.0,0.0653
1095.0,0.0662
1094.0,0.0669
1093.0,0.0674
1092.0,0.0676
1091.0,0.0677
1090.0,0.0674
1089.0,0.067
1088.0,0.0665
1087.0,0.0659
1086.0,0.0652
1085.0,0.0645
1084.0,0.0637
1083.0,0.0628
1082.0,0.0616
1081.0,0.0604
1080.0,0.0592
1079.0,0.0579
1078.0,0.0565
1077.0,0.0551
1076.0,0.0536
1075.0,0.0521
1074.0,0.0506
1073.0,0.0492
1072.0,0.0479
1071.0,0.0465
1070.0,0.0452
1069.0,0.0439
1068.0,0.0427
1067.0,0.0415
1066.0,0.0405
1065.0,0.0395
1064.0,0.0386
1063.0,0.0376
1062.0,0.0367
1061.0,0.0359
1060.0,0.0351
1059.0,0.0345
1058.0,0.034
1057.0,0.0335
1056.0,0.0332
1055.0,0.033
1054.0,0.0329
1053.0,0.033
1052.0,0.0332
1051.0,0.0334
1050.0,0.0336
1049.0,0.034
1048.0,0.0344
1047.0,0.0348
1046.0,0.0352
1045.0,0.0356
1044.0,0.0361
1043.0,0.0364
1042.0,0.0367
1041.0,0.0369
1040.0,0.037
1039.0,0.0369
1038.0,0.0367
1037.0,0.0364
1036.0,0.0362
1035.0,0.0359
1034.0,0.0356
1033.0,0.0353
1032.0,0.0349
1031.0,0.0346
1030.0,0.0342
1029.0,0.0338
1028.0,0.0334
1027.0,0.0331
1026.0,0.0327
1025.0,0.0326
1024.0,0.0328
1023.0,0.0337
1022.0,0.0353
1021.0,0.0379
1020.0,0.0412
1019.0,0.0449
1018.0,0.0484
1017.0,0.0512
1016.0,0.0526
1015.0,0.0526
1014.0,0.0512
1013.0,0.0491
1012.0,0.0468
1011.0,0.0447
1010.0,0.0428
1009.0,0.0413
1008.0,0.0399
1007.0,0.0387
1006.0,0.0376
1005.0,0.0367
1004.0,0.036
1003.0,0.0354
1002.0,0.0348
1001.0,0.0342
1000.0,0.0337
999.0,0.0333
998.0,0.0329
997.0,0.0325
996.0,0.0321
995.0,0.0318
994.0,0.0315
993.0,0.0312
992.0,0.031
991.0,0.0308
990.0,0.0306
989.0,0.0304
988.0,0.0303
987.0,0.0301
986.0,0.03
985.0,0.0298
984.0,0.0298
983.0,0.0297
982.0,0.0296
981.0,0.0295
980.0,0.0294
979.0,0.0294
978.0,0.0293
977.0,0.0293
976.0,0.0293
975.0,0.0293
974.0,0.0292
973.0,0.0292
972.0,0.0291
971.0,0.0291
970.0,0.029
969.0,0.029
968.0,0.0289
967.0,0.0287
966.0,0.0285
965.0,0.0283
964.0,0.0281
963.0,0.0279
962.0,0.0276
961.0,0.0274
960.0,0.0272
959.0,0.027
958.0,0.0269
957.0,0.0268
956.0,0.0266
955.0,0.0264
954.0,0.0262
953.0,0.026
952.0,0.0259
951.0,0.0258
950.0,0.0257
949.0,0.0256
948.0,0.0255
947.0,0.0255
946.0,0.0253
945.0,0.0252
944.0,0.0251
943.0,0.0251
942.0,0.025
941.0,0.025
940.0,0.0251
939.0,0.0251
938.0,0.025
937.0,0.0249
936.0,0.0248
935.0,0.0247
934.0,0.0246
933.0,0.0245
932.0,0.0244
931.0,0.0243
930.0,0.0243
929.0,0.0242
928.0,0.0241
927.0,0.024
926.0,0.0238
925.0,0.0237
924.0,0.0236
923.0,0.0235
922.0,0.0234
921.0,0.0232
920.0,0.023
919.0,0.0229
918.0,0.0228
917.0,0.0228
916.0,0.0228
915.0,0.0228
914.0,0.0228
913.0,0.0228
912.0,0.0229
911.0,0.023
910.0,0.0232
909.0,0.0234
908.0,0.0237
907.0,0.0241
906.0,0.0246
905.0,0.0251
904.0,0.0257
903.0,0.0263
902.0,0.0268
901.0,0.0273
900.0,0.0278
899.0,0.0282
898.0,0.0284
897.0,0.0286
896.0,0.0287
895.0,0.0288
894.0,0.0289
893.0,0.0289
892.0,0.0289
891.0,0.0289
890.0,0.0289
889.0,0.029
888.0,0.0291
887.0,0.0293
886.0,0.0296
885.0,0.0299
884.0,0.0303
883.0,0.0307
882.0,0.0312
881.0,0.032
880.0,0.033
879.0,0.0342
878.0,0.0354
877.0,0.0369
876.0,0.0384
875.0,0.0398
874.0,0.041
873.0,0.0418
872.0,0.0422
871.0,0.042
870.0,0.0414
869.0,0.0405
868.0,0.0393
867.0,0.038
866.0,0.0368
865.0,0.0358
864.0,0.0349
863.0,0.0342
862.0,0.0335
861.0,0.0329
860.0,0.0324
859.0,0.0321
858.0,0.0318
857.0,0.0316
856.0,0.0315
855.0,0.0315
854.0,0.0314
853.0,0.0314
852.0,0.0313
851.0,0.0312
850.0,0.0312
849.0,0.0312
848.0,0.0312
847.0,0.0313
846.0,0.0314
845.0,0.0315
844.0,0.0316
843.0,0.0316
842.0,0.0316
841.0,0.0316
840.0,0.0315
839.0,0.0315
838.0,0.0315
837.0,0.0316
836.0,0.0316
835.0,0.0315
834.0,0.0312
833.0,0.031
832.0,0.0307
831.0,0.0305
830.0,0.0303
829.0,0.0302
828.0,0.0301
827.0,0.03
826.0,0.0299
825.0,0.0297
824.0,0.0296
823.0,0.0295
822.0,0.0294
821.0,0.0294
820.0,0.0294
819.0,0.0294
818.0,0.0293
817.0,0.0292
816.0,0.0291
815.0,0.029
814.0,0.0289
813.0,0.0288
812.0,0.0288
811.0,0.0289
810.0,0.029
809.0,0.0292
808.0,0.0293
807.0,0.0293
806.0,0.0292
805.0,0.0289
804.0,0.0287
803.0,0.0285
802.0,0.0284
801.0,0.0283
800.0,0.0283
799.0,0.0284
798.0,0.0287
797.0,0.0293
796.0,0.0302
795.0,0.0311
794.0,0.0319
793.0,0.0324
792.0,0.0325
791.0,0.0323
790.0,0.0318
789.0,0.0312
788.0,0.0304
787.0,0.0297
786.0,0.0289
785.0,0.0283
784.0,0.0278
783.0,0.0273
782.0,0.0269
781.0,0.0265
780.0,0.0262
779.0,0.026
778.0,0.0258
777.0,0.0256
776.0,0.0252
775.0,0.0247
774.0,0.0243
773.0,0.0239
772.0,0.0237
771.0,0.0236
770.0,0.0234
769.0,0.0232
768.0,0.0229
767.0,0.0225
766.0,0.0219
765.0,0.0215
764.0,0.021
763.0,0.0206
762.0,0.0202
761.0,0.0197
760.0,0.0193
759.0,0.0189
758.0,0.0185
757.0,0.018
756.0,0.0176
755.0,0.0172
754.0,0.0166
753.0,0.016
752.0,0.0153
751.0,0.0145
750.0,0.0138
749.0,0.0132
748.0,0.0127
747.0,0.0122
746.0,0.0119
745.0,0.0119
744.0,0.0126
743.0,0.0141
742.0,0.0163
741.0,0.0196
740.0,0.024
739.0,0.0296
738.0,0.036
737.0,0.0432
736.0,0.0507
735.0,0.0584
734.0,0.0662
733.0,0.0741
732.0,0.0822
731.0,0.0904
730.0,0.0986
729.0,0.1067
728.0,0.1147
727.0,0.1219
726.0,0.1277
725.0,0.1316
724.0,0.1327
723.0,0.1305
722.0,0.1252
721.0,0.1176
720.0,0.109
719.0,0.1007
718.0,0.0934
717.0,0.0872
716.0,0.0821
715.0,0.0779
714.0,0.0745
713.0,0.0716
712.0,0.0693
711.0,0.0672
710.0,0.0654
709.0,0.0638
708.0,0.0625
707.0,0.0614
706.0,0.0603
705.0,0.0594
704.0,0.0584
703.0,0.0575
702.0,0.0563
701.0,0.055
700.0,0.0536
699.0,0.0521
698.0,0.0505
697.0,0.0491
696.0,0.0482
695.0,0.0475
694.0,0.0467
693.0,0.0458
692.0,0.0453
691.0,0.0456
690.0,0.0463
689.0,0.0468
688.0,0.0468
687.0,0.0466
686.0,0.0465
685.0,0.0467
684.0,0.0467
683.0,0.0466
682.0,0.0464
681.0,0.0461
680.0,0.0457
679.0,0.0451
678.0,0.0447
677.0,0.0445
676.0,0.044
675.0,0.043
674.0,0.0416
673.0,0.0407
672.0,0.0408
671.0,0.0415
670.0,0.0421
669.0,0.0421
668.0,0.0412
667.0,0.0403
666.0,0.0399
665.0,0.0399
664.0,0.0397
663.0,0.0394
662.0,0.0389
661.0,0.0384
660.0,0.0379
659.0,0.0376
658.0,0.0374
657.0,0.0373
656.0,0.0373
655.0,0.0373
654.0,0.0373
653.0,0.0376
652.0,0.0379
651.0,0.0379
650.0,0.0376
649.0,0.0373
648.0,0.0374
647.0,0.0375
646.0,0.0373
645.0,0.037
644.0,0.0369
643.0,0.0373
642.0,0.0379
641.0,0.0384
640.0,0.0388
639.0,0.0389
638.0,0.0387
637.0,0.0384
636.0,0.0383
635.0,0.0384
634.0,0.0388
633.0,0.0395
632.0,0.0397
631.0,0.0392
630.0,0.0381
629.0,0.0371
628.0,0.0366
627.0,0.0366
626.0,0.0371
625.0,0.0378
624.0,0.0385
623.0,0.0387
622.0,0.0385
621.0,0.0382
620.0,0.0381
619.0,0.0381
618.0,0.0383
617.0,0.0387
616.0,0.0391
615.0,0.0392
614.0,0.0389
613.0,0.0387
612.0,0.0387
611.0,0.0387
610.0,0.0385
609.0,0.0382
608.0,0.038
607.0,0.0375
606.0,0.0368
605.0,0.0361
604.0,0.0357
603.0,0.0355
602.0,0.0357
601.0,0.0366
600.0,0.0378
