cm-1,A
4000.0,0.0077
3999.0,0.0077
3998.0,0.0077
3997.0,0.0077
3996.0,0.0077
3995.0,0.0077
3994.0,0.0077
3993.0,0.0077
3992.0,0.0077
3991.0,0.0077
3990.0,0.0077
3989.0,0.0077
3988.0,0.0077
3987.0,0.0077
3986.0,0.0078
3985.0,0.0079
3984.0,0.008
3983.0,0.008
3982.0,0.0079
3981.0,0.0078
3980.0,0.0078
3979.0,0.0078
3978.0,0.0078
3977.0,0.0079
3976.0,0.0079
3975.0,0.0079
3974.0,0.0079
3973.0,0.0078
3972.0,0.0078
3971.0,0.0078
3970.0,0.0078
3969.0,0.0078
3968.0,0.0078
3967.0,0.0078
3966.0,0.0079
3965.0,0.008
3964.0,0.008
3963.0,0.008
3962.0,0.008
3961.0,0.0079
3960.0,0.008
3959.0,0.008
3958.0,0.008
3957.0,0.008
3956.0,0.0079
3955.0,0.0078
3954.0,0.0077
3953.0,0.0077
3952.0,0.0077
3951.0,0.0078
3950.0,0.0078
3949.0,0.0078
3948.0,0.0078
3947.0,0.0079
3946.0,0.008
3945.0,0.0081
3944.0,0.0081
3943.0,0.008
3942.0,0.008
3941.0,0.0079
3940.0,0.008
3939.0,0.008
3938.0,0.008
3937.0,0.008
3936.0,0.008
3935.0,0.0081
3934.0,0.0082
3933.0,0.0083
3932.0,0.0083
3931.0,0.0083
3930.0,0.0082
3929.0,0.0082
3928.0,0.0082
3927.0,0.0083
3926.0,0.0083
3925.0,0.0083
3924.0,0.0083
3923.0,0.0082
3922.0,0.0082
3921.0,0.0082
3920.0,0.0082
3919.0,0.0082
3918.0,0.0083
3917.0,0.0084
3916.0,0.0083
3915.0,0.0083
3914.0,0.0083
3913.0,0.0083
3912.0,0.0083
3911.0,0.0083
3910.0,0.0082
3909.0,0.0081
3908.0,0.0081
3907.0,0.0082
3906.0,0.0083
3905.0,0.0084
3904.0,0.0084
3903.0,0.0084
3902.0,0.0082
3901.0,0.0081
3900.0,0.0081
3899.0,0.0081
3898.0,0.0082
3897.0,0.0083
3896.0,0.0083
3895.0,0.0084
3894.0,0.0085
3893.0,0.0085
3892.0,0.0085
3891.0,0.0085
3890.0,0.0085
3889.0,0.0085
3888.0,0.0085
3887.0,0.0084
3886.0,0.0083
3885.0,0.0083
3884.0,0.0083
3883.0,0.0084
3882.0,0.0084
3881.0,0.0083
3880.0,0.0083
3879.0,0.0083
3878.0,0.0083
3877.0,0.0084
3876.0,0.0084
3875.0,0.0084
3874.0,0.0084
3873.0,0.0085
3872.0,0.0085
3871.0,0.0084
3870.0,0.0083
3869.0,0.0083
3868.0,0.0084
3867.0,0.0084
3866.0,0.0084
3865.0,0.0085
3864.0,0.0086
3863.0,0.0087
3862.0,0.0087
3861.0,0.0086
3860.0,0.0086
3859.0,0.0086
3858.0,0.0086
3857.0,0.0087
3856.0,0.0088
3855.0,0.0086
3854.0,0.0085
3853.0,0.0086
3852.0,0.0086
3851.0,0.0086
3850.0,0.0085
3849.0,0.0084
3848.0,0.0084
3847.0,0.0084
3846.0,0.0084
3845.0,0.0084
3844.0,0.0084
3843.0,0.0084
3842.0,0.0085
3841.0,0.0085
3840.0,0.0085
3839.0,0.0085
3838.0,0.0085
3837.0,0.0085
3836.0,0.0084
3835.0,0.0084
3834.0,0.0084
3833.0,0.0084
3832.0,0.0084
3831.0,0.0085
3830.0,0.0085
3829.0,0.0085
3828.0,0.0085
3827.0,0.0084
3826.0,0.0084
3825.0,0.0085
3824.0,0.0086
3823.0,0.0086
3822.0,0.0085
3821.0,0.0084
3820.0,0.0084
3819.0,0.0085
3818.0,0.0086
3817.0,0.0086
3816.0,0.0086
3815.0,0.0086
3814.0,0.0087
3813.0,0.0086
3812.0,0.0086
3811.0,0.0085
3810.0,0.0086
3809.0,0.0086
3808.0,0.0085
3807.0,0.0084
3806.0,0.0084
3805.0,0.0085
3804.0,0.0087
3803.0,0.0087
3802.0,0.0086
3801.0,0.0086
3800.0,0.0087
3799.0,0.0087
3798.0,0.0087
3797.0,0.0087
3796.0,0.0087
3795.0,0.0087
3794.0,0.0087
3793.0,0.0087
3792.0,0.0086
3791.0,0.0086
3790.0,0.0086
3789.0,0.0086
3788.0,0.0087
3787.0,0.0087
3786.0,0.0087
3785.0,0.0087
3784.0,0.0088
3783.0,0.0088
3782.0,0.0088
3781.0,0.0088
3780.0,0.0087
3779.0,0.0087
3778.0,0.0087
3777.0,0.0088
3776.0,0.0087
3775.0,0.0087
3774.0,0.0086
3773.0,0.0086
3772.0,0.0085
3771.0,0.0085
3770.0,0.0085
3769.0,0.0085
3768.0,0.0086
3767.0,0.0086
3766.0,0.0086
3765.0,0.0086
3764.0,0.0087
3763.0,0.0088
3762.0,0.0088
3761.0,0.0088
3760.0,0.0088
3759.0,0.0088
3758.0,0.0088
3757.0,0.0088
3756.0,0.0088
3755.0,0.0087
3754.0,0.0086
3753.0,0.0084
3752.0,0.0084
3751.0,0.0085
3750.0,0.0086
3749.0,0.0086
3748.0,0.0086
3747.0,0.0087
3746.0,0.0088
3745.0,0.0088
3744.0,0.0089
3743.0,0.009
3742.0,0.009
3741.0,0.009
3740.0,0.009
3739.0,0.0091
3738.0,0.0092
3737.0,0.0093
3736.0,0.0094
3735.0,0.0095
3734.0,0.0095
3733.0,0.0095
3732.0,0.0093
3731.0,0.0092
3730.0,0.0091
3729.0,0.0091
3728.0,0.009
3727.0,0.009
3726.0,0.009
3725.0,0.0091
3724.0,0.0091
3723.0,0.0091
3722.0,0.0092
3721.0,0.0093
3720.0,0.0093
3719.0,0.0092
3718.0,0.0091
3717.0,0.0089
3716.0,0.0088
3715.0,0.0088
3714.0,0.0088
3713.0,0.0089
3712.0,0.009
3711.0,0.0093
3710.0,0.0094
3709.0,0.0094
3708.0,0.0094
3707.0,0.0094
3706.0,0.0094
3705.0,0.0094
3704.0,0.0095
3703.0,0.0095
3702.0,0.0095
3701.0,0.0094
3700.0,0.0093
3699.0,0.0093
3698.0,0.0092
3697.0,0.0092
3696.0,0.0091
3695.0,0.0091
3694.0,0.0091
3693.0,0.0091
3692.0,0.0091
3691.0,0.0091
3690.0,0.0092
3689.0,0.0092
3688.0,0.0092
3687.0,0.0092
3686.0,0.0092
3685.0,0.0092
3684.0,0.0092
3683.0,0.0092
3682.0,0.0092
3681.0,0.0093
3680.0,0.0093
3679.0,0.0095
3678.0,0.0096
3677.0,0.0097
3676.0,0.0096
3675.0,0.0095
3674.0,0.0094
3673.0,0.0094
3672.0,0.0093
3671.0,0.0092
3670.0,0.0093
3669.0,0.0094
3668.0,0.0093
3667.0,0.0092
3666.0,0.0091
3665.0,0.0091
3664.0,0.0091
3663.0,0.0091
3662.0,0.0091
3661.0,0.0091
3660.0,0.0091
3659.0,0.0091
3658.0,0.0091
3657.0,0.0092
3656.0,0.0092
3655.0,0.0094
3654.0,0.0095
3653.0,0.0096
3652.0,0.0096
3651.0,0.0095
3650.0,0.0095
3649.0,0.0097
3648.0,0.0099
3647.0,0.0098
3646.0,0.0097
3645.0,0.0096
3644.0,0.0095
3643.0,0.0095
3642.0,0.0095
3641.0,0.0095
3640.0,0.0095
3639.0,0.0095
3638.0,0.0096
3637.0,0.0097
3636.0,0.0098
3635.0,0.0098
3634.0,0.0099
3633.0,0.0099
3632.0,0.01
3631.0,0.0099
3630.0,0.0098
3629.0,0.0098
3628.0,0.01
3627.0,0.0101
3626.0,0.0102
3625.0,0.0103
3624.0,0.0103
3623.0,0.0103
3622.0,0.0103
3621.0,0.0104
3620.0,0.0103
3619.0,0.0103
3618.0,0.0102
3617.0,0.0101
3616.0,0.0101
3615.0,0.0101
3614.0,0.0101
3613.0,0.0101
3612.0,0.0101
3611.0,0.0102
3610.0,0.0103
3609.0,0.0104
3608.0,0.0106
3607.0,0.0106
3606.0,0.0107
3605.0,0.0107
3604.0,0.0107
3603.0,0.0107
3602.0,0.0107
3601.0,0.0107
3600.0,0.0106
3599.0,0.0105
3598.0,0.0104
3597.0,0.0104
3596.0,0.0104
3595.0,0.0104
3594.0,0.0105
3593.0,0.0105
3592.0,0.0106
3591.0,0.0106
3590.0,0.0106
3589.0,0.0105
3588.0,0.0104
3587.0,0.0104
3586.0,0.0103
3585.0,0.0103
3584.0,0.0104
3583.0,0.0104
3582.0,0.0105
3581.0,0.0105
3580.0,0.0105
3579.0,0.0104
3578.0,0.0103
3577.0,0.0102
3576.0,0.0102
3575.0,0.0102
3574.0,0.0103
3573.0,0.0103
3572.0,0.0103
3571.0,0.0104
3570.0,0.0106
3569.0,0.0107
3568.0,0.0108
3567.0,0.0107
3566.0,0.0106
3565.0,0.0104
3564.0,0.0104
3563.0,0.0104
3562.0,0.0105
3561.0,0.0106
3560.0,0.0107
3559.0,0.0107
3558.0,0.0107
3557.0,0.0106
3556.0,0.0106
3555.0,0.0107
3554.0,0.0107
3553.0,0.0108
3552.0,0.0108
3551.0,0.0109
3550.0,0.0108
3549.0,0.0108
3548.0,0.0108
3547.0,0.0108
3546.0,0.0108
3545.0,0.0107
3544.0,0.0107
3543.0,0.0106
3542.0,0.0106
3541.0,0.0106
3540.0,0.0107
3539.0,0.0107
3538.0,0.0107
3537.0,0.0107
3536.0,0.0107
3535.0,0.0107
3534.0,0.0107
3533.0,0.0107
3532.0,0.0107
3531.0,0.0107
3530.0,0.0107
3529.0,0.0107
3528.0,0.0107
3527.0,0.0107
3526.0,0.0108
3525.0,0.0108
3524.0,0.0108
3523.0,0.0109
3522.0,0.0109
3521.0,0.0109
3520.0,0.0109
3519.0,0.0108
3518.0,0.0107
3517.0,0.0106
3516.0,0.0106
3515.0,0.0107
3514.0,0.0108
3513.0,0.0109
3512.0,0.0109
3511.0,0.0109
3510.0,0.0109
3509.0,0.0109
3508.0,0.0109
3507.0,0.0109
3506.0,0.0109
3505.0,0.0109
3504.0,0.011
3503.0,0.011
3502.0,0.011
3501.0,0.011
3500.0,0.011
3499.0,0.011
3498.0,0.0111
3497.0,0.0111
3496.0,0.0112
3495.0,0.0112
3494.0,0.0111
3493.0,0.0111
3492.0,0.0111
3491.0,0.0111
3490.0,0.0112
3489.0,0.0112
3488.0,0.0112
3487.0,0.0112
3486.0,0.0111
3485.0,0.011
3484.0,0.0109
3483.0,0.0109
3482.0,0.0109
3481.0,0.0109
3480.0,0.0109
3479.0,0.011
3478.0,0.0111
3477.0,0.0112
3476.0,0.0113
3475.0,0.0114
3474.0,0.0114
3473.0,0.0113
3472.0,0.0112
3471.0,0.0111
3470.0,0.0109
3469.0,0.0109
3468.0,0.0109
3467.0,0.0109
3466.0,0.011
3465.0,0.0109
3464.0,0.0109
3463.0,0.0109
3462.0,0.0109
3461.0,0.011
3460.0,0.0111
3459.0,0.0112
3458.0,0.0112
3457.0,0.0113
3456.0,0.0113
3455.0,0.0113
3454.0,0.0113
3453.0,0.0112
3452.0,0.0112
3451.0,0.0112
3450.0,0.0112
3449.0,0.0113
3448.0,0.0114
3447.0,0.0114
3446.0,0.0114
3445.0,0.0113
3444.0,0.0111
3443.0,0.0111
3442.0,0.0111
3441.0,0.0111
3440.0,0.0112
3439.0,0.0113
3438.0,0.0113
3437.0,0.0113
3436.0,0.0113
3435.0,0.0114
3434.0,0.0114
3433.0,0.0115
3432.0,0.0115
3431.0,0.0115
3430.0,0.0115
3429.0,0.0114
3428.0,0.0113
3427.0,0.0113
3426.0,0.0113
3425.0,0.0113
3424.0,0.0114
3423.0,0.0114
3422.0,0.0115
3421.0,0.0116
3420.0,0.0116
3419.0,0.0116
3418.0,0.0115
3417.0,0.0113
3416.0,0.0111
3415.0,0.0111
3414.0,0.0111
3413.0,0.0112
3412.0,0.0113
3411.0,0.0114
3410.0,0.0113
3409.0,0.0112
3408.0,0.0111
3407.0,0.0111
3406.0,0.0111
3405.0,0.0112
3404.0,0.0113
3403.0,0.0113
3402.0,0.0113
3401.0,0.0113
3400.0,0.0112
3399.0,0.0112
3398.0,0.0113
3397.0,0.0113
3396.0,0.0114
3395.0,0.0114
3394.0,0.0115
3393.0,0.0115
3392.0,0.0115
3391.0,0.0115
3390.0,0.0114
3389.0,0.0113
3388.0,0.0112
3387.0,0.0112
3386.0,0.0112
3385.0,0.0113
3384.0,0.0114
3383.0,0.0114
3382.0,0.0114
3381.0,0.0113
3380.0,0.0113
3379.0,0.0112
3378.0,0.0112
3377.0,0.0112
3376.0,0.0112
3375.0,0.0112
3374.0,0.0112
3373.0,0.0112
3372.0,0.0112
3371.0,0.0112
3370.0,0.0112
3369.0,0.0111
3368.0,0.0111
3367.0,0.011
3366.0,0.0111
3365.0,0.0111
3364.0,0.0112
3363.0,0.0112
3362.0,0.0112
3361.0,0.0112
3360.0,0.0112
3359.0,0.0112
3358.0,0.0112
3357.0,0.0113
3356.0,0.0112
3355.0,0.0112
3354.0,0.0112
3353.0,0.0112
3352.0,0.0112
3351.0,0.0112
3350.0,0.0113
3349.0,0.0112
3348.0,0.0112
3347.0,0.0112
3346.0,0.0111
3345.0,0.0111
3344.0,0.011
3343.0,0.011
3342.0,0.011
3341.0,0.011
3340.0,0.011
3339.0,0.0111
3338.0,0.0111
3337.0,0.011
3336.0,0.011
3335.0,0.0109
3334.0,0.0109
3333.0,0.0109
3332.0,0.0109
3331.0,0.011
3330.0,0.011
3329.0,0.011
3328.0,0.011
3327.0,0.0109
3326.0,0.0109
3325.0,0.0108
3324.0,0.0108
3323.0,0.0108
3322.0,0.0108
3321.0,0.0108
3320.0,0.0108
3319.0,0.0108
3318.0,0.0108
3317.0,0.0109
3316.0,0.0109
3315.0,0.011
3314.0,0.011
3313.0,0.0111
3312.0,0.0111
3311.0,0.011
3310.0,0.0109
3309.0,0.0108
3308.0,0.0108
3307.0,0.0108
3306.0,0.0108
3305.0,0.0109
3304.0,0.0109
3303.0,0.0108
3302.0,0.0108
3301.0,0.0107
3300.0,0.0107
3299.0,0.0107
3298.0,0.0107
3297.0,0.0108
3296.0,0.0108
3295.0,0.0108
3294.0,0.0108
3293.0,0.0108
3292.0,0.0107
3291.0,0.0107
3290.0,0.0106
3289.0,0.0106
3288.0,0.0107
3287.0,0.0107
3286.0,0.0108
3285.0,0.0109
3284.0,0.0109
3283.0,0.0109
3282.0,0.0109
3281.0,0.0108
3280.0,0.0106
3279.0,0.0105
3278.0,0.0105
3277.0,0.0105
3276.0,0.0105
3275.0,0.0106
3274.0,0.0105
3273.0,0.0105
3272.0,0.0105
3271.0,0.0105
3270.0,0.0105
3269.0,0.0105
3268.0,0.0104
3267.0,0.0104
3266.0,0.0104
3265.0,0.0103
3264.0,0.0103
3263.0,0.0103
3262.0,0.0103
3261.0,0.0102
3260.0,0.0102
3259.0,0.0102
3258.0,0.0103
3257.0,0.0103
3256.0,0.0103
3255.0,0.0103
3254.0,0.0104
3253.0,0.0103
3252.0,0.0102
3251.0,0.0102
3250.0,0.0102
3249.0,0.0102
3248.0,0.0102
3247.0,0.0103
3246.0,0.0103
3245.0,0.0102
3244.0,0.0102
3243.0,0.0101
3242.0,0.0101
3241.0,0.01
3240.0,0.01
3239.0,0.0099
3238.0,0.0099
3237.0,0.01
3236.0,0.01
3235.0,0.01
3234.0,0.0099
3233.0,0.0098
3232.0,0.0097
3231.0,0.0097
3230.0,0.0097
3229.0,0.0097
3228.0,0.0097
3227.0,0.0096
3226.0,0.0096
3225.0,0.0096
3224.0,0.0097
3223.0,0.0098
3222.0,0.0098
3221.0,0.0098
3220.0,0.0097
3219.0,0.0096
3218.0,0.0096
3217.0,0.0096
3216.0,0.0096
3215.0,0.0096
3214.0,0.0096
3213.0,0.0095
3212.0,0.0095
3211.0,0.0095
3210.0,0.0094
3209.0,0.0094
3208.0,0.0094
3207.0,0.0094
3206.0,0.0095
3205.0,0.0094
3204.0,0.0094
3203.0,0.0093
3202.0,0.0093
3201.0,0.0093
3200.0,0.0093
3199.0,0.0093
3198.0,0.0093
3197.0,0.0093
3196.0,0.0093
3195.0,0.0092
3194.0,0.0093
3193.0,0.0093
3192.0,0.0093
3191.0,0.0093
3190.0,0.0093
3189.0,0.0092
3188.0,0.0092
3187.0,0.0091
3186.0,0.009
3185.0,0.009
3184.0,0.0089
3183.0,0.0089
3182.0,0.0089
3181.0,0.009
3180.0,0.009
3179.0,0.009
3178.0,0.009
3177.0,0.009
3176.0,0.0091
3175.0,0.0091
3174.0,0.009
3173.0,0.0089
3172.0,0.0088
3171.0,0.0087
3170.0,0.0087
3169.0,0.0087
3168.0,0.0087
3167.0,0.0087
3166.0,0.0087
3165.0,0.0086
3164.0,0.0086
3163.0,0.0086
3162.0,0.0086
3161.0,0.0086
3160.0,0.0086
3159.0,0.0086
3158.0,0.0085
3157.0,0.0085
3156.0,0.0084
3155.0,0.0084
3154.0,0.0084
3153.0,0.0084
3152.0,0.0084
3151.0,0.0083
3150.0,0.0083
3149.0,0.0083
3148.0,0.0082
3147.0,0.0082
3146.0,0.0082
3145.0,0.0082
3144.0,0.0082
3143.0,0.0082
3142.0,0.0082
3141.0,0.0082
3140.0,0.0082
3139.0,0.0082
3138.0,0.0081
3137.0,0.0081
3136.0,0.008
3135.0,0.008
3134.0,0.008
3133.0,0.008
3132.0,0.0079
3131.0,0.0079
3130.0,0.0079
3129.0,0.0079
3128.0,0.0079
3127.0,0.0078
3126.0,0.0077
3125.0,0.0076
3124.0,0.0076
3123.0,0.0076
3122.0,0.0077
3121.0,0.0077
3120.0,0.0077
3119.0,0.0077
3118.0,0.0076
3117.0,0.0077
3116.0,0.0077
3115.0,0.0078
3114.0,0.0078
3113.0,0.0078
3112.0,0.0077
3111.0,0.0077
3110.0,0.0076
3109.0,0.0075
3108.0,0.0074
3107.0,0.0073
3106.0,0.0073
3105.0,0.0072
3104.0,0.0072
3103.0,0.0072
3102.0,0.0073
3101.0,0.0074
3100.0,0.0075
3099.0,0.0075
3098.0,0.0075
3097.0,0.0075
3096.0,0.0075
3095.0,0.0075
3094.0,0.0075
3093.0,0.0075
3092.0,0.0075
3091.0,0.0074
3090.0,0.0073
3089.0,0.0073
3088.0,0.0073
3087.0,0.0073
3086.0,0.0072
3085.0,0.0071
3084.0,0.0071
3083.0,0.007
3082.0,0.007
3081.0,0.007
3080.0,0.007
3079.0,0.0069
3078.0,0.0069
3077.0,0.0069
3076.0,0.007
3075.0,0.007
3074.0,0.0069
3073.0,0.0068
3072.0,0.0068
3071.0,0.0067
3070.0,0.0068
3069.0,0.0068
3068.0,0.0069
3067.0,0.0069
3066.0,0.0069
3065.0,0.0068
3064.0,0.0067
3063.0,0.0065
3062.0,0.0065
3061.0,0.0065
3060.0,0.0065
3059.0,0.0066
3058.0,0.0065
3057.0,0.0065
3056.0,0.0064
3055.0,0.0064
3054.0,0.0064
3053.0,0.0064
3052.0,0.0063
3051.0,0.0063
3050.0,0.0063
3049.0,0.0062
3048.0,0.0061
3047.0,0.006
3046.0,0.0059
3045.0,0.0059
3044.0,0.0058
3043.0,0.0058
3042.0,0.0058
3041.0,0.0058
3040.0,0.0058
3039.0,0.0057
3038.0,0.0057
3037.0,0.0057
3036.0,0.0058
3035.0,0.0058
3034.0,0.0057
3033.0,0.0057
3032.0,0.0056
3031.0,0.0056
3030.0,0.0056
3029.0,0.0055
3028.0,0.0054
3027.0,0.0053
3026.0,0.0052
3025.0,0.0051
3024.0,0.0051
3023.0,0.005
3022.0,0.0049
3021.0,0.0049
3020.0,0.0049
3019.0,0.0051
3018.0,0.0051
3017.0,0.0051
3016.0,0.0049
3015.0,0.0048
3014.0,0.0046
3013.0,0.0045
3012.0,0.0043
3011.0,0.0042
3010.0,0.0041
3009.0,0.0041
3008.0,0.004
3007.0,0.004
3006.0,0.004
3005.0,0.0039
3004.0,0.0037
3003.0,0.0035
3002.0,0.0034
3001.0,0.0033
3000.0,0.0033
2999.0,0.0033
2998.0,0.0033
2997.0,0.0032
2996.0,0.0031
2995.0,0.003
2994.0,0.0029
2993.0,0.0028
2992.0,0.0028
2991.0,0.0027
2990.0,0.0027
2989.0,0.0026
2988.0,0.0025
2987.0,0.0025
2986.0,0.0025
2985.0,0.0025
2984.0,0.0024
2983.0,0.0024
2982.0,0.0024
2981.0,0.0024
2980.0,0.0023
2979.0,0.0023
2978.0,0.0023
2977.0,0.0023
2976.0,0.0023
2975.0,0.0024
2974.0,0.0025
2973.0,0.0026
2972.0,0.0028
2971.0,0.003
2970.0,0.0031
2969.0,0.0033
2968.0,0.0034
2967.0,0.0035
2966.0,0.0037
2965.0,0.0039
2964.0,0.0042
2963.0,0.0045
2962.0,0.0048
2961.0,0.0051
2960.0,0.0054
2959.0,0.0057
2958.0,0.006
2957.0,0.0063
2956.0,0.0067
2955.0,0.0071
2954.0,0.0075
2953.0,0.0078
2952.0,0.0082
2951.0,0.0086
2950.0,0.0091
2949.0,0.0097
2948.0,0.0104
2947.0,0.0115
2946.0,0.0128
2945.0,0.0144
2944.0,0.0161
2943.0,0.0181
2942.0,0.0203
2941.0,0.0227
2940.0,0.0254
2939.0,0.0283
2938.0,0.0315
2937.0,0.0349
2936.0,0.0387
2935.0,0.0428
2934.0,0.0473
2933.0,0.0521
2932.0,0.0574
2931.0,0.0631
2930.0,0.0694
2929.0,0.0763
2928.0,0.084
2927.0,0.0925
2926.0,0.1022
2925.0,0.113
2924.0,0.1252
2923.0,0.1388
2922.0,0.1538
2921.0,0.1699
2920.0,0.1866
2919.0,0.2028
2918.0,0.217
2917.0,0.2272
2916.0,0.2317
2915.0,0.2301
2914.0,0.223
2913.0,0.2122
2912.0,0.1998
2911.0,0.1874
2910.0,0.1758
2909.0,0.1654
2908.0,0.1564
2907.0,0.1486
2906.0,0.1421
2905.0,0.1365
2904.0,0.1317
2903.0,0.1275
2902.0,0.1238
2901.0,0.1205
2900.0,0.1175
2899.0,0.1147
2898.0,0.112
2897.0,0.1096
2896.0,0.1071
2895.0,0.1047
2894.0,0.1022
2893.0,0.0996
2892.0,0.0971
2891.0,0.0945
2890.0,0.0919
2889.0,0.0893
2888.0,0.0866
2887.0,0.0839
2886.0,0.0812
2885.0,0.0784
2884.0,0.0756
2883.0,0.0728
2882.0,0.07
2881.0,0.0671
2880.0,0.0643
2879.0,0.0616
2878.0,0.0589
2877.0,0.0564
2876.0,0.054
2875.0,0.0519
2874.0,0.0499
2873.0,0.0482
2872.0,0.0465
2871.0,0.0451
2870.0,0.0438
2869.0,0.0428
2868.0,0.0421
2867.0,0.0417
2866.0,0.0418
2865.0,0.0422
2864.0,0.0432
2863.0,0.0447
2862.0,0.047
2861.0,0.05
2860.0,0.0541
2859.0,0.0594
2858.0,0.0661
2857.0,0.0746
2856.0,0.0852
2855.0,0.0984
2854.0,0.1146
2853.0,0.1342
2852.0,0.1567
2851.0,0.1802
2850.0,0.2011
2849.0,0.2148
2848.0,0.2182
2847.0,0.2112
2846.0,0.1968
2845.0,0.179
2844.0,0.161
2843.0,0.1446
2842.0,0.1304
2841.0,0.1183
2840.0,0.1083
2839.0,0.0999
2838.0,0.0929
2837.0,0.087
2836.0,0.082
2835.0,0.0777
2834.0,0.0741
2833.0,0.0708
2832.0,0.068
2831.0,0.0654
2830.0,0.0631
2829.0,0.061
2828.0,0.0592
2827.0,0.0575
2826.0,0.0561
2825.0,0.0546
2824.0,0.0533
2823.0,0.0521
2822.0,0.051
2821.0,0.0499
2820.0,0.0489
2819.0,0.0479
2818.0,0.047
2817.0,0.0463
2816.0,0.0456
2815.0,0.0449
2814.0,0.0443
2813.0,0.0438
2812.0,0.0432
2811.0,0.0426
2810.0,0.042
2809.0,0.0414
2808.0,0.0408
2807.0,0.0403
2806.0,0.0399
2805.0,0.0395
2804.0,0.0391
2803.0,0.0387
2802.0,0.0383
2801.0,0.0379
2800.0,0.0376
2799.0,0.0373
2798.0,0.0369
2797.0,0.0365
2796.0,0.0361
2795.0,0.0358
2794.0,0.0355
2793.0,0.0352
2792.0,0.0349
2791.0,0.0346
2790.0,0.0343
2789.0,0.034
2788.0,0.0336
2787.0,0.0332
2786.0,0.0329
2785.0,0.0327
2784.0,0.0324
2783.0,0.0321
2782.0,0.0319
2781.0,0.0316
2780.0,0.0314
2779.0,0.0311
2778.0,0.0308
2777.0,0.0306
2776.0,0.0303
2775.0,0.0302
2774.0,0.03
2773.0,0.0299
2772.0,0.0297
2771.0,0.0295
2770.0,0.0294
2769.0,0.0293
2768.0,0.0291
2767.0,0.0289
2766.0,0.0287
2765.0,0.0285
2764.0,0.0283
2763.0,0.0282
2762.0,0.0281
2761.0,0.028
2760.0,0.0279
2759.0,0.0278
2758.0,0.0277
2757.0,0.0276
2756.0,0.0275
2755.0,0.0273
2754.0,0.0272
2753.0,0.0271
2752.0,0.027
2751.0,0.027
2750.0,0.0269
2749.0,0.0268
2748.0,0.0268
2747.0,0.0267
2746.0,0.0266
2745.0,0.0265
2744.0,0.0264
2743.0,0.0263
2742.0,0.0262
2741.0,0.0262
2740.0,0.0262
2739.0,0.0261
2738.0,0.026
2737.0,0.0259
2736.0,0.0258
2735.0,0.0257
2734.0,0.0256
2733.0,0.0255
2732.0,0.0255
2731.0,0.0254
2730.0,0.0253
2729.0,0.0252
2728.0,0.0251
2727.0,0.025
2726.0,0.0249
2725.0,0.0248
2724.0,0.0248
2723.0,0.0247
2722.0,0.0247
2721.0,0.0246
2720.0,0.0245
2719.0,0.0244
2718.0,0.0243
2717.0,0.0242
2716.0,0.0242
2715.0,0.0242
2714.0,0.0241
2713.0,0.0241
2712.0,0.024
2711.0,0.024
2710.0,0.0239
2709.0,0.0239
2708.0,0.0238
2707.0,0.0238
2706.0,0.0237
2705.0,0.0236
2704.0,0.0235
2703.0,0.0234
2702.0,0.0234
2701.0,0.0233
2700.0,0.0233
2699.0,0.0233
2698.0,0.0232
2697.0,0.0232
2696.0,0.0231
2695.0,0.0231
2694.0,0.023
2693.0,0.023
2692.0,0.0229
2691.0,0.0229
2690.0,0.0229
2689.0,0.0228
2688.0,0.0228
2687.0,0.0228
2686.0,0.0228
2685.0,0.0228
2684.0,0.0227
2683.0,0.0227
2682.0,0.0226
2681.0,0.0226
2680.0,0.0226
2679.0,0.0226
2678.0,0.0226
2677.0,0.0227
2676.0,0.0227
2675.0,0.0226
2674.0,0.0226
2673.0,0.0226
2672.0,0.0226
2671.0,0.0226
2670.0,0.0226
2669.0,0.0226
2668.0,0.0227
2667.0,0.0227
2666.0,0.0227
2665.0,0.0227
2664.0,0.0227
2663.0,0.0227
2662.0,0.0227
2661.0,0.0226
2660.0,0.0226
2659.0,0.0226
2658.0,0.0226
2657.0,0.0226
2656.0,0.0226
2655.0,0.0225
2654.0,0.0225
2653.0,0.0225
2652.0,0.0225
2651.0,0.0224
2650.0,0.0224
2649.0,0.0224
2648.0,0.0223
2647.0,0.0223
2646.0,0.0223
2645.0,0.0222
2644.0,0.0222
2643.0,0.0223
2642.0,0.0223
2641.0,0.0223
2640.0,0.0223
2639.0,0.0223
2638.0,0.0223
2637.0,0.0224
2636.0,0.0224
2635.0,0.0223
2634.0,0.0223
2633.0,0.0223
2632.0,0.0222
2631.0,0.0221
2630.0,0.022
2629.0,0.022
2628.0,0.022
2627.0,0.0219
2626.0,0.0219
2625.0,0.0218
2624.0,0.0218
2623.0,0.0217
2622.0,0.0217
2621.0,0.0216
2620.0,0.0215
2619.0,0.0214
2618.0,0.0214
2617.0,0.0213
2616.0,0.0213
2615.0,0.0212
2614.0,0.0212
2613.0,0.0211
2612.0,0.0211
2611.0,0.0211
2610.0,0.0211
2609.0,0.0211
2608.0,0.021
2607.0,0.0209
2606.0,0.0209
2605.0,0.0208
2604.0,0.0207
2603.0,0.0207
2602.0,0.0206
2601.0,0.0206
2600.0,0.0206
2599.0,0.0206
2598.0,0.0207
2597.0,0.0207
2596.0,0.0207
2595.0,0.0206
2594.0,0.0205
2593.0,0.0204
2592.0,0.0203
2591.0,0.0202
2590.0,0.0201
2589.0,0.0201
2588.0,0.0201
2587.0,0.0201
2586.0,0.0201
2585.0,0.0201
2584.0,0.0201
2583.0,0.0201
2582.0,0.02
2581.0,0.02
2580.0,0.02
2579.0,0.02
2578.0,0.02
2577.0,0.02
2576.0,0.0199
2575.0,0.0199
2574.0,0.0198
2573.0,0.0197
2572.0,0.0197
2571.0,0.0197
2570.0,0.0196
2569.0,0.0196
2568.0,0.0196
2567.0,0.0195
2566.0,0.0195
2565.0,0.0195
2564.0,0.0194
2563.0,0.0194
2562.0,0.0194
2561.0,0.0194
2560.0,0.0194
2559.0,0.0194
2558.0,0.0193
2557.0,0.0193
2556.0,0.0194
2555.0,0.0194
2554.0,0.0194
2553.0,0.0194
2552.0,0.0194
2551.0,0.0193
2550.0,0.0192
2549.0,0.0192
2548.0,0.0191
2547.0,0.019
2546.0,0.019
2545.0,0.019
2544.0,0.019
2543.0,0.019
2542.0,0.0189
2541.0,0.0188
2540.0,0.0187
2539.0,0.0187
2538.0,0.0187
2537.0,0.0187
2536.0,0.0187
2535.0,0.0187
2534.0,0.0187
2533.0,0.0187
2532.0,0.0188
2531.0,0.0187
2530.0,0.0187
2529.0,0.0186
2528.0,0.0186
2527.0,0.0185
2526.0,0.0186
2525.0,0.0186
2524.0,0.0186
2523.0,0.0186
2522.0,0.0186
2521.0,0.0186
2520.0,0.0185
2519.0,0.0185
2518.0,0.0185
2517.0,0.0185
2516.0,0.0184
2515.0,0.0184
2514.0,0.0184
2513.0,0.0184
2512.0,0.0184
2511.0,0.0184
2510.0,0.0185
2509.0,0.0185
2508.0,0.0185
2507.0,0.0184
2506.0,0.0183
2505.0,0.0183
2504.0,0.0182
2503.0,0.0181
2502.0,0.0181
2501.0,0.018
2500.0,0.018
2499.0,0.0181
2498.0,0.0181
2497.0,0.0181
2496.0,0.0181
2495.0,0.0181
2494.0,0.0181
2493.0,0.0181
2492.0,0.0181
2491.0,0.018
2490.0,0.0179
2489.0,0.0179
2488.0,0.0178
2487.0,0.0178
2486.0,0.0179
2485.0,0.0179
2484.0,0.018
2483.0,0.018
2482.0,0.018
2481.0,0.018
2480.0,0.0179
2479.0,0.0179
2478.0,0.0179
2477.0,0.0179
2476.0,0.018
2475.0,0.018
2474.0,0.018
2473.0,0.0179
2472.0,0.0178
2471.0,0.0178
2470.0,0.0178
2469.0,0.0177
2468.0,0.0177
2467.0,0.0177
2466.0,0.0177
2465.0,0.0177
2464.0,0.0177
2463.0,0.0177
2462.0,0.0176
2461.0,0.0176
2460.0,0.0176
2459.0,0.0176
2458.0,0.0175
2457.0,0.0175
2456.0,0.0174
2455.0,0.0174
2454.0,0.0174
2453.0,0.0174
2452.0,0.0174
2451.0,0.0174
2450.0,0.0175
2449.0,0.0175
2448.0,0.0175
2447.0,0.0174
2446.0,0.0174
2445.0,0.0173
2444.0,0.0173
2443.0,0.0173
2442.0,0.0173
2441.0,0.0174
2440.0,0.0174
2439.0,0.0174
2438.0,0.0174
2437.0,0.0173
2436.0,0.0173
2435.0,0.0173
2434.0,0.0173
2433.0,0.0173
2432.0,0.0173
2431.0,0.0173
2430.0,0.0173
2429.0,0.0173
2428.0,0.0172
2427.0,0.0172
2426.0,0.0173
2425.0,0.0173
2424.0,0.0173
2423.0,0.0173
2422.0,0.0173
2421.0,0.0173
2420.0,0.0172
2419.0,0.0173
2418.0,0.0173
2417.0,0.0173
2416.0,0.0173
2415.0,0.0173
2414.0,0.0173
2413.0,0.0173
2412.0,0.0172
2411.0,0.0172
2410.0,0.0172
2409.0,0.0173
2408.0,0.0173
2407.0,0.0173
2406.0,0.0172
2405.0,0.0172
2404.0,0.0172
2403.0,0.0172
2402.0,0.0172
2401.0,0.0172
2400.0,0.0172
2399.0,0.0172
2398.0,0.0172
2397.0,0.0171
2396.0,0.0171
2395.0,0.0171
2394.0,0.0171
2393.0,0.0172
2392.0,0.0172
2391.0,0.0171
2390.0,0.0171
2389.0,0.017
2388.0,0.017
2387.0,0.0171
2386.0,0.0171
2385.0,0.0171
2384.0,0.0172
2383.0,0.0173
2382.0,0.0175
2381.0,0.0177
2380.0,0.0177
2379.0,0.0175
2378.0,0.0171
2377.0,0.0167
2376.0,0.0163
2375.0,0.016
2374.0,0.0158
2373.0,0.0158
2372.0,0.0164
2371.0,0.0177
2370.0,0.0195
2369.0,0.0211
2368.0,0.0215
2367.0,0.0201
2366.0,0.0177
2365.0,0.0153
2364.0,0.014
2363.0,0.0139
2362.0,0.015
2361.0,0.0162
2360.0,0.016
2359.0,0.0148
2358.0,0.0144
2357.0,0.0157
2356.0,0.0174
2355.0,0.0188
2354.0,0.0199
2353.0,0.0205
2352.0,0.0203
2351.0,0.0197
2350.0,0.019
2349.0,0.0184
2348.0,0.0182
2347.0,0.0183
2346.0,0.0185
2345.0,0.0187
2344.0,0.0186
2343.0,0.0186
2342.0,0.0191
2341.0,0.0197
2340.0,0.0195
2339.0,0.0186
2338.0,0.0178
2337.0,0.0178
2336.0,0.0187
2335.0,0.0196
2334.0,0.0205
2333.0,0.021
2332.0,0.021
2331.0,0.0202
2330.0,0.0193
2329.0,0.0186
2328.0,0.0184
2327.0,0.0187
2326.0,0.0191
2325.0,0.0193
2324.0,0.0192
2323.0,0.0187
2322.0,0.0181
2321.0,0.0177
2320.0,0.0175
2319.0,0.0174
2318.0,0.0174
2317.0,0.0174
2316.0,0.0174
2315.0,0.0177
2314.0,0.018
2313.0,0.0184
2312.0,0.0186
2311.0,0.0187
2310.0,0.0187
2309.0,0.0186
2308.0,0.0184
2307.0,0.0183
2306.0,0.0182
2305.0,0.018
2304.0,0.0179
2303.0,0.0178
2302.0,0.0177
2301.0,0.0177
2300.0,0.0177
2299.0,0.0177
2298.0,0.0177
2297.0,0.0176
2296.0,0.0175
2295.0,0.0173
2294.0,0.0172
2293.0,0.0172
2292.0,0.0172
2291.0,0.0172
2290.0,0.0172
2289.0,0.0172
2288.0,0.0171
2287.0,0.0171
2286.0,0.0171
2285.0,0.0171
2284.0,0.0171
2283.0,0.017
2282.0,0.017
2281.0,0.0169
2280.0,0.0169
2279.0,0.017
2278.0,0.017
2277.0,0.0171
2276.0,0.0172
2275.0,0.0172
2274.0,0.0171
2273.0,0.017
2272.0,0.017
2271.0,0.017
2270.0,0.017
2269.0,0.017
2268.0,0.017
2267.0,0.0169
2266.0,0.0169
2265.0,0.0168
2264.0,0.0168
2263.0,0.0167
2262.0,0.0167
2261.0,0.0167
2260.0,0.0167
2259.0,0.0166
2258.0,0.0166
2257.0,0.0167
2256.0,0.0167
2255.0,0.0167
2254.0,0.0167
2253.0,0.0167
2252.0,0.0166
2251.0,0.0166
2250.0,0.0166
2249.0,0.0166
2248.0,0.0166
2247.0,0.0166
2246.0,0.0167
2245.0,0.0167
2244.0,0.0167
2243.0,0.0167
2242.0,0.0167
2241.0,0.0167
2240.0,0.0168
2239.0,0.0167
2238.0,0.0167
2237.0,0.0166
2236.0,0.0166
2235.0,0.0166
2234.0,0.0165
2233.0,0.0165
2232.0,0.0165
2231.0,0.0165
2230.0,0.0165
2229.0,0.0166
2228.0,0.0166
2227.0,0.0165
2226.0,0.0165
2225.0,0.0166
2224.0,0.0166
2223.0,0.0166
2222.0,0.0165
2221.0,0.0165
2220.0,0.0165
2219.0,0.0165
2218.0,0.0164
2217.0,0.0164
2216.0,0.0165
2215.0,0.0165
2214.0,0.0165
2213.0,0.0166
2212.0,0.0166
2211.0,0.0165
2210.0,0.0165
2209.0,0.0165
2208.0,0.0166
2207.0,0.0166
2206.0,0.0166
2205.0,0.0166
2204.0,0.0166
2203.0,0.0166
2202.0,0.0165
2201.0,0.0165
2200.0,0.0165
2199.0,0.0165
2198.0,0.0164
2197.0,0.0165
2196.0,0.0165
2195.0,0.0166
2194.0,0.0166
2193.0,0.0166
2192.0,0.0166
2191.0,0.0166
2190.0,0.0166
2189.0,0.0165
2188.0,0.0165
2187.0,0.0164
2186.0,0.0164
2185.0,0.0165
2184.0,0.0165
2183.0,0.0166
2182.0,0.0166
2181.0,0.0166
2180.0,0.0166
2179.0,0.0165
2178.0,0.0166
2177.0,0.0166
2176.0,0.0166
2175.0,0.0166
2174.0,0.0166
2173.0,0.0165
2172.0,0.0165
2171.0,0.0165
2170.0,0.0165
2169.0,0.0165
2168.0,0.0165
2167.0,0.0165
2166.0,0.0165
2165.0,0.0166
2164.0,0.0166
2163.0,0.0167
2162.0,0.0167
2161.0,0.0167
2160.0,0.0166
2159.0,0.0166
2158.0,0.0166
2157.0,0.0167
2156.0,0.0167
2155.0,0.0167
2154.0,0.0167
2153.0,0.0166
2152.0,0.0166
2151.0,0.0166
2150.0,0.0166
2149.0,0.0166
2148.0,0.0167
2147.0,0.0167
2146.0,0.0167
2145.0,0.0167
2144.0,0.0167
2143.0,0.0167
2142.0,0.0166
2141.0,0.0166
2140.0,0.0166
2139.0,0.0166
2138.0,0.0166
2137.0,0.0167
2136.0,0.0167
2135.0,0.0167
2134.0,0.0167
2133.0,0.0166
2132.0,0.0166
2131.0,0.0165
2130.0,0.0165
2129.0,0.0166
2128.0,0.0166
2127.0,0.0166
2126.0,0.0166
2125.0,0.0166
2124.0,0.0166
2123.0,0.0166
2122.0,0.0166
2121.0,0.0166
2120.0,0.0167
2119.0,0.0166
2118.0,0.0166
2117.0,0.0165
2116.0,0.0165
2115.0,0.0164
2114.0,0.0164
2113.0,0.0164
2112.0,0.0164
2111.0,0.0165
2110.0,0.0166
2109.0,0.0166
2108.0,0.0166
2107.0,0.0166
2106.0,0.0165
2105.0,0.0165
2104.0,0.0164
2103.0,0.0164
2102.0,0.0164
2101.0,0.0165
2100.0,0.0165
2099.0,0.0165
2098.0,0.0165
2097.0,0.0165
2096.0,0.0165
2095.0,0.0165
2094.0,0.0165
2093.0,0.0166
2092.0,0.0166
2091.0,0.0166
2090.0,0.0165
2089.0,0.0165
2088.0,0.0165
2087.0,0.0164
2086.0,0.0165
2085.0,0.0165
2084.0,0.0165
2083.0,0.0165
2082.0,0.0165
2081.0,0.0165
2080.0,0.0166
2079.0,0.0165
2078.0,0.0165
2077.0,0.0165
2076.0,0.0165
2075.0,0.0165
2074.0,0.0166
2073.0,0.0166
2072.0,0.0166
2071.0,0.0166
2070.0,0.0165
2069.0,0.0165
2068.0,0.0165
2067.0,0.0165
2066.0,0.0165
2065.0,0.0165
2064.0,0.0165
2063.0,0.0165
2062.0,0.0165
2061.0,0.0165
2060.0,0.0165
2059.0,0.0166
2058.0,0.0166
2057.0,0.0167
2056.0,0.0167
2055.0,0.0167
2054.0,0.0166
2053.0,0.0166
2052.0,0.0166
2051.0,0.0166
2050.0,0.0166
2049.0,0.0166
2048.0,0.0166
2047.0,0.0166
2046.0,0.0166
2045.0,0.0166
2044.0,0.0167
2043.0,0.0166
2042.0,0.0166
2041.0,0.0166
2040.0,0.0167
2039.0,0.0168
2038.0,0.0168
2037.0,0.0168
2036.0,0.0168
2035.0,0.0168
2034.0,0.0168
2033.0,0.0168
2032.0,0.0168
2031.0,0.0168
2030.0,0.0168
2029.0,0.0168
2028.0,0.0168
2027.0,0.0168
2026.0,0.0168
2025.0,0.0169
2024.0,0.0169
2023.0,0.017
2022.0,0.017
2021.0,0.017
2020.0,0.017
2019.0,0.017
2018.0,0.017
2017.0,0.017
2016.0,0.017
2015.0,0.017
2014.0,0.0169
2013.0,0.0168
2012.0,0.0168
2011.0,0.0168
2010.0,0.0168
2009.0,0.0168
2008.0,0.0168
2007.0,0.0168
2006.0,0.0168
2005.0,0.0168
2004.0,0.0168
2003.0,0.0168
2002.0,0.0168
2001.0,0.0168
2000.0,0.0168
1999.0,0.0168
1998.0,0.0167
1997.0,0.0167
1996.0,0.0166
1995.0,0.0166
1994.0,0.0166
1993.0,0.0166
1992.0,0.0166
1991.0,0.0167
1990.0,0.0167
1989.0,0.0167
1988.0,0.0167
1987.0,0.0167
1986.0,0.0167
1985.0,0.0167
1984.0,0.0167
1983.0,0.0167
1982.0,0.0167
1981.0,0.0167
1980.0,0.0167
1979.0,0.0167
1978.0,0.0167
1977.0,0.0167
1976.0,0.0167
1975.0,0.0167
1974.0,0.0167
1973.0,0.0167
1972.0,0.0167
1971.0,0.0166
1970.0,0.0166
1969.0,0.0166
1968.0,0.0167
1967.0,0.0167
1966.0,0.0167
1965.0,0.0167
1964.0,0.0167
1963.0,0.0167
1962.0,0.0167
1961.0,0.0167
1960.0,0.0167
1959.0,0.0167
1958.0,0.0167
1957.0,0.0167
1956.0,0.0167
1955.0,0.0167
1954.0,0.0167
1953.0,0.0167
1952.0,0.0167
1951.0,0.0167
1950.0,0.0166
1949.0,0.0166
1948.0,0.0166
1947.0,0.0166
1946.0,0.0166
1945.0,0.0166
1944.0,0.0166
1943.0,0.0166
1942.0,0.0166
1941.0,0.0167
1940.0,0.0167
1939.0,0.0166
1938.0,0.0166
1937.0,0.0166
1936.0,0.0166
1935.0,0.0166
1934.0,0.0166
1933.0,0.0166
1932.0,0.0165
1931.0,0.0165
1930.0,0.0166
1929.0,0.0166
1928.0,0.0166
1927.0,0.0166
1926.0,0.0166
1925.0,0.0167
1924.0,0.0167
1923.0,0.0166
1922.0,0.0166
1921.0,0.0167
1920.0,0.0167
1919.0,0.0167
1918.0,0.0167
1917.0,0.0167
1916.0,0.0167
1915.0,0.0167
1914.0,0.0167
1913.0,0.0168
1912.0,0.0168
1911.0,0.0168
1910.0,0.0168
1909.0,0.0168
1908.0,0.0168
1907.0,0.0168
1906.0,0.0169
1905.0,0.0169
1904.0,0.017
1903.0,0.017
1902.0,0.017
1901.0,0.017
1900.0,0.017
1899.0,0.017
1898.0,0.017
1897.0,0.0171
1896.0,0.0171
1895.0,0.0171
1894.0,0.0171
1893.0,0.0171
1892.0,0.0171
1891.0,0.017
1890.0,0.017
1889.0,0.0169
1888.0,0.0169
1887.0,0.0168
1886.0,0.0168
1885.0,0.0168
1884.0,0.0167
1883.0,0.0167
1882.0,0.0167
1881.0,0.0167
1880.0,0.0167
1879.0,0.0166
1878.0,0.0166
1877.0,0.0166
1876.0,0.0166
1875.0,0.0166
1874.0,0.0167
1873.0,0.0167
1872.0,0.0167
1871.0,0.0166
1870.0,0.0166
1869.0,0.0165
1868.0,0.0166
1867.0,0.0166
1866.0,0.0166
1865.0,0.0166
1864.0,0.0166
1863.0,0.0165
1862.0,0.0165
1861.0,0.0165
1860.0,0.0165
1859.0,0.0164
1858.0,0.0164
1857.0,0.0164
1856.0,0.0165
1855.0,0.0165
1854.0,0.0165
1853.0,0.0165
1852.0,0.0165
1851.0,0.0165
1850.0,0.0164
1849.0,0.0164
1848.0,0.0164
1847.0,0.0164
1846.0,0.0164
1845.0,0.0164
1844.0,0.0164
1843.0,0.0165
1842.0,0.0165
1841.0,0.0165
1840.0,0.0165
1839.0,0.0165
1838.0,0.0165
1837.0,0.0165
1836.0,0.0165
1835.0,0.0165
1834.0,0.0165
1833.0,0.0166
1832.0,0.0166
1831.0,0.0166
1830.0,0.0165
1829.0,0.0166
1828.0,0.0166
1827.0,0.0166
1826.0,0.0165
1825.0,0.0166
1824.0,0.0166
1823.0,0.0166
1822.0,0.0166
1821.0,0.0166
1820.0,0.0166
1819.0,0.0166
1818.0,0.0166
1817.0,0.0166
1816.0,0.0165
1815.0,0.0165
1814.0,0.0165
1813.0,0.0166
1812.0,0.0166
1811.0,0.0166
1810.0,0.0166
1809.0,0.0166
1808.0,0.0166
1807.0,0.0166
1806.0,0.0166
1805.0,0.0166
1804.0,0.0166
1803.0,0.0165
1802.0,0.0165
1801.0,0.0165
1800.0,0.0165
1799.0,0.0165
1798.0,0.0165
1797.0,0.0165
1796.0,0.0165
1795.0,0.0164
1794.0,0.0164
1793.0,0.0164
1792.0,0.0165
1791.0,0.0165
1790.0,0.0165
1789.0,0.0166
1788.0,0.0165
1787.0,0.0165
1786.0,0.0165
1785.0,0.0165
1784.0,0.0166
1783.0,0.0166
1782.0,0.0166
1781.0,0.0166
1780.0,0.0165
1779.0,0.0165
1778.0,0.0165
1777.0,0.0165
1776.0,0.0165
1775.0,0.0165
1774.0,0.0165
1773.0,0.0165
1772.0,0.0166
1771.0,0.0166
1770.0,0.0166
1769.0,0.0165
1768.0,0.0166
1767.0,0.0166
1766.0,0.0166
1765.0,0.0166
1764.0,0.0167
1763.0,0.0167
1762.0,0.0167
1761.0,0.0168
1760.0,0.0169
1759.0,0.017
1758.0,0.0171
1757.0,0.0172
1756.0,0.0173
1755.0,0.0175
1754.0,0.0176
1753.0,0.0177
1752.0,0.0179
1751.0,0.0181
1750.0,0.0183
1749.0,0.0185
1748.0,0.0187
1747.0,0.0188
1746.0,0.0187
1745.0,0.0187
1744.0,0.0187
1743.0,0.0187
1742.0,0.0187
1741.0,0.0187
1740.0,0.0187
1739.0,0.0187
1738.0,0.0186
1737.0,0.0186
1736.0,0.0185
1735.0,0.0182
1734.0,0.0179
1733.0,0.0178
1732.0,0.0179
1731.0,0.0179
1730.0,0.018
1729.0,0.0179
1728.0,0.0179
1727.0,0.0178
1726.0,0.0177
1725.0,0.0177
1724.0,0.0177
1723.0,0.0177
1722.0,0.0176
1721.0,0.0176
1720.0,0.0176
1719.0,0.0175
1718.0,0.0174
1717.0,0.0175
1716.0,0.0177
1715.0,0.0178
1714.0,0.0179
1713.0,0.0179
1712.0,0.0179
1711.0,0.0178
1710.0,0.0177
1709.0,0.0177
1708.0,0.0177
1707.0,0.0177
1706.0,0.0176
1705.0,0.0176
1704.0,0.0175
1703.0,0.0175
1702.0,0.0175
1701.0,0.0174
1700.0,0.0175
1699.0,0.0175
1698.0,0.0176
1697.0,0.0177
1696.0,0.0178
1695.0,0.0178
1694.0,0.0178
1693.0,0.0179
1692.0,0.0179
1691.0,0.0179
1690.0,0.0179
1689.0,0.0179
1688.0,0.018
1687.0,0.0181
1686.0,0.0181
1685.0,0.0181
1684.0,0.0182
1683.0,0.0182
1682.0,0.0181
1681.0,0.0182
1680.0,0.0183
1679.0,0.0184
1678.0,0.0185
1677.0,0.0186
1676.0,0.0186
1675.0,0.0186
1674.0,0.0186
1673.0,0.0186
1672.0,0.0186
1671.0,0.0187
1670.0,0.0188
1669.0,0.0189
1668.0,0.0189
1667.0,0.0189
1666.0,0.0188
1665.0,0.0188
1664.0,0.0189
1663.0,0.0189
1662.0,0.019
1661.0,0.019
1660.0,0.019
1659.0,0.019
1658.0,0.0189
1657.0,0.0189
1656.0,0.0189
1655.0,0.0188
1654.0,0.0186
1653.0,0.0186
1652.0,0.0186
1651.0,0.0186
1650.0,0.0188
1649.0,0.019
1648.0,0.0191
1647.0,0.0192
1646.0,0.0191
1645.0,0.019
1644.0,0.0189
1643.0,0.0189
1642.0,0.0189
1641.0,0.0189
1640.0,0.0189
1639.0,0.0188
1638.0,0.0188
1637.0,0.0187
1636.0,0.0188
1635.0,0.0188
1634.0,0.0187
1633.0,0.0187
1632.0,0.0187
1631.0,0.0187
1630.0,0.0187
1629.0,0.0187
1628.0,0.0186
1627.0,0.0185
1626.0,0.0185
1625.0,0.0184
1624.0,0.0185
1623.0,0.0185
1622.0,0.0184
1621.0,0.0184
1620.0,0.0183
1619.0,0.0182
1618.0,0.0181
1617.0,0.0181
1616.0,0.0181
1615.0,0.0181
1614.0,0.0181
1613.0,0.0182
1612.0,0.0181
1611.0,0.0181
1610.0,0.0181
1609.0,0.0181
1608.0,0.0181
1607.0,0.0181
1606.0,0.018
1605.0,0.018
1604.0,0.0179
1603.0,0.0179
1602.0,0.0179
1601.0,0.0179
1600.0,0.0179
1599.0,0.0179
1598.0,0.0179
1597.0,0.0178
1596.0,0.0179
1595.0,0.0179
1594.0,0.0179
1593.0,0.018
1592.0,0.018
1591.0,0.018
1590.0,0.0179
1589.0,0.0179
1588.0,0.0179
1587.0,0.0179
1586.0,0.0179
1585.0,0.0179
1584.0,0.0179
1583.0,0.0179
1582.0,0.0179
1581.0,0.0179
1580.0,0.0179
1579.0,0.0179
1578.0,0.0178
1577.0,0.0178
1576.0,0.0178
1575.0,0.0177
1574.0,0.0177
1573.0,0.0177
1572.0,0.0177
1571.0,0.0176
1570.0,0.0176
1569.0,0.0176
1568.0,0.0177
1567.0,0.0177
1566.0,0.0177
1565.0,0.0177
1564.0,0.0177
1563.0,0.0177
1562.0,0.0178
1561.0,0.0177
1560.0,0.0174
1559.0,0.0174
1558.0,0.0174
1557.0,0.0174
1556.0,0.0175
1555.0,0.0176
1554.0,0.0176
1553.0,0.0175
1552.0,0.0175
1551.0,0.0175
1550.0,0.0176
1549.0,0.0176
1548.0,0.0177
1547.0,0.0176
1546.0,0.0176
1545.0,0.0176
1544.0,0.0176
1543.0,0.0176
1542.0,0.0174
1541.0,0.0175
1540.0,0.0178
1539.0,0.0177
1538.0,0.0174
1537.0,0.0173
1536.0,0.0174
1535.0,0.0175
1534.0,0.0175
1533.0,0.0175
1532.0,0.0174
1531.0,0.0172
1530.0,0.0171
1529.0,0.0171
1528.0,0.0171
1527.0,0.0171
1526.0,0.017
1525.0,0.017
1524.0,0.017
1523.0,0.0169
1522.0,0.0169
1521.0,0.0169
1520.0,0.0169
1519.0,0.0168
1518.0,0.0167
1517.0,0.0167
1516.0,0.0167
1515.0,0.0165
1514.0,0.0164
1513.0,0.0163
1512.0,0.0163
1511.0,0.0163
1510.0,0.0163
1509.0,0.0163
1508.0,0.0165
1507.0,0.0166
1506.0,0.0163
1505.0,0.016
1504.0,0.016
1503.0,0.016
1502.0,0.0159
1501.0,0.0159
1500.0,0.016
1499.0,0.0159
1498.0,0.0158
1497.0,0.0157
1496.0,0.0156
1495.0,0.0154
1494.0,0.0152
1493.0,0.0151
1492.0,0.0151
1491.0,0.015
1490.0,0.0147
1489.0,0.0147
1488.0,0.0147
1487.0,0.0146
1486.0,0.0144
1485.0,0.0143
1484.0,0.0143
1483.0,0.0142
1482.0,0.0141
1481.0,0.0143
1480.0,0.0149
1479.0,0.016
1478.0,0.0189
1477.0,0.0252
1476.0,0.0358
1475.0,0.05
1474.0,0.0663
1473.0,0.0792
1472.0,0.082
1471.0,0.0779
1470.0,0.0734
1469.0,0.0705
1468.0,0.0689
1467.0,0.069
1466.0,0.0732
1465.0,0.0827
1464.0,0.0932
1463.0,0.0988
1462.0,0.0977
1461.0,0.0912
1460.0,0.0812
1459.0,0.0696
1458.0,0.0589
1457.0,0.0515
1456.0,0.0477
1455.0,0.0455
1454.0,0.0438
1453.0,0.0419
1452.0,0.04
1451.0,0.0385
1450.0,0.0373
1449.0,0.0363
1448.0,0.0353
1447.0,0.0346
1446.0,0.0341
1445.0,0.0337
1444.0,0.0332
1443.0,0.0329
1442.0,0.0325
1441.0,0.0322
1440.0,0.0318
1439.0,0.0314
1438.0,0.0311
1437.0,0.0307
1436.0,0.0303
1435.0,0.03
1434.0,0.0297
1433.0,0.0292
1432.0,0.0287
1431.0,0.0281
1430.0,0.0276
1429.0,0.027
1428.0,0.0265
1427.0,0.0261
1426.0,0.0257
1425.0,0.0253
1424.0,0.0249
1423.0,0.0246
1422.0,0.0244
1421.0,0.0241
1420.0,0.0239
1419.0,0.0238
1418.0,0.0238
1417.0,0.0237
1416.0,0.0236
1415.0,0.0234
1414.0,0.0233
1413.0,0.0231
1412.0,0.023
1411.0,0.0229
1410.0,0.0228
1409.0,0.0227
1408.0,0.0225
1407.0,0.0224
1406.0,0.0223
1405.0,0.0223
1404.0,0.0222
1403.0,0.0222
1402.0,0.0221
1401.0,0.0219
1400.0,0.0218
1399.0,0.0218
1398.0,0.0218
1397.0,0.0218
1396.0,0.0217
1395.0,0.0217
1394.0,0.0218
1393.0,0.0217
1392.0,0.0216
1391.0,0.0216
1390.0,0.0215
1389.0,0.0214
1388.0,0.0213
1387.0,0.0214
1386.0,0.0215
1385.0,0.0216
1384.0,0.0217
1383.0,0.0219
1382.0,0.0222
1381.0,0.0225
1380.0,0.0228
1379.0,0.023
1378.0,0.0231
1377.0,0.0232
1376.0,0.0232
1375.0,0.0233
1374.0,0.0235
1373.0,0.0237
1372.0,0.0239
1371.0,0.024
1370.0,0.0241
1369.0,0.0242
1368.0,0.0243
1367.0,0.0242
1366.0,0.0242
1365.0,0.024
1364.0,0.0239
1363.0,0.0238
1362.0,0.0237
1361.0,0.0236
1360.0,0.0234
1359.0,0.0233
1358.0,0.0232
1357.0,0.0232
1356.0,0.0232
1355.0,0.0233
1354.0,0.0233
1353.0,0.0233
1352.0,0.0233
1351.0,0.0233
1350.0,0.0232
1349.0,0.0231
1348.0,0.023
1347.0,0.023
1346.0,0.0229
1345.0,0.0228
1344.0,0.0226
1343.0,0.0225
1342.0,0.0224
1341.0,0.0223
1340.0,0.0223
1339.0,0.0222
1338.0,0.0221
1337.0,0.022
1336.0,0.0219
1335.0,0.0218
1334.0,0.0217
1333.0,0.0216
1332.0,0.0215
1331.0,0.0214
1330.0,0.0214
1329.0,0.0214
1328.0,0.0215
1327.0,0.0215
1326.0,0.0215
1325.0,0.0215
1324.0,0.0214
1323.0,0.0214
1322.0,0.0215
1321.0,0.0216
1320.0,0.0217
1319.0,0.0218
1318.0,0.0219
1317.0,0.0219
1316.0,0.022
1315.0,0.0221
1314.0,0.0222
1313.0,0.0223
1312.0,0.0223
1311.0,0.0224
1310.0,0.0224
1309.0,0.0225
1308.0,0.0226
1307.0,0.0227
1306.0,0.0228
1305.0,0.0228
1304.0,0.0228
1303.0,0.0228
1302.0,0.0228
1301.0,0.0228
1300.0,0.0227
1299.0,0.0227
1298.0,0.0227
1297.0,0.0227
1296.0,0.0226
1295.0,0.0226
1294.0,0.0225
1293.0,0.0224
1292.0,0.0223
1291.0,0.0222
1290.0,0.0222
1289.0,0.0221
1288.0,0.0221
1287.0,0.0221
1286.0,0.0221
1285.0,0.0221
1284.0,0.022
1283.0,0.022
1282.0,0.0219
1281.0,0.0218
1280.0,0.0218
1279.0,0.0218
1278.0,0.0218
1277.0,0.0218
1276.0,0.0218
1275.0,0.0218
1274.0,0.0218
1273.0,0.0218
1272.0,0.0218
1271.0,0.0218
1270.0,0.0218
1269.0,0.0218
1268.0,0.0218
1267.0,0.0217
1266.0,0.0218
1265.0,0.0218
1264.0,0.0218
1263.0,0.0218
1262.0,0.0219
1261.0,0.0219
1260.0,0.0219
1259.0,0.0219
1258.0,0.0219
1257.0,0.0218
1256.0,0.0218
1255.0,0.0217
1254.0,0.0217
1253.0,0.0217
1252.0,0.0216
1251.0,0.0216
1250.0,0.0216
1249.0,0.0216
1248.0,0.0216
1247.0,0.0217
1246.0,0.0217
1245.0,0.0217
1244.0,0.0217
1243.0,0.0217
1242.0,0.0217
1241.0,0.0217
1240.0,0.0217
1239.0,0.0216
1238.0,0.0216
1237.0,0.0216
1236.0,0.0216
1235.0,0.0216
1234.0,0.0216
1233.0,0.0216
1232.0,0.0216
1231.0,0.0216
1230.0,0.0216
1229.0,0.0215
1228.0,0.0215
1227.0,0.0216
1226.0,0.0216
1225.0,0.0216
1224.0,0.0217
1223.0,0.0217
1222.0,0.0217
1221.0,0.0217
1220.0,0.0216
1219.0,0.0216
1218.0,0.0216
1217.0,0.0216
1216.0,0.0216
1215.0,0.0216
1214.0,0.0216
1213.0,0.0216
1212.0,0.0216
1211.0,0.0217
1210.0,0.0218
1209.0,0.0218
1208.0,0.0219
1207.0,0.022
1206.0,0.0221
1205.0,0.0222
1204.0,0.0222
1203.0,0.0222
1202.0,0.0222
1201.0,0.0222
1200.0,0.0222
1199.0,0.0222
1198.0,0.0223
1197.0,0.0223
1196.0,0.0224
1195.0,0.0224
1194.0,0.0225
1193.0,0.0226
1192.0,0.0226
1191.0,0.0226
1190.0,0.0226
1189.0,0.0226
1188.0,0.0226
1187.0,0.0226
1186.0,0.0226
1185.0,0.0227
1184.0,0.0228
1183.0,0.0229
1182.0,0.023
1181.0,0.0231
1180.0,0.0232
1179.0,0.0233
1178.0,0.0234
1177.0,0.0234
1176.0,0.0234
1175.0,0.0235
1174.0,0.0235
1173.0,0.0236
1172.0,0.0237
1171.0,0.0237
1170.0,0.0238
1169.0,0.0238
1168.0,0.0239
1167.0,0.0239
1166.0,0.0239
1165.0,0.0239
1164.0,0.0239
1163.0,0.0239
1162.0,0.0239
1161.0,0.0239
1160.0,0.0238
1159.0,0.0238
1158.0,0.0238
1157.0,0.0238
1156.0,0.0238
1155.0,0.0239
1154.0,0.0239
1153.0,0.0239
1152.0,0.0239
1151.0,0.0239
1150.0,0.0238
1149.0,0.0238
1148.0,0.0237
1147.0,0.0237
1146.0,0.0237
1145.0,0.0237
1144.0,0.0237
1143.0,0.0237
1142.0,0.0237
1141.0,0.0236
1140.0,0.0236
1139.0,0.0236
1138.0,0.0236
1137.0,0.0236
1136.0,0.0236
1135.0,0.0236
1134.0,0.0236
1133.0,0.0237
1132.0,0.0237
1131.0,0.0237
1130.0,0.0237
1129.0,0.0237
1128.0,0.0237
1127.0,0.0237
1126.0,0.0237
1125.0,0.0237
1124.0,0.0236
1123.0,0.0236
1122.0,0.0237
1121.0,0.0237
1120.0,0.0238
1119.0,0.0239
1118.0,0.024
1117.0,0.024
1116.0,0.0239
1115.0,0.0239
1114.0,0.0239
1113.0,0.024
1112.0,0.0241
1111.0,0.0242
1110.0,0.0242
1109.0,0.0242
1108.0,0.0242
1107.0,0.0242
1106.0,0.0242
1105.0,0.0242
1104.0,0.0242
1103.0,0.0243
1102.0,0.0243
1101.0,0.0243
1100.0,0.0244
1099.0,0.0244
1098.0,0.0245
1097.0,0.0245
1096.0,0.0245
1095.0,0.0245
1094.0,0.0245
1093.0,0.0245
1092.0,0.0246
1091.0,0.0246
1090.0,0.0247
1089.0,0.0248
1088.0,0.0248
1087.0,0.0248
1086.0,0.0248
1085.0,0.0248
1084.0,0.0248
1083.0,0.0248
1082.0,0.0248
1081.0,0.0248
1080.0,0.0248
1079.0,0.0248
1078.0,0.0249
1077.0,0.0248
1076.0,0.0248
1075.0,0.0248
1074.0,0.0247
1073.0,0.0247
1072.0,0.0247
1071.0,0.0247
1070.0,0.0247
1069.0,0.0247
1068.0,0.0247
1067.0,0.0247
1066.0,0.0247
1065.0,0.0247
1064.0,0.0247
1063.0,0.0248
1062.0,0.0247
1061.0,0.0247
1060.0,0.0247
1059.0,0.0247
1058.0,0.0247
1057.0,0.0247
1056.0,0.0247
1055.0,0.0247
1054.0,0.0247
1053.0,0.0246
1052.0,0.0246
1051.0,0.0245
1050.0,0.0245
1049.0,0.0245
1048.0,0.0244
1047.0,0.0244
1046.0,0.0243
1045.0,0.0243
1044.0,0.0241
1043.0,0.0241
1042.0,0.024
1041.0,0.024
1040.0,0.0239
1039.0,0.0238
1038.0,0.0237
1037.0,0.0236
1036.0,0.0235
1035.0,0.0234
1034.0,0.0234
1033.0,0.0233
1032.0,0.0233
1031.0,0.0232
1030.0,0.0232
1029.0,0.0232
1028.0,0.0232
1027.0,0.0231
1026.0,0.0231
1025.0,0.023
1024.0,0.0229
1023.0,0.0229
1022.0,0.0228
1021.0,0.0228
1020.0,0.0228
1019.0,0.0229
1018.0,0.0229
1017.0,0.0228
1016.0,0.0228
1015.0,0.0227
1014.0,0.0227
1013.0,0.0226
1012.0,0.0226
1011.0,0.0226
1010.0,0.0227
1009.0,0.0227
1008.0,0.0226
1007.0,0.0226
1006.0,0.0225
1005.0,0.0225
1004.0,0.0225
1003.0,0.0225
1002.0,0.0225
1001.0,0.0225
1000.0,0.0225
999.0,0.0224
998.0,0.0224
997.0,0.0224
996.0,0.0223
995.0,0.0222
994.0,0.0221
993.0,0.0221
992.0,0.022
991.0,0.0221
990.0,0.0221
989.0,0.0222
988.0,0.0222
987.0,0.0222
986.0,0.0223
985.0,0.0223
984.0,0.0222
983.0,0.022
982.0,0.0219
981.0,0.0219
980.0,0.0219
979.0,0.022
978.0,0.022
977.0,0.0221
976.0,0.0221
975.0,0.0221
974.0,0.0221
973.0,0.0221
972.0,0.0221
971.0,0.0221
970.0,0.0221
969.0,0.022
968.0,0.022
967.0,0.0219
966.0,0.0219
965.0,0.0219
964.0,0.022
963.0,0.022
962.0,0.0221
961.0,0.0222
960.0,0.0221
959.0,0.0221
958.0,0.022
957.0,0.0219
956.0,0.0219
955.0,0.022
954.0,0.022
953.0,0.0219
952.0,0.0218
951.0,0.0218
950.0,0.0219
949.0,0.022
948.0,0.022
947.0,0.022
946.0,0.022
945.0,0.0219
944.0,0.0218
943.0,0.0218
942.0,0.0218
941.0,0.0218
940.0,0.0218
939.0,0.0218
938.0,0.0217
937.0,0.0216
936.0,0.0216
935.0,0.0217
934.0,0.0218
933.0,0.0219
932.0,0.0218
931.0,0.0218
930.0,0.0218
929.0,0.0218
928.0,0.0218
927.0,0.0219
926.0,0.0219
925.0,0.022
924.0,0.0219
923.0,0.0219
922.0,0.0219
921.0,0.0219
920.0,0.0219
919.0,0.0219
918.0,0.0219
917.0,0.0219
916.0,0.0219
915.0,0.0219
914.0,0.0219
913.0,0.022
912.0,0.0221
911.0,0.0222
910.0,0.0222
909.0,0.0223
908.0,0.0223
907.0,0.0223
906.0,0.0223
905.0,0.0223
904.0,0.0223
903.0,0.0222
902.0,0.0221
901.0,0.022
900.0,0.022
899.0,0.0221
898.0,0.0222
897.0,0.0222
896.0,0.0221
895.0,0.022
894.0,0.0219
893.0,0.0219
892.0,0.0221
891.0,0.0223
890.0,0.0224
889.0,0.0225
888.0,0.0225
887.0,0.0224
886.0,0.0223
885.0,0.0221
884.0,0.022
883.0,0.022
882.0,0.022
881.0,0.0221
880.0,0.0221
879.0,0.0222
878.0,0.0223
877.0,0.0223
876.0,0.0223
875.0,0.0222
874.0,0.0222
873.0,0.0221
872.0,0.0221
871.0,0.0222
870.0,0.0222
869.0,0.0222
868.0,0.0222
867.0,0.0222
866.0,0.0221
865.0,0.022
864.0,0.022
863.0,0.022
862.0,0.022
861.0,0.022
860.0,0.022
859.0,0.022
858.0,0.0219
857.0,0.0219
856.0,0.0219
855.0,0.0219
854.0,0.0219
853.0,0.0218
852.0,0.0218
851.0,0.0218
850.0,0.0217
849.0,0.0217
848.0,0.0217
847.0,0.0218
846.0,0.0218
845.0,0.0217
844.0,0.0217
843.0,0.0216
842.0,0.0216
841.0,0.0216
840.0,0.0215
839.0,0.0216
838.0,0.0217
837.0,0.0218
836.0,0.0218
835.0,0.0218
834.0,0.0217
833.0,0.0217
832.0,0.0216
831.0,0.0216
830.0,0.0216
829.0,0.0215
828.0,0.0215
827.0,0.0214
826.0,0.0215
825.0,0.0216
824.0,0.0217
823.0,0.0216
822.0,0.0216
821.0,0.0216
820.0,0.0217
819.0,0.0218
818.0,0.0217
817.0,0.0216
816.0,0.0215
815.0,0.0214
814.0,0.0214
813.0,0.0214
812.0,0.0215
811.0,0.0216
810.0,0.0217
809.0,0.0216
808.0,0.0215
807.0,0.0214
806.0,0.0213
805.0,0.0213
804.0,0.0213
803.0,0.0214
802.0,0.0214
801.0,0.0215
800.0,0.0215
799.0,0.0216
798.0,0.0215
797.0,0.0214
796.0,0.0213
795.0,0.0212
794.0,0.0212
793.0,0.0213
792.0,0.0214
791.0,0.0215
790.0,0.0216
789.0,0.0216
788.0,0.0216
787.0,0.0216
786.0,0.0216
785.0,0.0216
784.0,0.0216
783.0,0.0216
782.0,0.0215
781.0,0.0214
780.0,0.0211
779.0,0.0209
778.0,0.0208
777.0,0.0209
776.0,0.0211
775.0,0.0212
774.0,0.0212
773.0,0.0212
772.0,0.0211
771.0,0.0211
770.0,0.0211
769.0,0.0211
768.0,0.021
767.0,0.0211
766.0,0.0212
765.0,0.0213
764.0,0.0212
763.0,0.021
762.0,0.0207
761.0,0.0205
760.0,0.0204
759.0,0.0203
758.0,0.0202
757.0,0.0201
756.0,0.02
755.0,0.0198
754.0,0.0197
753.0,0.0198
752.0,0.02
751.0,0.0202
750.0,0.0203
749.0,0.0203
748.0,0.0203
747.0,0.0201
746.0,0.02
745.0,0.0198
744.0,0.0197
743.0,0.0194
742.0,0.0191
741.0,0.0189
740.0,0.0189
739.0,0.0189
738.0,0.0193
737.0,0.0203
736.0,0.0227
735.0,0.0277
734.0,0.0374
733.0,0.0529
732.0,0.0718
731.0,0.0881
730.0,0.0956
729.0,0.093
728.0,0.0843
727.0,0.0751
726.0,0.0689
725.0,0.0668
724.0,0.0687
723.0,0.0753
722.0,0.088
721.0,0.1058
720.0,0.1223
719.0,0.1284
718.0,0.122
717.0,0.1085
716.0,0.0938
715.0,0.0809
714.0,0.0709
713.0,0.0633
712.0,0.0577
711.0,0.0536
710.0,0.0505
709.0,0.0479
708.0,0.0457
707.0,0.0438
706.0,0.0419
705.0,0.04
704.0,0.0385
703.0,0.0375
702.0,0.0368
701.0,0.0361
700.0,0.0354
699.0,0.0347
698.0,0.0341
697.0,0.0336
696.0,0.0336
695.0,0.034
694.0,0.0344
693.0,0.0344
692.0,0.0343
691.0,0.0342
690.0,0.0339
689.0,0.0336
688.0,0.0335
687.0,0.0337
686.0,0.0341
685.0,0.0343
684.0,0.0339
683.0,0.0331
682.0,0.0322
681.0,0.0318
680.0,0.0319
679.0,0.0324
678.0,0.0322
677.0,0.0314
676.0,0.0305
675.0,0.0301
674.0,0.03
673.0,0.03
672.0,0.0301
671.0,0.0302
670.0,0.0303
669.0,0.0298
668.0,0.028
667.0,0.0266
666.0,0.0269
665.0,0.0277
664.0,0.0282
663.0,0.0286
662.0,0.029
661.0,0.0292
660.0,0.0291
659.0,0.0288
658.0,0.0284
657.0,0.0278
656.0,0.0274
655.0,0.0277
654.0,0.0284
653.0,0.0288
652.0,0.0289
651.0,0.0287
650.0,0.0286
649.0,0.0284
648.0,0.0282
647.0,0.0281
646.0,0.0279
645.0,0.0277
644.0,0.0277
643.0,0.0276
642.0,0.0273
641.0,0.0268
640.0,0.0265
639.0,0.0268
638.0,0.0276
637.0,0.0286
636.0,0.0293
635.0,0.0297
634.0,0.0294
633.0,0.0285
632.0,0.0279
631.0,0.0279
630.0,0.028
629.0,0.0278
628.0,0.0277
627.0,0.0277
626.0,0.0278
625.0,0.0276
624.0,0.0271
623.0,0.0268
622.0,0.0266
621.0,0.0264
620.0,0.0267
619.0,0.0274
618.0,0.0282
617.0,0.0285
616.0,0.0283
615.0,0.0281
614.0,0.0281
613.0,0.0282
612.0,0.0286
611.0,0.029
610.0,0.0293
609.0,0.0293
608.0,0.0293
607.0,0.0297
606.0,0.0303
605.0,0.0304
604.0,0.0302
603.0,0.0301
602.0,0.03
601.0,0.0294
600.0,0.0284
