nm,Intensity
528.615,1830.3
528.699,1830.83
528.784,1830.2
528.868,1830.07
528.952,1831.3
529.036,1831.03
529.121,1830.83
529.205,1831.0
529.289,1831.17
529.373,1831.03
529.458,1831.33
529.542,1831.3
529.626,1830.73
529.71,1830.83
529.795,1831.03
529.879,1830.07
529.963,1831.47
530.047,1830.67
530.132,1831.27
530.216,1831.73
530.3,1831.0
530.384,1832.67
530.469,1832.03
530.553,1831.53
530.637,1830.73
530.721,1831.1
530.806,1830.83
530.89,1833.1
530.974,1832.33
531.058,1832.27
531.143,1833.3
531.227,1834.57
531.311,1836.63
531.395,1836.9
531.479,1839.53
531.564,1849.63
531.648,1884.1
531.732,2050.07
531.816,2560.03
531.901,3432.4
531.985,3928.87
532.069,3958.1
532.153,2956.57
532.237,2179.03
532.322,1868.1
532.406,1836.7
532.49,1833.27
532.574,1833.77
532.658,1833.87
532.743,1832.57
532.827,1832.27
532.911,1832.23
532.995,1832.83
533.079,1832.33
533.164,1832.9
533.248,1833.43
533.332,1837.93
533.416,1847.63
533.5,1877.83
533.585,1949.9
533.669,2062.7
533.753,2187.8
533.837,2288.87
533.921,2351.13
534.005,2380.43
534.09,2386.47
534.174,2390.83
534.258,2387.8
534.342,2390.1
534.426,2399.63
534.511,2433.0
534.595,2470.03
534.679,2510.87
534.763,2536.87
534.847,2574.4
534.931,2591.47
535.016,2590.3
535.1,2574.9
535.184,2541.9
535.268,2506.97
535.352,2449.53
535.436,2391.47
535.52,2358.1
535.605,2351.83
535.689,2317.77
535.773,2289.03
535.857,2278.57
535.941,2277.7
536.025,2279.4
536.109,2270.5
536.194,2284.5
536.278,2284.97
536.362,2285.87
536.446,2286.23
536.53,2314.7
536.614,2342.7
536.698,2353.43
536.783,2389.07
536.867,2405.87
536.951,2422.4
537.035,2425.1
537.119,2429.2
537.203,2403.77
537.287,2384.63
537.371,2353.53
537.456,2346.7
537.54,2324.57
537.624,2322.6
537.708,2322.8
537.792,2318.13
537.876,2308.67
537.96,2308.53
538.044,2305.77
538.128,2302.17
538.213,2302.2
538.297,2321.07
538.381,2298.37
538.465,2298.0
538.549,2303.27
538.633,2314.93
538.717,2306.23
538.801,2330.37
538.885,2344.27
538.969,2359.27
539.053,2369.53
539.138,2368.73
539.222,2388.57
539.306,2379.93
539.39,2359.57
539.474,2348.47
539.558,2338.3
539.642,2335.8
539.726,2330.5
539.81,2327.13
539.894,2332.2
539.978,2323.4
540.062,2317.37
540.147,2318.53
540.231,2314.7
540.315,2308.77
540.399,2321.03
540.483,2319.07
540.567,2324.37
540.651,2322.63
540.735,2324.47
540.819,2333.63
540.903,2340.83
540.987,2350.1
541.071,2380.77
541.155,2401.13
541.239,2412.67
541.323,2402.8
541.407,2386.73
541.491,2371.73
541.575,2361.07
541.66,2370.2
541.744,2359.33
541.828,2360.23
541.912,2354.33
541.996,2350.23
542.08,2348.27
542.164,2346.07
542.248,2340.33
542.332,2350.77
542.416,2343.0
542.5,2351.7
542.584,2367.33
542.668,2361.0
542.752,2362.0
542.836,2365.2
542.92,2386.03
543.004,2403.17
543.088,2414.63
543.172,2428.6
543.256,2492.83
543.34,2564.8
543.424,2676.47
543.508,2748.6
543.592,2763.5
543.676,2706.13
543.76,2630.53
543.844,2560.8
543.928,2511.63
544.012,2467.1
544.096,2450.07
544.18,2426.43
544.264,2428.23
544.348,2422.83
544.432,2428.73
544.516,2426.7
544.6,2421.93
544.684,2419.17
544.768,2419.3
544.852,2437.37
544.936,2457.33
545.02,2487.93
545.104,2499.4
545.188,2516.23
545.272,2523.23
545.356,2528.33
545.44,2516.57
545.524,2503.0
545.608,2466.07
545.692,2443.8
545.776,2440.7
545.86,2449.43
545.944,2430.93
546.028,2423.1
546.112,2424.17
546.195,2425.6
546.279,2422.3
546.363,2418.73
546.447,2412.67
546.531,2421.47
546.615,2425.87
546.699,2435.3
546.783,2447.33
546.867,2454.73
546.951,2452.27
547.035,2459.13
547.119,2474.03
547.203,2484.63
547.287,2504.73
547.371,2516.4
547.455,2535.03
547.539,2547.83
547.623,2522.03
547.706,2506.03
547.79,2507.4
547.874,2484.87
547.958,2474.33
548.042,2466.9
548.126,2474.73
548.21,2468.9
548.294,2459.43
548.378,2456.77
548.462,2471.6
548.546,2468.57
548.63,2459.83
548.713,2456.37
548.797,2460.93
548.881,2467.97
548.965,2465.5
549.049,2468.47
549.133,2482.37
549.217,2455.33
549.301,2443.77
549.385,2458.0
549.469,2446.47
549.552,2447.7
549.636,2457.9
549.72,2455.23
549.804,2459.57
549.888,2467.63
549.972,2465.2
550.056,2456.17
550.14,2463.1
550.224,2477.9
550.307,2468.53
550.391,2477.27
550.475,2458.0
550.559,2459.27
550.643,2458.6
550.727,2466.07
550.811,2478.7
550.895,2495.07
550.978,2496.07
551.062,2491.6
551.146,2500.43
551.23,2486.5
551.314,2492.43
551.398,2503.1
551.482,2516.13
551.565,2505.5
551.649,2514.0
551.733,2509.23
551.817,2519.33
551.901,2528.37
551.985,2514.7
552.069,2518.83
552.152,2501.87
552.236,2508.9
552.32,2511.23
552.404,2506.4
552.488,2521.33
552.572,2535.63
552.655,2533.83
552.739,2514.33
552.823,2514.03
552.907,2520.93
552.991,2524.87
553.075,2522.33
553.158,2521.27
553.242,2529.97
553.326,2543.7
553.41,2527.47
553.494,2522.63
553.577,2542.33
553.661,2549.5
553.745,2553.53
553.829,2551.57
553.913,2560.03
553.997,2579.13
554.08,2577.13
554.164,2561.37
554.248,2545.27
554.332,2558.27
554.416,2572.23
554.499,2566.03
554.583,2594.77
554.667,2589.07
554.751,2572.9
554.835,2587.93
554.918,2596.23
555.002,2611.43
555.086,2610.6
555.17,2615.2
555.253,2630.83
555.337,2633.47
555.421,2646.53
555.505,2686.93
555.589,2726.43
555.672,2800.3
555.756,2923.2
555.84,3084.3
555.924,3281.47
556.007,3368.93
556.091,3314.43
556.175,3150.27
556.259,2999.2
556.342,2887.37
556.426,2844.63
556.51,2846.47
556.594,2874.1
556.678,2918.97
556.761,2980.77
556.845,3085.93
556.929,3182.0
557.013,3220.7
557.096,3187.6
557.18,3048.0
557.264,2894.1
557.347,2814.67
557.431,2776.43
557.515,2758.9
557.599,2726.67
557.682,2734.0
557.766,2715.8
557.85,2702.27
557.934,2704.9
558.017,2692.37
558.101,2696.4
558.185,2686.13
558.269,2693.8
558.352,2706.3
558.436,2707.07
558.52,2732.63
558.603,2749.17
558.687,2747.6
558.771,2778.27
558.855,2782.17
558.938,2745.83
559.022,2725.97
559.106,2717.27
559.189,2718.47
559.273,2704.73
559.357,2705.73
559.44,2706.4
559.524,2713.1
559.608,2707.4
559.692,2733.07
559.775,2743.57
559.859,2752.33
559.943,2795.47
560.026,2798.8
560.11,2826.57
560.194,2833.63
560.277,2821.23
560.361,2798.9
560.445,2804.2
560.528,2777.37
560.612,2768.97
560.696,2780.33
560.779,2826.5
560.863,2868.47
560.947,2943.87
561.03,3020.67
561.114,3073.23
561.198,3095.23
561.281,3012.27
561.365,2920.63
561.449,2839.57
561.532,2830.3
561.616,2829.9
561.7,2874.73
561.783,2924.67
561.867,2953.33
561.951,2964.23
562.034,2940.33
562.118,2905.27
562.202,2834.57
562.285,2848.5
562.369,2807.5
562.452,2783.17
562.536,2808.83
562.62,2822.1
562.703,2833.27
562.787,2858.93
562.871,2861.6
562.954,2921.57
563.038,2924.3
563.122,2940.23
563.205,2971.37
563.289,2961.9
563.372,2937.43
563.456,2904.87
563.54,2878.8
563.623,2839.6
563.707,2808.37
563.79,2813.13
563.874,2815.0
563.958,2815.7
564.041,2798.63
564.125,2802.1
564.208,2794.63
564.292,2796.13
564.376,2781.33
564.459,2807.13
564.543,2802.17
564.626,2798.33
564.71,2781.73
564.794,2818.43
564.877,2834.13
564.961,2847.23
565.044,2856.83
565.128,2874.97
565.212,2869.43
565.295,2873.37
565.379,2878.0
565.462,2873.43
565.546,2866.0
565.629,2830.03
565.713,2826.17
565.797,2841.23
565.88,2840.8
565.964,2838.9
566.047,2842.17
566.131,2863.83
566.214,2865.73
566.298,2886.2
566.381,2897.47
566.465,2971.3
566.549,3056.83
566.632,3145.2
566.716,3301.13
566.799,3371.73
566.883,3398.13
566.966,3414.8
567.05,3334.43
567.133,3275.6
567.217,3249.83
567.3,3251.23
567.384,3232.17
567.468,3136.63
567.551,3074.47
567.635,2991.4
567.718,2939.5
567.802,2907.5
567.885,2902.17
567.969,2886.57
568.052,2880.47
568.136,2899.43
568.219,2901.23
568.303,2902.43
568.386,2932.33
568.47,2922.67
568.553,2937.53
568.637,2962.93
568.72,2973.4
568.804,3017.0
568.887,3069.23
568.971,3087.77
569.054,3090.3
569.138,3080.97
569.221,3044.87
569.305,3005.97
569.388,2972.17
569.472,2942.8
569.555,2947.17
569.639,2958.5
569.722,2942.0
569.806,2932.93
569.889,2950.23
569.973,2957.33
570.056,2978.7
570.14,2976.07
570.223,2941.43
570.307,2957.07
570.39,2952.3
570.474,2941.77
570.557,2947.27
570.64,2938.27
570.724,2927.77
570.807,2933.8
570.891,2945.37
570.974,2972.3
571.058,2983.23
571.141,2983.53
571.225,3010.13
571.308,3018.53
571.392,3026.63
571.475,3028.93
571.558,3071.27
571.642,3053.73
571.725,3079.27
571.809,3067.3
571.892,3057.4
571.976,3053.6
572.059,3085.2
572.143,3122.3
572.226,3166.37
572.309,3263.47
572.393,3391.77
572.476,3555.63
572.56,3663.13
572.643,3651.8
572.726,3542.0
572.81,3395.2
572.893,3304.77
572.977,3226.37
573.06,3156.03
573.144,3121.57
573.227,3131.77
573.31,3153.6
573.394,3175.53
573.477,3235.07
573.561,3291.83
573.644,3304.67
573.727,3242.93
573.811,3182.87
573.894,3148.27
573.978,3090.23
574.061,3082.07
574.144,3077.07
574.228,3055.73
574.311,3040.73
574.395,3035.27
574.478,3001.33
574.561,2986.87
574.645,2988.97
574.728,3000.77
574.811,2974.63
574.895,2985.53
574.978,2976.57
575.062,2989.73
575.145,2997.17
575.228,2984.83
575.312,3003.2
575.395,3006.7
575.478,3016.93
575.562,3026.43
575.645,3036.03
575.728,3053.97
575.812,3100.37
575.895,3201.73
575.978,3301.97
576.062,3389.77
576.145,3451.37
576.228,3454.53
576.312,3421.6
576.395,3447.37
576.478,3491.77
576.562,3585.67
576.645,3731.9
576.728,3888.43
576.812,4026.4
576.895,4052.13
576.978,3996.77
577.062,3849.6
577.145,3627.47
577.228,3450.33
577.312,3323.53
577.395,3220.23
577.478,3143.4
577.562,3101.2
577.645,3116.67
577.728,3082.8
577.812,3074.87
577.895,3036.93
577.978,3058.13
578.062,3073.5
578.145,3083.5
578.228,3076.93
578.311,3057.93
578.395,3030.17
578.478,3016.77
578.561,3039.4
578.645,3050.27
578.728,3063.87
578.811,3052.23
578.894,3046.17
578.978,3050.9
579.061,3038.8
579.144,3058.37
579.228,3072.5
579.311,3058.6
579.394,3073.13
579.477,3072.43
579.561,3067.73
579.644,3073.47
579.727,3101.67
579.81,3100.0
579.894,3093.2
579.977,3081.0
580.06,3080.13
580.144,3072.13
580.227,3081.6
580.31,3068.33
580.393,3068.57
580.477,3081.3
580.56,3093.63
580.643,3122.63
580.726,3115.6
580.809,3102.23
580.893,3090.27
580.976,3071.3
581.059,3084.27
581.142,3088.6
581.226,3109.03
581.309,3083.5
581.392,3110.5
581.475,3095.53
581.559,3083.7
581.642,3112.2
581.725,3115.87
581.808,3110.97
581.891,3130.83
581.975,3100.87
582.058,3088.33
582.141,3095.7
582.224,3109.07
582.307,3133.43
582.391,3099.53
582.474,3103.37
582.557,3115.33
582.64,3117.03
582.723,3108.1
582.807,3078.43
582.89,3104.9
582.973,3122.63
583.056,3101.0
583.139,3129.77
583.223,3145.4
583.306,3132.27
583.389,3110.27
583.472,3136.97
583.555,3159.6
583.639,3127.47
583.722,3139.7
583.805,3119.03
583.888,3108.1
583.971,3147.93
584.054,3159.77
584.138,3154.5
584.221,3128.9
584.304,3151.13
584.387,3158.0
584.47,3164.33
584.553,3166.4
584.636,3146.23
584.72,3138.77
584.803,3135.73
584.886,3133.33
584.969,3146.13
585.052,3131.9
585.135,3147.37
585.218,3132.63
585.302,3152.37
585.385,3146.87
585.468,3136.37
585.551,3130.27
585.634,3158.97
585.717,3157.77
585.8,3146.47
585.884,3147.57
585.967,3155.43
586.05,3143.57
586.133,3110.8
586.216,3117.7
586.299,3127.07
586.382,3150.63
586.465,3160.83
586.548,3125.57
586.632,3136.2
586.715,3171.9
586.798,3154.33
586.881,3164.13
586.964,3160.03
587.047,3147.3
587.13,3169.4
587.213,3156.83
587.296,3165.87
587.379,3160.27
587.463,3160.73
587.546,3169.47
587.629,3169.0
587.712,3190.7
587.795,3169.7
587.878,3164.4
587.961,3159.9
588.044,3169.87
588.127,3162.7
588.21,3194.8
588.293,3194.87
588.376,3138.6
588.459,3189.3
588.542,3203.3
588.626,3172.7
588.709,3166.87
588.792,3157.6
588.875,3183.2
588.958,3187.73
589.041,3188.73
589.124,3187.4
589.207,3172.97
589.29,3134.67
589.373,3162.5
589.456,3156.63
589.539,3158.13
589.622,3151.13
589.705,3183.4
589.788,3158.33
589.871,3161.9
589.954,3168.93
590.037,3169.83
590.12,3178.13
590.203,3178.3
590.286,3175.3
590.369,3177.9
590.452,3172.53
590.535,3175.8
590.618,3201.27
590.701,3192.6
590.784,3146.93
590.867,3146.17
590.95,3176.03
591.033,3183.6
591.116,3195.43
591.199,3166.73
591.282,3174.27
591.365,3234.27
591.448,3212.77
591.531,3215.5
591.614,3204.67
591.697,3180.17
591.78,3166.3
591.863,3205.77
591.946,3198.03
592.029,3214.13
592.112,3203.4
592.195,3189.5
592.278,3199.37
592.361,3202.53
592.444,3199.1
592.527,3215.57
592.61,3236.77
592.693,3217.0
592.776,3217.2
592.859,3237.8
592.942,3204.87
593.025,3209.4
593.108,3209.87
593.191,3190.43
593.274,3198.93
593.357,3194.9
593.44,3181.97
593.523,3205.4
593.606,3223.2
593.688,3199.07
593.771,3202.9
593.854,3221.27
593.937,3225.63
594.02,3214.63
594.103,3213.33
594.186,3206.23
594.269,3207.47
594.352,3207.63
594.435,3216.07
594.518,3202.5
594.601,3222.07
594.684,3219.93
594.767,3233.2
594.849,3231.37
594.932,3240.2
595.015,3245.73
595.098,3233.03
595.181,3237.5
595.264,3226.77
595.347,3217.27
595.43,3245.87
595.513,3278.53
595.596,3246.73
595.678,3215.8
595.761,3246.47
595.844,3238.9
595.927,3270.03
596.01,3274.67
596.093,3267.6
596.176,3277.0
596.259,3267.33
596.341,3250.17
596.424,3232.67
596.507,3232.87
596.59,3259.83
596.673,3259.6
596.756,3264.5
596.839,3242.7
596.922,3243.2
597.004,3272.47
597.087,3300.9
597.17,3251.97
597.253,3252.77
597.336,3256.73
597.419,3258.43
597.502,3272.03
597.584,3254.97
597.667,3259.1
597.75,3287.53
597.833,3308.97
597.916,3271.43
597.999,3253.6
598.081,3264.4
598.164,3269.7
598.247,3280.57
598.33,3267.1
598.413,3262.83
598.496,3288.83
598.578,3278.27
598.661,3283.8
598.744,3264.3
598.827,3266.6
598.91,3285.83
598.992,3297.97
599.075,3275.07
599.158,3305.53
599.241,3318.43
599.324,3329.83
599.406,3299.5
599.489,3288.93
599.572,3298.73
599.655,3318.83
599.738,3322.97
599.82,3287.0
599.903,3308.33
599.986,3263.6
600.069,3268.43
600.152,3290.07
600.234,3311.0
600.317,3309.83
600.4,3315.73
600.483,3308.23
600.565,3316.83
600.648,3322.77
600.731,3321.23
600.814,3276.57
600.896,3271.2
600.979,3303.97
601.062,3335.87
601.145,3321.17
601.228,3306.23
601.31,3328.1
601.393,3346.6
601.476,3302.43
601.558,3295.5
601.641,3320.6
601.724,3327.9
601.807,3338.17
601.889,3322.07
601.972,3305.5
602.055,3325.87
602.138,3318.53
602.22,3318.63
602.303,3347.87
602.386,3323.57
602.469,3289.27
602.551,3289.2
602.634,3327.53
602.717,3340.27
602.799,3360.1
602.882,3354.3
602.965,3346.43
603.048,3317.77
603.13,3361.7
603.213,3365.77
603.296,3379.13
603.378,3322.57
603.461,3294.3
603.544,3309.97
603.626,3375.1
603.709,3381.8
603.792,3364.63
603.875,3303.57
603.957,3314.53
604.04,3333.47
604.123,3358.73
604.205,3368.33
604.288,3347.6
604.371,3346.93
604.453,3360.23
604.536,3396.53
604.619,3408.57
604.701,3373.53
604.784,3331.1
604.867,3357.57
604.949,3353.27
605.032,3372.97
605.115,3359.17
605.197,3333.47
605.28,3316.1
605.363,3315.37
605.445,3352.87
605.528,3366.47
605.611,3358.03
605.693,3351.1
605.776,3376.77
605.858,3370.33
605.941,3332.7
606.024,3342.33
606.106,3349.47
606.189,3387.2
606.272,3403.17
606.354,3376.93
606.437,3351.9
606.519,3337.23
606.602,3342.7
606.685,3360.33
606.767,3375.23
606.85,3378.93
606.933,3392.9
607.015,3372.23
607.098,3363.8
607.18,3377.4
607.263,3366.33
607.346,3378.53
607.428,3380.43
607.511,3382.53
607.593,3377.5
607.676,3366.07
607.759,3365.1
607.841,3370.1
607.924,3391.77
608.006,3396.93
608.089,3350.63
608.171,3387.9
608.254,3386.83
608.337,3355.43
608.419,3364.0
608.502,3362.77
608.584,3379.93
608.667,3359.67
608.749,3350.63
608.832,3347.8
608.915,3382.83
608.997,3371.2
609.08,3355.13
609.162,3351.53
609.245,3380.5
609.327,3384.87
609.41,3361.43
609.492,3353.7
609.575,3344.0
609.658,3359.0
609.74,3391.87
609.823,3389.4
609.905,3378.47
609.988,3405.27
610.07,3332.4
610.153,3322.53
610.235,3355.43
610.318,3379.5
610.4,3381.03
610.483,3399.57
610.565,3381.77
610.648,3347.6
610.73,3340.9
610.813,3361.7
610.895,3377.63
610.978,3362.7
611.06,3380.83
611.143,3369.1
611.225,3357.23
611.308,3347.7
611.39,3354.6
611.473,3344.57
611.555,3348.87
611.638,3378.3
611.72,3354.27
611.803,3320.33
611.885,3342.57
611.968,3355.97
612.05,3344.83
612.133,3336.7
612.215,3364.63
612.298,3372.5
612.38,3370.1
612.463,3353.1
612.545,3372.6
612.628,3375.1
612.71,3345.77
612.792,3325.87
612.875,3341.8
612.957,3320.2
613.04,3325.97
613.122,3314.07
613.205,3329.13
613.287,3341.77
613.37,3342.03
613.452,3339.33
613.534,3351.2
613.617,3310.83
613.699,3295.33
613.782,3336.03
613.864,3364.97
613.947,3338.7
614.029,3309.57
614.111,3323.8
614.194,3332.73
614.276,3358.83
614.359,3339.37
614.441,3345.8
614.524,3349.73
614.606,3362.0
614.688,3324.03
614.771,3314.2
614.853,3354.07
614.936,3359.9
615.018,3345.33
615.1,3339.67
615.183,3304.33
615.265,3301.67
615.348,3343.47
615.43,3367.57
615.512,3358.37
615.595,3346.8
615.677,3349.9
615.76,3353.03
615.842,3371.77
615.924,3330.9
616.007,3323.9
616.089,3324.2
616.171,3340.93
616.254,3345.73
616.336,3369.83
616.418,3325.8
616.501,3296.7
616.583,3305.43
616.666,3320.7
616.748,3359.17
616.83,3341.67
616.913,3347.33
616.995,3308.9
617.077,3313.9
617.16,3337.8
617.242,3309.23
617.324,3335.97
617.407,3352.33
617.489,3353.23
617.571,3330.53
617.654,3328.13
617.736,3338.63
617.818,3362.83
617.901,3360.37
617.983,3335.07
618.065,3364.9
618.148,3354.87
618.23,3298.67
618.312,3296.27
618.395,3318.5
618.477,3361.27
618.559,3362.87
618.641,3352.57
618.724,3363.9
618.806,3329.53
618.888,3328.03
618.971,3381.67
619.053,3363.7
619.135,3317.03
619.218,3340.47
619.3,3394.63
619.382,3382.8
619.464,3392.2
619.547,3392.57
619.629,3392.47
619.711,3426.87
619.793,3410.87
619.876,3409.93
619.958,3416.13
620.04,3351.5
620.123,3360.6
620.205,3369.13
620.287,3358.17
620.369,3384.17
620.452,3381.73
620.534,3399.0
620.616,3376.77
620.698,3400.4
620.781,3381.3
620.863,3365.47
620.945,3363.0
621.027,3355.93
621.11,3365.63
621.192,3406.37
621.274,3423.7
621.356,3453.7
621.438,3427.1
621.521,3425.03
621.603,3455.57
621.685,3457.73
621.767,3475.03
621.85,3499.1
621.932,3511.07
622.014,3584.13
622.096,3621.23
622.178,3649.73
622.261,3626.97
622.343,3608.33
622.425,3574.7
622.507,3572.73
622.589,3525.23
622.672,3503.7
622.754,3500.93
622.836,3448.27
622.918,3426.1
623.0,3457.3
623.083,3440.33
623.165,3428.23
623.247,3421.77
623.329,3412.37
623.411,3365.77
623.493,3341.1
623.576,3333.07
623.658,3332.07
623.74,3351.4
623.822,3396.53
623.904,3385.33
623.986,3317.5
624.069,3311.17
624.151,3348.3
624.233,3369.8
624.315,3370.4
624.397,3316.53
624.479,3313.0
624.561,3289.33
624.644,3319.93
624.726,3319.2
624.808,3328.27
624.89,3373.6
624.972,3389.9
625.054,3337.9
625.136,3353.0
625.218,3352.53
625.301,3339.2
625.383,3378.43
625.465,3355.73
625.547,3372.03
625.629,3399.27
625.711,3420.8
625.793,3408.07
625.875,3419.63
625.958,3419.8
626.04,3479.33
626.122,3536.23
626.204,3607.77
626.286,3709.37
626.368,3853.93
626.45,4062.03
626.532,4340.23
626.614,4672.4
626.696,4921.13
626.778,5108.0
626.86,5136.9
626.943,5009.37
627.025,4789.73
627.107,4546.8
627.189,4371.93
627.271,4257.43
627.353,4183.03
627.435,4199.87
627.517,4400.1
627.599,4680.43
627.681,5043.47
627.763,5523.27
627.845,5981.5
627.927,6197.03
628.009,6358.77
628.091,6505.97
628.173,6683.57
628.255,6884.27
628.338,7072.07
628.42,7343.8
628.502,7424.6
628.584,7258.17
628.666,7066.53
628.748,6990.53
628.83,6832.43
628.912,6647.6
628.994,6419.87
629.076,6335.8
629.158,6318.7
629.24,6300.5
629.322,6284.9
629.404,6261.1
629.486,6106.73
629.568,5992.6
629.65,5858.67
629.732,5804.73
629.814,5772.5
629.896,5617.5
629.978,5561.43
630.06,5474.9
630.142,5540.6
630.224,5551.4
630.306,5347.13
630.388,5139.5
630.47,4982.5
630.552,4798.17
630.634,4619.3
630.716,4551.27
630.798,4474.97
630.88,4512.1
630.961,4649.2
631.043,4788.43
631.125,5026.17
631.207,5370.4
631.289,5585.93
631.371,5670.2
631.453,5669.07
631.535,5595.37
631.617,5519.03
631.699,5385.9
631.781,5218.9
631.863,5009.07
631.945,4719.2
632.027,4503.83
632.109,4307.6
632.191,4043.43
632.273,3848.93
632.355,3747.67
632.436,3655.67
632.518,3605.4
632.6,3551.33
632.682,3527.47
632.764,3478.53
632.846,3422.7
632.928,3410.47
633.01,3377.77
633.092,3359.4
633.174,3341.6
633.256,3341.83
633.337,3322.4
633.419,3287.03
633.501,3288.9
633.583,3311.23
633.665,3324.7
633.747,3328.87
633.829,3281.4
633.911,3253.7
633.993,3242.03
634.074,3243.73
634.156,3247.43
634.238,3263.57
634.32,3273.17
634.402,3228.73
634.484,3211.4
634.566,3207.23
634.647,3200.67
634.729,3203.27
634.811,3238.67
634.893,3202.73
634.975,3202.73
635.057,3189.43
635.139,3165.83
635.22,3190.23
635.302,3185.57
635.384,3194.6
635.466,3182.63
635.548,3190.93
635.63,3208.3
635.711,3173.3
635.793,3146.67
635.875,3158.2
635.957,3195.47
636.039,3202.3
636.12,3170.67
636.202,3165.07
636.284,3175.43
636.366,3196.97
636.448,3177.23
636.53,3175.37
636.611,3157.63
636.693,3156.13
636.775,3132.2
636.857,3145.17
636.939,3198.33
637.02,3192.33
637.102,3160.27
637.184,3168.03
637.266,3135.27
637.347,3135.87
637.429,3156.33
637.511,3169.3
637.593,3162.2
637.675,3158.03
637.756,3143.3
637.838,3140.77
637.92,3204.9
638.002,3194.97
638.083,3152.63
638.165,3145.53
638.247,3163.03
638.329,3172.4
638.41,3163.57
638.492,3127.87
638.574,3120.47
638.656,3131.03
638.737,3120.9
638.819,3146.2
638.901,3151.77
638.983,3167.13
639.064,3160.83
639.146,3116.97
639.228,3095.13
639.309,3125.7
639.391,3151.07
639.473,3113.77
639.555,3130.4
639.636,3118.2
639.718,3089.7
639.8,3098.93
639.881,3100.23
639.963,3100.5
640.045,3117.7
640.127,3127.63
640.208,3121.53
640.29,3112.5
640.372,3146.13
640.453,3142.6
640.535,3138.43
640.617,3112.5
640.698,3103.9
640.78,3085.6
640.862,3037.67
640.943,3057.17
641.025,3088.9
641.107,3109.6
641.188,3128.97
641.27,3121.9
641.352,3131.0
641.433,3093.7
641.515,3106.87
641.597,3088.2
641.678,3086.37
641.76,3083.67
641.842,3089.33
641.923,3061.13
642.005,3074.97
642.087,3096.97
642.168,3112.9
642.25,3094.43
642.332,3058.0
642.413,3053.63
642.495,3041.2
642.576,3080.63
642.658,3103.6
642.74,3095.53
642.821,3092.03
642.903,3054.47
642.985,3034.4
643.066,3031.8
643.148,3067.47
643.229,3047.43
643.311,3039.53
643.393,3035.63
643.474,3044.97
643.556,3054.73
643.637,3057.07
643.719,3054.63
643.801,3036.53
643.882,3024.03
643.964,3030.57
644.045,3032.17
644.127,3055.03
644.208,3060.23
644.29,3048.1
644.372,3046.93
644.453,3038.9
644.535,3029.97
644.616,3037.27
644.698,2999.87
644.779,3019.23
644.861,3031.83
644.943,3025.93
645.024,3031.67
645.106,3040.6
645.187,3056.5
645.269,3019.93
645.35,2984.4
645.432,3009.13
645.513,3010.93
645.595,3013.4
645.677,2999.6
645.758,3019.23
645.84,3035.63
645.921,3013.0
646.003,2998.0
646.084,2975.57
646.166,3002.8
646.247,2995.5
646.329,2995.5
646.41,3025.3
646.492,3015.27
646.573,2983.77
646.655,2987.9
646.736,3011.5
646.818,3008.87
646.899,2971.77
646.981,2951.9
647.062,2975.37
647.144,2971.63
647.225,2981.7
647.307,2977.9
647.388,2958.77
647.47,2963.4
647.551,2975.33
647.633,2965.53
647.714,2972.63
647.796,2950.37
647.877,2961.23
647.958,2974.63
648.04,2980.8
648.121,2946.27
648.203,2958.07
648.284,2986.93
648.366,2978.97
648.447,2965.53
648.529,2981.03
648.61,2948.83
648.692,2954.93
648.773,2970.0
648.854,2979.0
648.936,2955.5
649.017,2945.5
649.099,2920.5
649.18,2924.57
649.262,2954.4
649.343,2950.1
649.424,2918.43
649.506,2925.77
649.587,2961.4
649.669,2952.27
649.75,2909.57
649.832,2948.6
649.913,2969.9
649.994,2946.9
650.076,2895.87
650.157,2873.77
650.239,2927.0
650.32,2925.7
650.401,2947.67
650.483,2950.63
650.564,2909.4
650.646,2890.17
650.727,2906.23
650.808,2898.8
650.89,2918.37
650.971,2950.5
651.052,2949.37
651.134,2919.93
651.215,2885.83
651.297,2900.1
651.378,2950.13
651.459,2934.0
651.541,2897.57
651.622,2906.1
651.703,2902.3
651.785,2921.37
651.866,2927.03
651.947,2892.47
652.029,2875.83
652.11,2878.53
652.191,2874.47
652.273,2860.9
652.354,2889.17
652.435,2876.9
652.517,2878.53
652.598,2879.13
652.679,2873.1
652.761,2880.03
652.842,2882.1
652.923,2859.03
653.005,2860.27
653.086,2862.37
653.167,2888.4
653.249,2862.97
653.33,2835.87
653.411,2840.9
653.492,2866.4
653.574,2866.4
653.655,2854.57
653.736,2874.43
653.818,2856.13
653.899,2844.83
653.98,2830.6
654.061,2823.2
654.143,2847.63
654.224,2834.67
654.305,2832.47
654.387,2816.13
654.468,2842.5
654.549,2826.47
654.63,2828.37
654.712,2825.23
654.793,2834.5
654.874,2841.93
654.955,2832.43
655.037,2871.77
655.118,2855.0
655.199,2819.1
655.28,2806.57
655.362,2815.53
655.443,2832.07
655.524,2845.47
655.605,2840.3
655.687,2838.3
655.768,2845.0
655.849,2849.9
655.93,2843.17
656.011,2819.63
656.093,2805.1
656.174,2824.7
656.255,2831.83
656.336,2815.53
656.417,2822.57
656.499,2819.33
656.58,2803.0
656.661,2819.8
656.742,2818.13
656.823,2790.8
656.905,2789.3
656.986,2781.73
657.067,2789.67
657.148,2816.5
657.229,2813.97
657.311,2814.07
657.392,2785.4
657.473,2756.07
657.554,2740.17
657.635,2772.43
657.716,2790.07
657.798,2806.27
657.879,2798.83
657.96,2794.17
658.041,2780.27
658.122,2747.6
658.203,2738.13
658.285,2755.53
658.366,2741.67
658.447,2713.17
658.528,2731.17
658.609,2762.97
658.69,2762.03
658.771,2782.57
658.852,2767.2
658.934,2753.3
659.015,2752.33
659.096,2765.27
659.177,2768.8
659.258,2749.03
659.339,2758.47
659.42,2728.0
659.501,2718.6
659.583,2726.53
659.664,2747.43
659.745,2758.4
659.826,2769.07
659.907,2735.43
659.988,2741.1
660.069,2744.87
660.15,2740.83
660.231,2736.3
660.312,2720.37
660.393,2728.73
660.475,2720.1
660.556,2712.13
660.637,2712.3
660.718,2737.57
660.799,2751.3
660.88,2724.6
660.961,2691.33
661.042,2681.3
