cm-1,A
4000.0,0.0068
3999.0,0.0068
3998.0,0.0068
3997.0,0.0068
3996.0,0.0069
3995.0,0.0069
3994.0,0.007
3993.0,0.007
3992.0,0.007
3991.0,0.0071
3990.0,0.007
3989.0,0.007
3988.0,0.007
3987.0,0.007
3986.0,0.007
3985.0,0.007
3984.0,0.007
3983.0,0.007
3982.0,0.0071
3981.0,0.0071
3980.0,0.0071
3979.0,0.0071
3978.0,0.0072
3977.0,0.0072
3976.0,0.0073
3975.0,0.0073
3974.0,0.0073
3973.0,0.0072
3972.0,0.0072
3971.0,0.0072
3970.0,0.0072
3969.0,0.0072
3968.0,0.0072
3967.0,0.0072
3966.0,0.0072
3965.0,0.0072
3964.0,0.0072
3963.0,0.0072
3962.0,0.0072
3961.0,0.0072
3960.0,0.0073
3959.0,0.0073
3958.0,0.0072
3957.0,0.0072
3956.0,0.0072
3955.0,0.0073
3954.0,0.0073
3953.0,0.0073
3952.0,0.0074
3951.0,0.0073
3950.0,0.0073
3949.0,0.0073
3948.0,0.0073
3947.0,0.0073
3946.0,0.0073
3945.0,0.0072
3944.0,0.0072
3943.0,0.0072
3942.0,0.0072
3941.0,0.0073
3940.0,0.0074
3939.0,0.0074
3938.0,0.0073
3937.0,0.0073
3936.0,0.0073
3935.0,0.0073
3934.0,0.0073
3933.0,0.0072
3932.0,0.0072
3931.0,0.0072
3930.0,0.0072
3929.0,0.0072
3928.0,0.0072
3927.0,0.0072
3926.0,0.0072
3925.0,0.0072
3924.0,0.0072
3923.0,0.0073
3922.0,0.0074
3921.0,0.0075
3920.0,0.0076
3919.0,0.0076
3918.0,0.0076
3917.0,0.0075
3916.0,0.0075
3915.0,0.0074
3914.0,0.0074
3913.0,0.0075
3912.0,0.0075
3911.0,0.0076
3910.0,0.0077
3909.0,0.0077
3908.0,0.0077
3907.0,0.0076
3906.0,0.0075
3905.0,0.0075
3904.0,0.0074
3903.0,0.0073
3902.0,0.0072
3901.0,0.0072
3900.0,0.0073
3899.0,0.0075
3898.0,0.0076
3897.0,0.0076
3896.0,0.0076
3895.0,0.0075
3894.0,0.0075
3893.0,0.0075
3892.0,0.0075
3891.0,0.0075
3890.0,0.0075
3889.0,0.0075
3888.0,0.0074
3887.0,0.0074
3886.0,0.0075
3885.0,0.0075
3884.0,0.0075
3883.0,0.0075
3882.0,0.0075
3881.0,0.0074
3880.0,0.0074
3879.0,0.0075
3878.0,0.0076
3877.0,0.0077
3876.0,0.0077
3875.0,0.0077
3874.0,0.0076
3873.0,0.0075
3872.0,0.0074
3871.0,0.0074
3870.0,0.0074
3869.0,0.0074
3868.0,0.0075
3867.0,0.0076
3866.0,0.0077
3865.0,0.0077
3864.0,0.0076
3863.0,0.0076
3862.0,0.0076
3861.0,0.0077
3860.0,0.0078
3859.0,0.0079
3858.0,0.0079
3857.0,0.0079
3856.0,0.008
3855.0,0.0081
3854.0,0.0081
3853.0,0.008
3852.0,0.0079
3851.0,0.0079
3850.0,0.0078
3849.0,0.0078
3848.0,0.0078
3847.0,0.0077
3846.0,0.0077
3845.0,0.0077
3844.0,0.0078
3843.0,0.0079
3842.0,0.008
3841.0,0.008
3840.0,0.008
3839.0,0.008
3838.0,0.008
3837.0,0.008
3836.0,0.008
3835.0,0.008
3834.0,0.0081
3833.0,0.0081
3832.0,0.008
3831.0,0.008
3830.0,0.008
3829.0,0.0079
3828.0,0.0079
3827.0,0.0079
3826.0,0.0078
3825.0,0.0078
3824.0,0.0077
3823.0,0.0076
3822.0,0.0076
3821.0,0.0076
3820.0,0.0077
3819.0,0.0078
3818.0,0.0079
3817.0,0.008
3816.0,0.008
3815.0,0.008
3814.0,0.0081
3813.0,0.0081
3812.0,0.0081
3811.0,0.008
3810.0,0.008
3809.0,0.0079
3808.0,0.0079
3807.0,0.0079
3806.0,0.0079
3805.0,0.0079
3804.0,0.008
3803.0,0.0082
3802.0,0.0083
3801.0,0.0083
3800.0,0.0082
3799.0,0.008
3798.0,0.008
3797.0,0.0079
3796.0,0.0079
3795.0,0.0079
3794.0,0.008
3793.0,0.0081
3792.0,0.0081
3791.0,0.0081
3790.0,0.0081
3789.0,0.0081
3788.0,0.0081
3787.0,0.0082
3786.0,0.0082
3785.0,0.0081
3784.0,0.0081
3783.0,0.008
3782.0,0.008
3781.0,0.0081
3780.0,0.0081
3779.0,0.0082
3778.0,0.0082
3777.0,0.0082
3776.0,0.0082
3775.0,0.0082
3774.0,0.0082
3773.0,0.0082
3772.0,0.0082
3771.0,0.0082
3770.0,0.0082
3769.0,0.0082
3768.0,0.0081
3767.0,0.0081
3766.0,0.0081
3765.0,0.0081
3764.0,0.0082
3763.0,0.0082
3762.0,0.0082
3761.0,0.0082
3760.0,0.0082
3759.0,0.0082
3758.0,0.0083
3757.0,0.0084
3756.0,0.0083
3755.0,0.0082
3754.0,0.008
3753.0,0.0078
3752.0,0.0078
3751.0,0.0079
3750.0,0.0081
3749.0,0.0081
3748.0,0.0081
3747.0,0.0081
3746.0,0.008
3745.0,0.0082
3744.0,0.0084
3743.0,0.0085
3742.0,0.0086
3741.0,0.0085
3740.0,0.0085
3739.0,0.0085
3738.0,0.0085
3737.0,0.0086
3736.0,0.0086
3735.0,0.0085
3734.0,0.0084
3733.0,0.0085
3732.0,0.0086
3731.0,0.0087
3730.0,0.0088
3729.0,0.0089
3728.0,0.0089
3727.0,0.0089
3726.0,0.0088
3725.0,0.0087
3724.0,0.0087
3723.0,0.0087
3722.0,0.0087
3721.0,0.0087
3720.0,0.0086
3719.0,0.0086
3718.0,0.0085
3717.0,0.0085
3716.0,0.0085
3715.0,0.0085
3714.0,0.0085
3713.0,0.0085
3712.0,0.0085
3711.0,0.0085
3710.0,0.0085
3709.0,0.0084
3708.0,0.0084
3707.0,0.0084
3706.0,0.0085
3705.0,0.0085
3704.0,0.0085
3703.0,0.0085
3702.0,0.0086
3701.0,0.0086
3700.0,0.0086
3699.0,0.0086
3698.0,0.0086
3697.0,0.0086
3696.0,0.0085
3695.0,0.0084
3694.0,0.0084
3693.0,0.0084
3692.0,0.0084
3691.0,0.0084
3690.0,0.0084
3689.0,0.0085
3688.0,0.0085
3687.0,0.0086
3686.0,0.0087
3685.0,0.0088
3684.0,0.0088
3683.0,0.0087
3682.0,0.0087
3681.0,0.0086
3680.0,0.0086
3679.0,0.0087
3678.0,0.0089
3677.0,0.009
3676.0,0.009
3675.0,0.0088
3674.0,0.0087
3673.0,0.0087
3672.0,0.0088
3671.0,0.0089
3670.0,0.0089
3669.0,0.0089
3668.0,0.0088
3667.0,0.0087
3666.0,0.0087
3665.0,0.0087
3664.0,0.0087
3663.0,0.0087
3662.0,0.0087
3661.0,0.0086
3660.0,0.0086
3659.0,0.0087
3658.0,0.0088
3657.0,0.0089
3656.0,0.009
3655.0,0.009
3654.0,0.009
3653.0,0.0089
3652.0,0.0089
3651.0,0.0089
3650.0,0.0089
3649.0,0.0088
3648.0,0.0086
3647.0,0.0085
3646.0,0.0086
3645.0,0.0087
3644.0,0.0088
3643.0,0.0089
3642.0,0.009
3641.0,0.0091
3640.0,0.0091
3639.0,0.0091
3638.0,0.009
3637.0,0.009
3636.0,0.009
3635.0,0.0091
3634.0,0.0092
3633.0,0.0091
3632.0,0.009
3631.0,0.0088
3630.0,0.0089
3629.0,0.009
3628.0,0.0092
3627.0,0.0092
3626.0,0.0092
3625.0,0.0092
3624.0,0.0092
3623.0,0.0091
3622.0,0.0091
3621.0,0.009
3620.0,0.0091
3619.0,0.0091
3618.0,0.0091
3617.0,0.0091
3616.0,0.0091
3615.0,0.0091
3614.0,0.0092
3613.0,0.0092
3612.0,0.0092
3611.0,0.0093
3610.0,0.0094
3609.0,0.0096
3608.0,0.0097
3607.0,0.0097
3606.0,0.0096
3605.0,0.0096
3604.0,0.0095
3603.0,0.0095
3602.0,0.0095
3601.0,0.0094
3600.0,0.0094
3599.0,0.0094
3598.0,0.0095
3597.0,0.0096
3596.0,0.0097
3595.0,0.0098
3594.0,0.0097
3593.0,0.0096
3592.0,0.0095
3591.0,0.0094
3590.0,0.0094
3589.0,0.0094
3588.0,0.0095
3587.0,0.0096
3586.0,0.0097
3585.0,0.0098
3584.0,0.0098
3583.0,0.0097
3582.0,0.0096
3581.0,0.0096
3580.0,0.0096
3579.0,0.0097
3578.0,0.0098
3577.0,0.0099
3576.0,0.0099
3575.0,0.0098
3574.0,0.0098
3573.0,0.0098
3572.0,0.0098
3571.0,0.0099
3570.0,0.01
3569.0,0.0102
3568.0,0.0102
3567.0,0.0101
3566.0,0.01
3565.0,0.0098
3564.0,0.0097
3563.0,0.0097
3562.0,0.0097
3561.0,0.0098
3560.0,0.0099
3559.0,0.0099
3558.0,0.01
3557.0,0.0101
3556.0,0.0101
3555.0,0.0102
3554.0,0.0102
3553.0,0.0102
3552.0,0.0101
3551.0,0.01
3550.0,0.01
3549.0,0.01
3548.0,0.0101
3547.0,0.0102
3546.0,0.0103
3545.0,0.0103
3544.0,0.0103
3543.0,0.0103
3542.0,0.0104
3541.0,0.0104
3540.0,0.0104
3539.0,0.0104
3538.0,0.0103
3537.0,0.0103
3536.0,0.0102
3535.0,0.0102
3534.0,0.0103
3533.0,0.0104
3532.0,0.0105
3531.0,0.0105
3530.0,0.0105
3529.0,0.0104
3528.0,0.0104
3527.0,0.0104
3526.0,0.0104
3525.0,0.0104
3524.0,0.0104
3523.0,0.0104
3522.0,0.0105
3521.0,0.0105
3520.0,0.0105
3519.0,0.0105
3518.0,0.0105
3517.0,0.0106
3516.0,0.0105
3515.0,0.0105
3514.0,0.0105
3513.0,0.0104
3512.0,0.0104
3511.0,0.0105
3510.0,0.0104
3509.0,0.0104
3508.0,0.0104
3507.0,0.0104
3506.0,0.0105
3505.0,0.0105
3504.0,0.0106
3503.0,0.0106
3502.0,0.0106
3501.0,0.0107
3500.0,0.0107
3499.0,0.0108
3498.0,0.0109
3497.0,0.011
3496.0,0.011
3495.0,0.011
3494.0,0.011
3493.0,0.0109
3492.0,0.0109
3491.0,0.0109
3490.0,0.0109
3489.0,0.0108
3488.0,0.0108
3487.0,0.0108
3486.0,0.0109
3485.0,0.011
3484.0,0.0111
3483.0,0.0112
3482.0,0.0113
3481.0,0.0113
3480.0,0.0113
3479.0,0.0112
3478.0,0.0112
3477.0,0.0112
3476.0,0.0111
3475.0,0.0112
3474.0,0.0112
3473.0,0.0112
3472.0,0.0113
3471.0,0.0113
3470.0,0.0113
3469.0,0.0113
3468.0,0.0114
3467.0,0.0114
3466.0,0.0114
3465.0,0.0115
3464.0,0.0116
3463.0,0.0117
3462.0,0.0117
3461.0,0.0117
3460.0,0.0117
3459.0,0.0116
3458.0,0.0116
3457.0,0.0115
3456.0,0.0115
3455.0,0.0115
3454.0,0.0115
3453.0,0.0115
3452.0,0.0115
3451.0,0.0114
3450.0,0.0115
3449.0,0.0116
3448.0,0.0117
3447.0,0.0117
3446.0,0.0118
3445.0,0.0118
3444.0,0.0118
3443.0,0.0118
3442.0,0.0118
3441.0,0.0118
3440.0,0.0118
3439.0,0.0119
3438.0,0.012
3437.0,0.0121
3436.0,0.0122
3435.0,0.0122
3434.0,0.0121
3433.0,0.0121
3432.0,0.0121
3431.0,0.0121
3430.0,0.0122
3429.0,0.0122
3428.0,0.0122
3427.0,0.0122
3426.0,0.0122
3425.0,0.0123
3424.0,0.0123
3423.0,0.0123
3422.0,0.0123
3421.0,0.0123
3420.0,0.0123
3419.0,0.0123
3418.0,0.0124
3417.0,0.0124
3416.0,0.0125
3415.0,0.0124
3414.0,0.0123
3413.0,0.0122
3412.0,0.0121
3411.0,0.0121
3410.0,0.0122
3409.0,0.0123
3408.0,0.0124
3407.0,0.0124
3406.0,0.0124
3405.0,0.0124
3404.0,0.0125
3403.0,0.0126
3402.0,0.0126
3401.0,0.0125
3400.0,0.0124
3399.0,0.0124
3398.0,0.0124
3397.0,0.0124
3396.0,0.0125
3395.0,0.0125
3394.0,0.0125
3393.0,0.0124
3392.0,0.0124
3391.0,0.0124
3390.0,0.0124
3389.0,0.0125
3388.0,0.0125
3387.0,0.0125
3386.0,0.0125
3385.0,0.0125
3384.0,0.0125
3383.0,0.0124
3382.0,0.0123
3381.0,0.0123
3380.0,0.0123
3379.0,0.0123
3378.0,0.0123
3377.0,0.0123
3376.0,0.0123
3375.0,0.0122
3374.0,0.0122
3373.0,0.0122
3372.0,0.0122
3371.0,0.0122
3370.0,0.0121
3369.0,0.0121
3368.0,0.012
3367.0,0.012
3366.0,0.012
3365.0,0.012
3364.0,0.012
3363.0,0.0121
3362.0,0.012
3361.0,0.012
3360.0,0.0119
3359.0,0.0118
3358.0,0.0117
3357.0,0.0117
3356.0,0.0117
3355.0,0.0117
3354.0,0.0117
3353.0,0.0118
3352.0,0.0118
3351.0,0.0118
3350.0,0.0118
3349.0,0.0118
3348.0,0.0118
3347.0,0.0118
3346.0,0.0119
3345.0,0.0119
3344.0,0.0118
3343.0,0.0118
3342.0,0.0117
3341.0,0.0117
3340.0,0.0117
3339.0,0.0117
3338.0,0.0116
3337.0,0.0115
3336.0,0.0115
3335.0,0.0115
3334.0,0.0116
3333.0,0.0117
3332.0,0.0117
3331.0,0.0116
3330.0,0.0115
3329.0,0.0115
3328.0,0.0115
3327.0,0.0115
3326.0,0.0115
3325.0,0.0116
3324.0,0.0115
3323.0,0.0115
3322.0,0.0115
3321.0,0.0115
3320.0,0.0115
3319.0,0.0115
3318.0,0.0115
3317.0,0.0115
3316.0,0.0115
3315.0,0.0115
3314.0,0.0114
3313.0,0.0114
3312.0,0.0113
3311.0,0.0113
3310.0,0.0113
3309.0,0.0113
3308.0,0.0113
3307.0,0.0112
3306.0,0.0112
3305.0,0.0112
3304.0,0.0112
3303.0,0.0113
3302.0,0.0113
3301.0,0.0113
3300.0,0.0113
3299.0,0.0113
3298.0,0.0113
3297.0,0.0114
3296.0,0.0114
3295.0,0.0114
3294.0,0.0113
3293.0,0.0113
3292.0,0.0113
3291.0,0.0113
3290.0,0.0113
3289.0,0.0113
3288.0,0.0113
3287.0,0.0113
3286.0,0.0113
3285.0,0.0113
3284.0,0.0113
3283.0,0.0113
3282.0,0.0113
3281.0,0.0113
3280.0,0.0113
3279.0,0.0113
3278.0,0.0114
3277.0,0.0115
3276.0,0.0115
3275.0,0.0114
3274.0,0.0113
3273.0,0.0112
3272.0,0.0112
3271.0,0.0112
3270.0,0.0112
3269.0,0.0112
3268.0,0.0112
3267.0,0.0112
3266.0,0.0112
3265.0,0.0113
3264.0,0.0114
3263.0,0.0113
3262.0,0.0112
3261.0,0.0111
3260.0,0.011
3259.0,0.0109
3258.0,0.0109
3257.0,0.0109
3256.0,0.0109
3255.0,0.011
3254.0,0.011
3253.0,0.0111
3252.0,0.0111
3251.0,0.011
3250.0,0.011
3249.0,0.011
3248.0,0.011
3247.0,0.011
3246.0,0.0111
3245.0,0.0112
3244.0,0.0111
3243.0,0.0111
3242.0,0.011
3241.0,0.011
3240.0,0.0109
3239.0,0.0109
3238.0,0.0109
3237.0,0.0109
3236.0,0.0108
3235.0,0.0108
3234.0,0.0108
3233.0,0.0109
3232.0,0.011
3231.0,0.011
3230.0,0.011
3229.0,0.0109
3228.0,0.0109
3227.0,0.0108
3226.0,0.0107
3225.0,0.0107
3224.0,0.0107
3223.0,0.0106
3222.0,0.0107
3221.0,0.0107
3220.0,0.0107
3219.0,0.0107
3218.0,0.0107
3217.0,0.0107
3216.0,0.0106
3215.0,0.0106
3214.0,0.0106
3213.0,0.0107
3212.0,0.0107
3211.0,0.0107
3210.0,0.0106
3209.0,0.0105
3208.0,0.0105
3207.0,0.0105
3206.0,0.0105
3205.0,0.0106
3204.0,0.0106
3203.0,0.0106
3202.0,0.0106
3201.0,0.0106
3200.0,0.0106
3199.0,0.0105
3198.0,0.0105
3197.0,0.0106
3196.0,0.0106
3195.0,0.0106
3194.0,0.0106
3193.0,0.0106
3192.0,0.0106
3191.0,0.0106
3190.0,0.0106
3189.0,0.0107
3188.0,0.0106
3187.0,0.0106
3186.0,0.0105
3185.0,0.0105
3184.0,0.0104
3183.0,0.0104
3182.0,0.0104
3181.0,0.0105
3180.0,0.0106
3179.0,0.0106
3178.0,0.0106
3177.0,0.0105
3176.0,0.0105
3175.0,0.0104
3174.0,0.0104
3173.0,0.0103
3172.0,0.0103
3171.0,0.0102
3170.0,0.0102
3169.0,0.0103
3168.0,0.0103
3167.0,0.0102
3166.0,0.0102
3165.0,0.0102
3164.0,0.0101
3163.0,0.0101
3162.0,0.0101
3161.0,0.0101
3160.0,0.0101
3159.0,0.0101
3158.0,0.0101
3157.0,0.0101
3156.0,0.0101
3155.0,0.0101
3154.0,0.0101
3153.0,0.0101
3152.0,0.0102
3151.0,0.0102
3150.0,0.0101
3149.0,0.0101
3148.0,0.0102
3147.0,0.0102
3146.0,0.0102
3145.0,0.0102
3144.0,0.0101
3143.0,0.0101
3142.0,0.0101
3141.0,0.0101
3140.0,0.0101
3139.0,0.01
3138.0,0.01
3137.0,0.0099
3136.0,0.0099
3135.0,0.01
3134.0,0.01
3133.0,0.0099
3132.0,0.0099
3131.0,0.0098
3130.0,0.0098
3129.0,0.0098
3128.0,0.0099
3127.0,0.0099
3126.0,0.0099
3125.0,0.0098
3124.0,0.0098
3123.0,0.0098
3122.0,0.0097
3121.0,0.0097
3120.0,0.0096
3119.0,0.0096
3118.0,0.0096
3117.0,0.0096
3116.0,0.0096
3115.0,0.0096
3114.0,0.0096
3113.0,0.0096
3112.0,0.0097
3111.0,0.0097
3110.0,0.0097
3109.0,0.0098
3108.0,0.0098
3107.0,0.0099
3106.0,0.01
3105.0,0.0101
3104.0,0.0101
3103.0,0.0101
3102.0,0.0101
3101.0,0.01
3100.0,0.01
3099.0,0.01
3098.0,0.0099
3097.0,0.0099
3096.0,0.0099
3095.0,0.01
3094.0,0.01
3093.0,0.01
3092.0,0.0101
3091.0,0.0101
3090.0,0.0102
3089.0,0.0103
3088.0,0.0106
3087.0,0.0109
3086.0,0.0112
3085.0,0.0115
3084.0,0.0117
3083.0,0.0119
3082.0,0.0119
3081.0,0.0119
3080.0,0.0117
3079.0,0.0116
3078.0,0.0115
3077.0,0.0113
3076.0,0.0112
3075.0,0.0111
3074.0,0.0109
3073.0,0.0109
3072.0,0.0109
3071.0,0.011
3070.0,0.0111
3069.0,0.0112
3068.0,0.0114
3067.0,0.0116
3066.0,0.0119
3065.0,0.0121
3064.0,0.0124
3063.0,0.0127
3062.0,0.0129
3061.0,0.0131
3060.0,0.0133
3059.0,0.0133
3058.0,0.0133
3057.0,0.0132
3056.0,0.013
3055.0,0.0127
3054.0,0.0125
3053.0,0.0123
3052.0,0.0121
3051.0,0.0119
3050.0,0.0118
3049.0,0.0116
3048.0,0.0115
3047.0,0.0113
3046.0,0.0113
3045.0,0.0112
3044.0,0.0112
3043.0,0.0111
3042.0,0.0111
3041.0,0.0111
3040.0,0.0111
3039.0,0.0112
3038.0,0.0113
3037.0,0.0115
3036.0,0.0117
3035.0,0.012
3034.0,0.0124
3033.0,0.0129
3032.0,0.0134
3031.0,0.0141
3030.0,0.0148
3029.0,0.0156
3028.0,0.0164
3027.0,0.017
3026.0,0.0176
3025.0,0.0178
3024.0,0.0179
3023.0,0.0177
3022.0,0.0173
3021.0,0.0168
3020.0,0.0162
3019.0,0.0157
3018.0,0.0151
3017.0,0.0147
3016.0,0.0143
3015.0,0.0139
3014.0,0.0135
3013.0,0.0132
3012.0,0.013
3011.0,0.0128
3010.0,0.0126
3009.0,0.0125
3008.0,0.0125
3007.0,0.0124
3006.0,0.0124
3005.0,0.0125
3004.0,0.0125
3003.0,0.0125
3002.0,0.0126
3001.0,0.0126
3000.0,0.0126
2999.0,0.0125
2998.0,0.0124
2997.0,0.0122
2996.0,0.012
2995.0,0.0118
2994.0,0.0117
2993.0,0.0115
2992.0,0.0114
2991.0,0.0113
2990.0,0.0112
2989.0,0.0111
2988.0,0.011
2987.0,0.0109
2986.0,0.0109
2985.0,0.0108
2984.0,0.0108
2983.0,0.0108
2982.0,0.0108
2981.0,0.0108
2980.0,0.0108
2979.0,0.0108
2978.0,0.0108
2977.0,0.0107
2976.0,0.0107
2975.0,0.0107
2974.0,0.0106
2973.0,0.0106
2972.0,0.0106
2971.0,0.0105
2970.0,0.0105
2969.0,0.0106
2968.0,0.0106
2967.0,0.0106
2966.0,0.0106
2965.0,0.0106
2964.0,0.0107
2963.0,0.0108
2962.0,0.0109
2961.0,0.0109
2960.0,0.011
2959.0,0.011
2958.0,0.0111
2957.0,0.0111
2956.0,0.0112
2955.0,0.0112
2954.0,0.0112
2953.0,0.0113
2952.0,0.0114
2951.0,0.0116
2950.0,0.0117
2949.0,0.0118
2948.0,0.0119
2947.0,0.012
2946.0,0.0121
2945.0,0.0123
2944.0,0.0125
2943.0,0.0127
2942.0,0.0129
2941.0,0.0132
2940.0,0.0135
2939.0,0.0138
2938.0,0.0141
2937.0,0.0146
2936.0,0.0151
2935.0,0.0155
2934.0,0.016
2933.0,0.0165
2932.0,0.017
2931.0,0.0175
2930.0,0.0181
2929.0,0.0186
2928.0,0.0191
2927.0,0.0196
2926.0,0.0199
2925.0,0.0202
2924.0,0.0204
2923.0,0.0206
2922.0,0.0209
2921.0,0.021
2920.0,0.0212
2919.0,0.0212
2918.0,0.0212
2917.0,0.0212
2916.0,0.0212
2915.0,0.0212
2914.0,0.021
2913.0,0.0208
2912.0,0.0206
2911.0,0.0204
2910.0,0.0202
2909.0,0.02
2908.0,0.0199
2907.0,0.0197
2906.0,0.0196
2905.0,0.0194
2904.0,0.0192
2903.0,0.0191
2902.0,0.0188
2901.0,0.0186
2900.0,0.0183
2899.0,0.018
2898.0,0.0178
2897.0,0.0176
2896.0,0.0174
2895.0,0.0172
2894.0,0.017
2893.0,0.0168
2892.0,0.0167
2891.0,0.0167
2890.0,0.0166
2889.0,0.0165
2888.0,0.0164
2887.0,0.0163
2886.0,0.0162
2885.0,0.016
2884.0,0.0159
2883.0,0.0158
2882.0,0.0157
2881.0,0.0156
2880.0,0.0154
2879.0,0.0153
2878.0,0.0151
2877.0,0.015
2876.0,0.015
2875.0,0.0149
2874.0,0.0149
2873.0,0.0149
2872.0,0.0148
2871.0,0.0148
2870.0,0.0148
2869.0,0.0148
2868.0,0.0148
2867.0,0.0148
2866.0,0.0148
2865.0,0.0148
2864.0,0.0149
2863.0,0.0149
2862.0,0.015
2861.0,0.0151
2860.0,0.0152
2859.0,0.0154
2858.0,0.0157
2857.0,0.016
2856.0,0.0162
2855.0,0.0165
2854.0,0.0166
2853.0,0.0168
2852.0,0.0169
2851.0,0.017
2850.0,0.0172
2849.0,0.0173
2848.0,0.0173
2847.0,0.0173
2846.0,0.0173
2845.0,0.0172
2844.0,0.017
2843.0,0.0168
2842.0,0.0166
2841.0,0.0164
2840.0,0.0161
2839.0,0.0158
2838.0,0.0155
2837.0,0.0152
2836.0,0.015
2835.0,0.0148
2834.0,0.0146
2833.0,0.0145
2832.0,0.0143
2831.0,0.0142
2830.0,0.0141
2829.0,0.014
2828.0,0.014
2827.0,0.0139
2826.0,0.0138
2825.0,0.0137
2824.0,0.0137
2823.0,0.0137
2822.0,0.0136
2821.0,0.0136
2820.0,0.0135
2819.0,0.0135
2818.0,0.0135
2817.0,0.0134
2816.0,0.0134
2815.0,0.0134
2814.0,0.0133
2813.0,0.0133
2812.0,0.0132
2811.0,0.0132
2810.0,0.0132
2809.0,0.0132
2808.0,0.0132
2807.0,0.0132
2806.0,0.0132
2805.0,0.0132
2804.0,0.0131
2803.0,0.0131
2802.0,0.013
2801.0,0.013
2800.0,0.013
2799.0,0.013
2798.0,0.013
2797.0,0.013
2796.0,0.013
2795.0,0.0129
2794.0,0.0129
2793.0,0.0128
2792.0,0.0128
2791.0,0.0128
2790.0,0.0129
2789.0,0.0129
2788.0,0.0129
2787.0,0.013
2786.0,0.013
2785.0,0.013
2784.0,0.013
2783.0,0.0129
2782.0,0.0129
2781.0,0.0129
2780.0,0.0129
2779.0,0.0129
2778.0,0.0129
2777.0,0.0128
2776.0,0.0128
2775.0,0.0127
2774.0,0.0127
2773.0,0.0127
2772.0,0.0127
2771.0,0.0127
2770.0,0.0127
2769.0,0.0127
2768.0,0.0127
2767.0,0.0127
2766.0,0.0127
2765.0,0.0127
2764.0,0.0127
2763.0,0.0127
2762.0,0.0127
2761.0,0.0127
2760.0,0.0127
2759.0,0.0127
2758.0,0.0128
2757.0,0.0128
2756.0,0.0127
2755.0,0.0126
2754.0,0.0126
2753.0,0.0126
2752.0,0.0127
2751.0,0.0127
2750.0,0.0128
2749.0,0.0128
2748.0,0.0128
2747.0,0.0127
2746.0,0.0126
2745.0,0.0126
2744.0,0.0125
2743.0,0.0125
2742.0,0.0125
2741.0,0.0125
2740.0,0.0126
2739.0,0.0126
2738.0,0.0126
2737.0,0.0126
2736.0,0.0126
2735.0,0.0126
2734.0,0.0126
2733.0,0.0126
2732.0,0.0126
2731.0,0.0125
2730.0,0.0125
2729.0,0.0125
2728.0,0.0125
2727.0,0.0125
2726.0,0.0125
2725.0,0.0125
2724.0,0.0125
2723.0,0.0125
2722.0,0.0125
2721.0,0.0125
2720.0,0.0125
2719.0,0.0125
2718.0,0.0125
2717.0,0.0126
2716.0,0.0127
2715.0,0.0127
2714.0,0.0126
2713.0,0.0126
2712.0,0.0126
2711.0,0.0126
2710.0,0.0126
2709.0,0.0126
2708.0,0.0125
2707.0,0.0125
2706.0,0.0125
2705.0,0.0126
2704.0,0.0126
2703.0,0.0126
2702.0,0.0126
2701.0,0.0126
2700.0,0.0126
2699.0,0.0126
2698.0,0.0126
2697.0,0.0125
2696.0,0.0125
2695.0,0.0125
2694.0,0.0125
2693.0,0.0125
2692.0,0.0125
2691.0,0.0125
2690.0,0.0124
2689.0,0.0124
2688.0,0.0125
2687.0,0.0125
2686.0,0.0126
2685.0,0.0126
2684.0,0.0125
2683.0,0.0125
2682.0,0.0124
2681.0,0.0124
2680.0,0.0125
2679.0,0.0125
2678.0,0.0126
2677.0,0.0126
2676.0,0.0126
2675.0,0.0125
2674.0,0.0125
2673.0,0.0124
2672.0,0.0124
2671.0,0.0124
2670.0,0.0125
2669.0,0.0125
2668.0,0.0126
2667.0,0.0126
2666.0,0.0125
2665.0,0.0125
2664.0,0.0125
2663.0,0.0125
2662.0,0.0126
2661.0,0.0125
2660.0,0.0125
2659.0,0.0125
2658.0,0.0125
2657.0,0.0125
2656.0,0.0125
2655.0,0.0125
2654.0,0.0125
2653.0,0.0124
2652.0,0.0124
2651.0,0.0124
2650.0,0.0123
2649.0,0.0123
2648.0,0.0124
2647.0,0.0124
2646.0,0.0124
2645.0,0.0124
2644.0,0.0124
2643.0,0.0124
2642.0,0.0124
2641.0,0.0125
2640.0,0.0125
2639.0,0.0126
2638.0,0.0126
2637.0,0.0125
2636.0,0.0125
2635.0,0.0125
2634.0,0.0125
2633.0,0.0125
2632.0,0.0125
2631.0,0.0124
2630.0,0.0124
2629.0,0.0124
2628.0,0.0124
2627.0,0.0124
2626.0,0.0124
2625.0,0.0124
2624.0,0.0124
2623.0,0.0124
2622.0,0.0124
2621.0,0.0124
2620.0,0.0124
2619.0,0.0124
2618.0,0.0124
2617.0,0.0124
2616.0,0.0125
2615.0,0.0125
2614.0,0.0124
2613.0,0.0124
2612.0,0.0124
2611.0,0.0124
2610.0,0.0124
2609.0,0.0124
2608.0,0.0124
2607.0,0.0124
2606.0,0.0124
2605.0,0.0124
2604.0,0.0124
2603.0,0.0124
2602.0,0.0123
2601.0,0.0123
2600.0,0.0123
2599.0,0.0123
2598.0,0.0124
2597.0,0.0124
2596.0,0.0123
2595.0,0.0123
2594.0,0.0123
2593.0,0.0123
2592.0,0.0123
2591.0,0.0124
2590.0,0.0124
2589.0,0.0124
2588.0,0.0124
2587.0,0.0124
2586.0,0.0124
2585.0,0.0123
2584.0,0.0123
2583.0,0.0123
2582.0,0.0123
2581.0,0.0123
2580.0,0.0123
2579.0,0.0124
2578.0,0.0124
2577.0,0.0125
2576.0,0.0125
2575.0,0.0125
2574.0,0.0124
2573.0,0.0124
2572.0,0.0124
2571.0,0.0124
2570.0,0.0124
2569.0,0.0124
2568.0,0.0123
2567.0,0.0123
2566.0,0.0124
2565.0,0.0124
2564.0,0.0124
2563.0,0.0124
2562.0,0.0124
2561.0,0.0123
2560.0,0.0123
2559.0,0.0123
2558.0,0.0123
2557.0,0.0124
2556.0,0.0124
2555.0,0.0123
2554.0,0.0123
2553.0,0.0122
2552.0,0.0122
2551.0,0.0122
2550.0,0.0123
2549.0,0.0124
2548.0,0.0124
2547.0,0.0124
2546.0,0.0123
2545.0,0.0123
2544.0,0.0123
2543.0,0.0123
2542.0,0.0123
2541.0,0.0122
2540.0,0.0122
2539.0,0.0122
2538.0,0.0123
2537.0,0.0123
2536.0,0.0123
2535.0,0.0123
2534.0,0.0123
2533.0,0.0123
2532.0,0.0124
2531.0,0.0124
2530.0,0.0124
2529.0,0.0124
2528.0,0.0124
2527.0,0.0124
2526.0,0.0124
2525.0,0.0124
2524.0,0.0124
2523.0,0.0124
2522.0,0.0124
2521.0,0.0124
2520.0,0.0123
2519.0,0.0123
2518.0,0.0123
2517.0,0.0123
2516.0,0.0123
2515.0,0.0123
2514.0,0.0123
2513.0,0.0124
2512.0,0.0124
2511.0,0.0124
2510.0,0.0124
2509.0,0.0123
2508.0,0.0123
2507.0,0.0123
2506.0,0.0123
2505.0,0.0123
2504.0,0.0123
2503.0,0.0123
2502.0,0.0123
2501.0,0.0123
2500.0,0.0123
2499.0,0.0123
2498.0,0.0123
2497.0,0.0124
2496.0,0.0124
2495.0,0.0124
2494.0,0.0124
2493.0,0.0124
2492.0,0.0124
2491.0,0.0124
2490.0,0.0124
2489.0,0.0123
2488.0,0.0123
2487.0,0.0123
2486.0,0.0124
2485.0,0.0124
2484.0,0.0124
2483.0,0.0124
2482.0,0.0123
2481.0,0.0123
2480.0,0.0124
2479.0,0.0124
2478.0,0.0124
2477.0,0.0124
2476.0,0.0124
2475.0,0.0124
2474.0,0.0123
2473.0,0.0122
2472.0,0.0122
2471.0,0.0122
2470.0,0.0122
2469.0,0.0122
2468.0,0.0122
2467.0,0.0122
2466.0,0.0122
2465.0,0.0122
2464.0,0.0122
2463.0,0.0122
2462.0,0.0122
2461.0,0.0122
2460.0,0.0123
2459.0,0.0123
2458.0,0.0123
2457.0,0.0123
2456.0,0.0123
2455.0,0.0123
2454.0,0.0123
2453.0,0.0122
2452.0,0.0122
2451.0,0.0122
2450.0,0.0122
2449.0,0.0122
2448.0,0.0122
2447.0,0.0122
2446.0,0.0122
2445.0,0.0122
2444.0,0.0122
2443.0,0.0121
2442.0,0.0121
2441.0,0.0121
2440.0,0.0121
2439.0,0.0121
2438.0,0.0121
2437.0,0.0121
2436.0,0.0121
2435.0,0.0121
2434.0,0.0121
2433.0,0.0121
2432.0,0.0122
2431.0,0.0122
2430.0,0.0122
2429.0,0.0122
2428.0,0.0122
2427.0,0.0121
2426.0,0.0121
2425.0,0.0121
2424.0,0.0121
2423.0,0.0121
2422.0,0.0122
2421.0,0.0122
2420.0,0.0122
2419.0,0.0122
2418.0,0.0122
2417.0,0.0122
2416.0,0.0122
2415.0,0.0122
2414.0,0.0122
2413.0,0.0122
2412.0,0.0121
2411.0,0.0121
2410.0,0.0122
2409.0,0.0122
2408.0,0.0122
2407.0,0.0122
2406.0,0.0122
2405.0,0.0123
2404.0,0.0123
2403.0,0.0123
2402.0,0.0123
2401.0,0.0123
2400.0,0.0123
2399.0,0.0122
2398.0,0.0122
2397.0,0.0122
2396.0,0.0122
2395.0,0.0121
2394.0,0.0122
2393.0,0.0122
2392.0,0.0122
2391.0,0.0123
2390.0,0.0124
2389.0,0.0124
2388.0,0.0124
2387.0,0.0125
2386.0,0.0125
2385.0,0.0126
2384.0,0.0127
2383.0,0.0127
2382.0,0.0127
2381.0,0.0126
2380.0,0.0126
2379.0,0.0125
2378.0,0.0125
2377.0,0.0125
2376.0,0.0126
2375.0,0.0126
2374.0,0.0127
2373.0,0.0127
2372.0,0.0127
2371.0,0.0128
2370.0,0.0129
2369.0,0.0128
2368.0,0.0127
2367.0,0.0127
2366.0,0.0129
2365.0,0.0131
2364.0,0.0132
2363.0,0.0132
2362.0,0.013
2361.0,0.0129
2360.0,0.013
2359.0,0.0132
2358.0,0.0133
2357.0,0.0133
2356.0,0.013
2355.0,0.0128
2354.0,0.0126
2353.0,0.0125
2352.0,0.0125
2351.0,0.0128
2350.0,0.0132
2349.0,0.0134
2348.0,0.0133
2347.0,0.0132
2346.0,0.0134
2345.0,0.0141
2344.0,0.015
2343.0,0.0155
2342.0,0.0153
2341.0,0.0145
2340.0,0.0137
2339.0,0.0132
2338.0,0.013
2337.0,0.0127
2336.0,0.0123
2335.0,0.0118
2334.0,0.0114
2333.0,0.0113
2332.0,0.0117
2331.0,0.0124
2330.0,0.0133
2329.0,0.0141
2328.0,0.0147
2327.0,0.0149
2326.0,0.0147
2325.0,0.0142
2324.0,0.0136
2323.0,0.013
2322.0,0.0127
2321.0,0.0127
2320.0,0.0129
2319.0,0.0131
2318.0,0.0133
2317.0,0.0135
2316.0,0.0137
2315.0,0.0139
2314.0,0.0139
2313.0,0.0139
2312.0,0.0139
2311.0,0.0139
2310.0,0.0139
2309.0,0.0139
2308.0,0.0138
2307.0,0.0136
2306.0,0.0134
2305.0,0.0133
2304.0,0.0132
2303.0,0.0132
2302.0,0.0133
2301.0,0.0133
2300.0,0.0134
2299.0,0.0133
2298.0,0.0133
2297.0,0.0133
2296.0,0.0133
2295.0,0.0132
2294.0,0.0132
2293.0,0.0132
2292.0,0.0131
2291.0,0.013
2290.0,0.0129
2289.0,0.0129
2288.0,0.0128
2287.0,0.0128
2286.0,0.0128
2285.0,0.0128
2284.0,0.0127
2283.0,0.0127
2282.0,0.0127
2281.0,0.0126
2280.0,0.0126
2279.0,0.0126
2278.0,0.0125
2277.0,0.0125
2276.0,0.0125
2275.0,0.0125
2274.0,0.0126
2273.0,0.0126
2272.0,0.0126
2271.0,0.0126
2270.0,0.0125
2269.0,0.0125
2268.0,0.0125
2267.0,0.0125
2266.0,0.0125
2265.0,0.0125
2264.0,0.0126
2263.0,0.0126
2262.0,0.0126
2261.0,0.0126
2260.0,0.0126
2259.0,0.0126
2258.0,0.0126
2257.0,0.0126
2256.0,0.0125
2255.0,0.0125
2254.0,0.0125
2253.0,0.0125
2252.0,0.0126
2251.0,0.0126
2250.0,0.0125
2249.0,0.0125
2248.0,0.0125
2247.0,0.0124
2246.0,0.0124
2245.0,0.0124
2244.0,0.0124
2243.0,0.0124
2242.0,0.0123
2241.0,0.0123
2240.0,0.0123
2239.0,0.0124
2238.0,0.0124
2237.0,0.0124
2236.0,0.0125
2235.0,0.0125
2234.0,0.0124
2233.0,0.0124
2232.0,0.0124
2231.0,0.0125
2230.0,0.0125
2229.0,0.0125
2228.0,0.0125
2227.0,0.0125
2226.0,0.0125
2225.0,0.0125
2224.0,0.0125
2223.0,0.0125
2222.0,0.0125
2221.0,0.0125
2220.0,0.0125
2219.0,0.0125
2218.0,0.0125
2217.0,0.0125
2216.0,0.0124
2215.0,0.0124
2214.0,0.0124
2213.0,0.0124
2212.0,0.0125
2211.0,0.0125
2210.0,0.0125
2209.0,0.0125
2208.0,0.0125
2207.0,0.0125
2206.0,0.0125
2205.0,0.0125
2204.0,0.0126
2203.0,0.0126
2202.0,0.0126
2201.0,0.0126
2200.0,0.0126
2199.0,0.0125
2198.0,0.0124
2197.0,0.0124
2196.0,0.0124
2195.0,0.0125
2194.0,0.0125
2193.0,0.0125
2192.0,0.0125
2191.0,0.0125
2190.0,0.0126
2189.0,0.0126
2188.0,0.0126
2187.0,0.0126
2186.0,0.0125
2185.0,0.0125
2184.0,0.0126
2183.0,0.0126
2182.0,0.0126
2181.0,0.0126
2180.0,0.0126
2179.0,0.0126
2178.0,0.0126
2177.0,0.0126
2176.0,0.0126
2175.0,0.0126
2174.0,0.0127
2173.0,0.0126
2172.0,0.0126
2171.0,0.0126
2170.0,0.0125
2169.0,0.0125
2168.0,0.0126
2167.0,0.0126
2166.0,0.0126
2165.0,0.0126
2164.0,0.0126
2163.0,0.0127
2162.0,0.0126
2161.0,0.0126
2160.0,0.0126
2159.0,0.0126
2158.0,0.0126
2157.0,0.0127
2156.0,0.0127
2155.0,0.0126
2154.0,0.0126
2153.0,0.0125
2152.0,0.0125
2151.0,0.0126
2150.0,0.0126
2149.0,0.0126
2148.0,0.0126
2147.0,0.0127
2146.0,0.0127
2145.0,0.0127
2144.0,0.0127
2143.0,0.0127
2142.0,0.0127
2141.0,0.0126
2140.0,0.0126
2139.0,0.0126
2138.0,0.0127
2137.0,0.0127
2136.0,0.0127
2135.0,0.0127
2134.0,0.0127
2133.0,0.0127
2132.0,0.0127
2131.0,0.0127
2130.0,0.0127
2129.0,0.0127
2128.0,0.0126
2127.0,0.0126
2126.0,0.0126
2125.0,0.0126
2124.0,0.0127
2123.0,0.0127
2122.0,0.0126
2121.0,0.0126
2120.0,0.0126
2119.0,0.0126
2118.0,0.0126
2117.0,0.0126
2116.0,0.0126
2115.0,0.0126
2114.0,0.0126
2113.0,0.0125
2112.0,0.0125
2111.0,0.0125
2110.0,0.0125
2109.0,0.0125
2108.0,0.0126
2107.0,0.0126
2106.0,0.0127
2105.0,0.0127
2104.0,0.0127
2103.0,0.0127
2102.0,0.0127
2101.0,0.0127
2100.0,0.0127
2099.0,0.0127
2098.0,0.0127
2097.0,0.0127
2096.0,0.0127
2095.0,0.0127
2094.0,0.0127
2093.0,0.0127
2092.0,0.0127
2091.0,0.0127
2090.0,0.0126
2089.0,0.0126
2088.0,0.0126
2087.0,0.0126
2086.0,0.0126
2085.0,0.0126
2084.0,0.0127
2083.0,0.0127
2082.0,0.0127
2081.0,0.0127
2080.0,0.0127
2079.0,0.0127
2078.0,0.0127
2077.0,0.0127
2076.0,0.0127
2075.0,0.0128
2074.0,0.0128
2073.0,0.0128
2072.0,0.0127
2071.0,0.0127
2070.0,0.0127
2069.0,0.0127
2068.0,0.0126
2067.0,0.0127
2066.0,0.0127
2065.0,0.0127
2064.0,0.0128
2063.0,0.0128
2062.0,0.0129
2061.0,0.0129
2060.0,0.0128
2059.0,0.0128
2058.0,0.0128
2057.0,0.0128
2056.0,0.0128
2055.0,0.0129
2054.0,0.0129
2053.0,0.0129
2052.0,0.0129
2051.0,0.0128
2050.0,0.0128
2049.0,0.0128
2048.0,0.0128
2047.0,0.0128
2046.0,0.0128
2045.0,0.0128
2044.0,0.0128
2043.0,0.0128
2042.0,0.0129
2041.0,0.0128
2040.0,0.0128
2039.0,0.0128
2038.0,0.0128
2037.0,0.0128
2036.0,0.0129
2035.0,0.0129
2034.0,0.0129
2033.0,0.013
2032.0,0.013
2031.0,0.0129
2030.0,0.0129
2029.0,0.0129
2028.0,0.013
2027.0,0.013
2026.0,0.013
2025.0,0.013
2024.0,0.013
2023.0,0.0129
2022.0,0.0129
2021.0,0.0129
2020.0,0.0129
2019.0,0.0129
2018.0,0.0129
2017.0,0.0129
2016.0,0.0129
2015.0,0.0129
2014.0,0.0129
2013.0,0.0129
2012.0,0.013
2011.0,0.013
2010.0,0.013
2009.0,0.013
2008.0,0.013
2007.0,0.0129
2006.0,0.0129
2005.0,0.0129
2004.0,0.0129
2003.0,0.013
2002.0,0.013
2001.0,0.013
2000.0,0.0129
1999.0,0.0129
1998.0,0.0129
1997.0,0.0129
1996.0,0.0129
1995.0,0.0129
1994.0,0.0129
1993.0,0.013
1992.0,0.013
1991.0,0.013
1990.0,0.013
1989.0,0.013
1988.0,0.013
1987.0,0.013
1986.0,0.013
1985.0,0.013
1984.0,0.013
1983.0,0.0131
1982.0,0.0131
1981.0,0.0131
1980.0,0.0131
1979.0,0.013
1978.0,0.013
1977.0,0.013
1976.0,0.013
1975.0,0.013
1974.0,0.013
1973.0,0.0131
1972.0,0.0131
1971.0,0.0131
1970.0,0.0132
1969.0,0.0132
1968.0,0.0132
1967.0,0.0133
1966.0,0.0134
1965.0,0.0134
1964.0,0.0135
1963.0,0.0135
1962.0,0.0135
1961.0,0.0136
1960.0,0.0136
1959.0,0.0137
1958.0,0.0137
1957.0,0.0138
1956.0,0.0138
1955.0,0.0139
1954.0,0.0139
1953.0,0.014
1952.0,0.014
1951.0,0.0141
1950.0,0.0142
1949.0,0.0142
1948.0,0.0143
1947.0,0.0144
1946.0,0.0144
1945.0,0.0145
1944.0,0.0146
1943.0,0.0147
1942.0,0.0148
1941.0,0.0148
1940.0,0.0148
1939.0,0.0148
1938.0,0.0148
1937.0,0.0147
1936.0,0.0146
1935.0,0.0145
1934.0,0.0144
1933.0,0.0143
1932.0,0.0143
1931.0,0.0142
1930.0,0.0142
1929.0,0.0141
1928.0,0.014
1927.0,0.0139
1926.0,0.0138
1925.0,0.0138
1924.0,0.0137
1923.0,0.0137
1922.0,0.0137
1921.0,0.0137
1920.0,0.0137
1919.0,0.0137
1918.0,0.0138
1917.0,0.0138
1916.0,0.0137
1915.0,0.0137
1914.0,0.0136
1913.0,0.0136
1912.0,0.0135
1911.0,0.0135
1910.0,0.0135
1909.0,0.0135
1908.0,0.0135
1907.0,0.0135
1906.0,0.0135
1905.0,0.0135
1904.0,0.0135
1903.0,0.0135
1902.0,0.0136
1901.0,0.0136
1900.0,0.0136
1899.0,0.0136
1898.0,0.0136
1897.0,0.0137
1896.0,0.0137
1895.0,0.0137
1894.0,0.0138
1893.0,0.0138
1892.0,0.0139
1891.0,0.0139
1890.0,0.014
1889.0,0.0141
1888.0,0.0141
1887.0,0.0142
1886.0,0.0142
1885.0,0.0143
1884.0,0.0144
1883.0,0.0144
1882.0,0.0145
1881.0,0.0145
1880.0,0.0145
1879.0,0.0146
1878.0,0.0146
1877.0,0.0146
1876.0,0.0147
1875.0,0.0147
1874.0,0.0147
1873.0,0.0147
1872.0,0.0148
1871.0,0.0148
1870.0,0.0149
1869.0,0.0149
1868.0,0.0149
1867.0,0.0149
1866.0,0.0149
1865.0,0.0149
1864.0,0.0149
1863.0,0.0148
1862.0,0.0147
1861.0,0.0147
1860.0,0.0146
1859.0,0.0145
1858.0,0.0144
1857.0,0.0143
1856.0,0.0143
1855.0,0.0142
1854.0,0.0142
1853.0,0.0142
1852.0,0.0142
1851.0,0.0141
1850.0,0.0141
1849.0,0.0141
1848.0,0.0141
1847.0,0.0142
1846.0,0.0142
1845.0,0.0142
1844.0,0.0141
1843.0,0.014
1842.0,0.014
1841.0,0.014
1840.0,0.0139
1839.0,0.0139
1838.0,0.0139
1837.0,0.014
1836.0,0.014
1835.0,0.0139
1834.0,0.0139
1833.0,0.0139
1832.0,0.0139
1831.0,0.014
1830.0,0.014
1829.0,0.014
1828.0,0.0141
1827.0,0.0141
1826.0,0.0141
1825.0,0.0141
1824.0,0.0142
1823.0,0.0143
1822.0,0.0143
1821.0,0.0143
1820.0,0.0144
1819.0,0.0144
1818.0,0.0144
1817.0,0.0145
1816.0,0.0145
1815.0,0.0146
1814.0,0.0146
1813.0,0.0147
1812.0,0.0147
1811.0,0.0147
1810.0,0.0147
1809.0,0.0148
1808.0,0.0148
1807.0,0.0149
1806.0,0.015
1805.0,0.015
1804.0,0.0151
1803.0,0.0152
1802.0,0.0153
1801.0,0.0154
1800.0,0.0154
1799.0,0.0154
1798.0,0.0153
1797.0,0.0153
1796.0,0.0153
1795.0,0.0153
1794.0,0.0152
1793.0,0.0151
1792.0,0.015
1791.0,0.0149
1790.0,0.0148
1789.0,0.0147
1788.0,0.0147
1787.0,0.0146
1786.0,0.0146
1785.0,0.0146
1784.0,0.0146
1783.0,0.0145
1782.0,0.0145
1781.0,0.0145
1780.0,0.0145
1779.0,0.0145
1778.0,0.0145
1777.0,0.0145
1776.0,0.0145
1775.0,0.0145
1774.0,0.0145
1773.0,0.0145
1772.0,0.0145
1771.0,0.0145
1770.0,0.0145
1769.0,0.0145
1768.0,0.0146
1767.0,0.0146
1766.0,0.0145
1765.0,0.0145
1764.0,0.0145
1763.0,0.0145
1762.0,0.0145
1761.0,0.0145
1760.0,0.0146
1759.0,0.0147
1758.0,0.0147
1757.0,0.0148
1756.0,0.0149
1755.0,0.015
1754.0,0.0151
1753.0,0.0151
1752.0,0.0152
1751.0,0.0153
1750.0,0.0154
1749.0,0.0154
1748.0,0.0154
1747.0,0.0154
1746.0,0.0154
1745.0,0.0154
1744.0,0.0154
1743.0,0.0154
1742.0,0.0154
1741.0,0.0154
1740.0,0.0155
1739.0,0.0156
1738.0,0.0156
1737.0,0.0156
1736.0,0.0156
1735.0,0.0155
1734.0,0.0155
1733.0,0.0154
1732.0,0.0153
1731.0,0.0153
1730.0,0.0152
1729.0,0.0152
1728.0,0.0152
1727.0,0.0151
1726.0,0.0151
1725.0,0.0151
1724.0,0.0151
1723.0,0.0151
1722.0,0.0151
1721.0,0.0151
1720.0,0.0151
1719.0,0.0151
1718.0,0.015
1717.0,0.015
1716.0,0.015
1715.0,0.015
1714.0,0.015
1713.0,0.015
1712.0,0.015
1711.0,0.015
1710.0,0.015
1709.0,0.015
1708.0,0.015
1707.0,0.015
1706.0,0.015
1705.0,0.015
1704.0,0.015
1703.0,0.0151
1702.0,0.0152
1701.0,0.0152
1700.0,0.0153
1699.0,0.0152
1698.0,0.0152
1697.0,0.0153
1696.0,0.0153
1695.0,0.0153
1694.0,0.0152
1693.0,0.0152
1692.0,0.0152
1691.0,0.0152
1690.0,0.0153
1689.0,0.0154
1688.0,0.0155
1687.0,0.0155
1686.0,0.0155
1685.0,0.0156
1684.0,0.0157
1683.0,0.0157
1682.0,0.0157
1681.0,0.0158
1680.0,0.0158
1679.0,0.0158
1678.0,0.0159
1677.0,0.0159
1676.0,0.016
1675.0,0.016
1674.0,0.0161
1673.0,0.0161
1672.0,0.0162
1671.0,0.0162
1670.0,0.0163
1669.0,0.0163
1668.0,0.0163
1667.0,0.0163
1666.0,0.0163
1665.0,0.0163
1664.0,0.0163
1663.0,0.0163
1662.0,0.0163
1661.0,0.0164
1660.0,0.0164
1659.0,0.0165
1658.0,0.0164
1657.0,0.0163
1656.0,0.0162
1655.0,0.0161
1654.0,0.0161
1653.0,0.0162
1652.0,0.0163
1651.0,0.0163
1650.0,0.0164
1649.0,0.0164
1648.0,0.0164
1647.0,0.0166
1646.0,0.0167
1645.0,0.0168
1644.0,0.0168
1643.0,0.0168
1642.0,0.0169
1641.0,0.0169
1640.0,0.0168
1639.0,0.0168
1638.0,0.0167
1637.0,0.0166
1636.0,0.0166
1635.0,0.0166
1634.0,0.0165
1633.0,0.0164
1632.0,0.0163
1631.0,0.0161
1630.0,0.016
1629.0,0.0158
1628.0,0.0158
1627.0,0.0157
1626.0,0.0157
1625.0,0.0156
1624.0,0.0155
1623.0,0.0155
1622.0,0.0155
1621.0,0.0155
1620.0,0.0155
1619.0,0.0154
1618.0,0.0154
1617.0,0.0154
1616.0,0.0153
1615.0,0.0153
1614.0,0.0153
1613.0,0.0153
1612.0,0.0154
1611.0,0.0156
1610.0,0.0159
1609.0,0.0165
1608.0,0.0173
1607.0,0.0185
1606.0,0.0198
1605.0,0.0213
1604.0,0.023
1603.0,0.0246
1602.0,0.0259
1601.0,0.0265
1600.0,0.0265
1599.0,0.026
1598.0,0.0251
1597.0,0.024
1596.0,0.0229
1595.0,0.022
1594.0,0.0212
1593.0,0.0205
1592.0,0.02
1591.0,0.0195
1590.0,0.0191
1589.0,0.0189
1588.0,0.0189
1587.0,0.019
1586.0,0.0194
1585.0,0.0198
1584.0,0.0202
1583.0,0.0204
1582.0,0.0202
1581.0,0.0198
1580.0,0.0193
1579.0,0.0189
1578.0,0.0184
1577.0,0.018
1576.0,0.0177
1575.0,0.0175
1574.0,0.0173
1573.0,0.0171
1572.0,0.017
1571.0,0.0169
1570.0,0.0167
1569.0,0.0166
1568.0,0.0165
1567.0,0.0164
1566.0,0.0164
1565.0,0.0163
1564.0,0.0162
1563.0,0.0162
1562.0,0.0162
1561.0,0.0161
1560.0,0.016
1559.0,0.0162
1558.0,0.0162
1557.0,0.0161
1556.0,0.0162
1555.0,0.0162
1554.0,0.0161
1553.0,0.0161
1552.0,0.016
1551.0,0.016
1550.0,0.016
1549.0,0.0161
1548.0,0.0162
1547.0,0.0163
1546.0,0.0163
1545.0,0.0164
1544.0,0.0164
1543.0,0.0164
1542.0,0.0164
1541.0,0.0165
1540.0,0.0165
1539.0,0.0165
1538.0,0.0164
1537.0,0.0163
1536.0,0.0163
1535.0,0.0161
1534.0,0.016
1533.0,0.0159
1532.0,0.0158
1531.0,0.0156
1530.0,0.0155
1529.0,0.0154
1528.0,0.0154
1527.0,0.0154
1526.0,0.0153
1525.0,0.0153
1524.0,0.0152
1523.0,0.0151
1522.0,0.015
1521.0,0.015
1520.0,0.015
1519.0,0.0149
1518.0,0.0148
1517.0,0.0147
1516.0,0.0146
1515.0,0.0145
1514.0,0.0143
1513.0,0.0142
1512.0,0.0142
1511.0,0.0142
1510.0,0.0142
1509.0,0.0141
1508.0,0.014
1507.0,0.0138
1506.0,0.0135
1505.0,0.0134
1504.0,0.0134
1503.0,0.0135
1502.0,0.0136
1501.0,0.014
1500.0,0.0146
1499.0,0.0159
1498.0,0.0186
1497.0,0.0236
1496.0,0.0301
1495.0,0.0361
1494.0,0.0407
1493.0,0.0436
1492.0,0.0445
1491.0,0.0427
1490.0,0.0386
1489.0,0.0342
1488.0,0.0308
1487.0,0.0284
1486.0,0.0266
1485.0,0.0251
1484.0,0.0239
1483.0,0.0228
1482.0,0.0219
1481.0,0.0211
1480.0,0.0205
1479.0,0.02
1478.0,0.0196
1477.0,0.0192
1476.0,0.0189
1475.0,0.0186
1474.0,0.0183
1473.0,0.0181
1472.0,0.0181
1471.0,0.018
1470.0,0.0179
1469.0,0.0178
1468.0,0.0178
1467.0,0.0176
1466.0,0.0175
1465.0,0.0174
1464.0,0.0174
1463.0,0.0173
1462.0,0.0173
1461.0,0.0172
1460.0,0.0174
1459.0,0.018
1458.0,0.0204
1457.0,0.0256
1456.0,0.0315
1455.0,0.0363
1454.0,0.0405
1453.0,0.0439
1452.0,0.0459
1451.0,0.0462
1450.0,0.0451
1449.0,0.0432
1448.0,0.0412
1447.0,0.0396
1446.0,0.0383
1445.0,0.0371
1444.0,0.036
1443.0,0.0347
1442.0,0.0335
1441.0,0.0325
1440.0,0.0317
1439.0,0.0309
1438.0,0.03
1437.0,0.0289
1436.0,0.0278
1435.0,0.0269
1434.0,0.0261
1433.0,0.0254
1432.0,0.0247
1431.0,0.024
1430.0,0.0235
1429.0,0.023
1428.0,0.0226
1427.0,0.0223
1426.0,0.0221
1425.0,0.0218
1424.0,0.0215
1423.0,0.0214
1422.0,0.0213
1421.0,0.0212
1420.0,0.0211
1419.0,0.021
1418.0,0.0209
1417.0,0.0207
1416.0,0.0206
1415.0,0.0204
1414.0,0.0203
1413.0,0.0202
1412.0,0.0201
1411.0,0.0201
1410.0,0.02
1409.0,0.0199
1408.0,0.0198
1407.0,0.0197
1406.0,0.0196
1405.0,0.0196
1404.0,0.0196
1403.0,0.0195
1402.0,0.0195
1401.0,0.0194
1400.0,0.0194
1399.0,0.0194
1398.0,0.0194
1397.0,0.0194
1396.0,0.0194
1395.0,0.0195
1394.0,0.0196
1393.0,0.0196
1392.0,0.0197
1391.0,0.0197
1390.0,0.0198
1389.0,0.02
1388.0,0.0203
1387.0,0.0206
1386.0,0.0208
1385.0,0.021
1384.0,0.0212
1383.0,0.0214
1382.0,0.0217
1381.0,0.0219
1380.0,0.0222
1379.0,0.0225
1378.0,0.0227
1377.0,0.0229
1376.0,0.0231
1375.0,0.0233
1374.0,0.0235
1373.0,0.0236
1372.0,0.0237
1371.0,0.0236
1370.0,0.0236
1369.0,0.0236
1368.0,0.0236
1367.0,0.0236
1366.0,0.0236
1365.0,0.0236
1364.0,0.0236
1363.0,0.0236
1362.0,0.0236
1361.0,0.0236
1360.0,0.0234
1359.0,0.0233
1358.0,0.0231
1357.0,0.023
1356.0,0.0229
1355.0,0.0228
1354.0,0.0228
1353.0,0.0227
1352.0,0.0227
1351.0,0.0227
1350.0,0.0227
1349.0,0.0227
1348.0,0.0227
1347.0,0.0227
1346.0,0.0226
1345.0,0.0226
1344.0,0.0224
1343.0,0.0223
1342.0,0.0221
1341.0,0.022
1340.0,0.0219
1339.0,0.0219
1338.0,0.022
1337.0,0.022
1336.0,0.022
1335.0,0.022
1334.0,0.0221
1333.0,0.0222
1332.0,0.0224
1331.0,0.0226
1330.0,0.0227
1329.0,0.0228
1328.0,0.0229
1327.0,0.0229
1326.0,0.0229
1325.0,0.0229
1324.0,0.0228
1323.0,0.0227
1322.0,0.0225
1321.0,0.0225
1320.0,0.0224
1319.0,0.0224
1318.0,0.0225
1317.0,0.0225
1316.0,0.0226
1315.0,0.0227
1314.0,0.0228
1313.0,0.0229
1312.0,0.0229
1311.0,0.0229
1310.0,0.0229
1309.0,0.0229
1308.0,0.0229
1307.0,0.0228
1306.0,0.0228
1305.0,0.0228
1304.0,0.0227
1303.0,0.0226
1302.0,0.0225
1301.0,0.0224
1300.0,0.0223
1299.0,0.0222
1298.0,0.0221
1297.0,0.0221
1296.0,0.0221
1295.0,0.022
1294.0,0.022
1293.0,0.022
1292.0,0.022
1291.0,0.0219
1290.0,0.0219
1289.0,0.0218
1288.0,0.0218
1287.0,0.0217
1286.0,0.0217
1285.0,0.0217
1284.0,0.0217
1283.0,0.0217
1282.0,0.0217
1281.0,0.0217
1280.0,0.0216
1279.0,0.0216
1278.0,0.0215
1277.0,0.0214
1276.0,0.0214
1275.0,0.0213
1274.0,0.0213
1273.0,0.0213
1272.0,0.0212
1271.0,0.0211
1270.0,0.021
1269.0,0.0209
1268.0,0.0208
1267.0,0.0208
1266.0,0.0208
1265.0,0.0208
1264.0,0.0208
1263.0,0.0207
1262.0,0.0207
1261.0,0.0207
1260.0,0.0206
1259.0,0.0206
1258.0,0.0206
1257.0,0.0206
1256.0,0.0206
1255.0,0.0205
1254.0,0.0205
1253.0,0.0205
1252.0,0.0206
1251.0,0.0206
1250.0,0.0206
1249.0,0.0207
1248.0,0.0207
1247.0,0.0207
1246.0,0.0207
1245.0,0.0208
1244.0,0.0208
1243.0,0.0207
1242.0,0.0207
1241.0,0.0206
1240.0,0.0206
1239.0,0.0206
1238.0,0.0206
1237.0,0.0206
1236.0,0.0206
1235.0,0.0206
1234.0,0.0206
1233.0,0.0206
1232.0,0.0206
1231.0,0.0206
1230.0,0.0205
1229.0,0.0205
1228.0,0.0205
1227.0,0.0206
1226.0,0.0206
1225.0,0.0206
1224.0,0.0206
1223.0,0.0205
1222.0,0.0205
1221.0,0.0205
1220.0,0.0206
1219.0,0.0205
1218.0,0.0205
1217.0,0.0205
1216.0,0.0205
1215.0,0.0205
1214.0,0.0205
1213.0,0.0205
1212.0,0.0206
1211.0,0.0207
1210.0,0.0207
1209.0,0.0208
1208.0,0.0208
1207.0,0.0209
1206.0,0.0211
1205.0,0.0212
1204.0,0.0213
1203.0,0.0215
1202.0,0.0217
1201.0,0.0218
1200.0,0.022
1199.0,0.0221
1198.0,0.0221
1197.0,0.0222
1196.0,0.0222
1195.0,0.0223
1194.0,0.0224
1193.0,0.0225
1192.0,0.0226
1191.0,0.0226
1190.0,0.0227
1189.0,0.0228
1188.0,0.0229
1187.0,0.0231
1186.0,0.0233
1185.0,0.0237
1184.0,0.0242
1183.0,0.0247
1182.0,0.0251
1181.0,0.0253
1180.0,0.0253
1179.0,0.0251
1178.0,0.0247
1177.0,0.0242
1176.0,0.0238
1175.0,0.0235
1174.0,0.0232
1173.0,0.023
1172.0,0.0228
1171.0,0.0227
1170.0,0.0226
1169.0,0.0225
1168.0,0.0225
1167.0,0.0224
1166.0,0.0224
1165.0,0.0224
1164.0,0.0223
1163.0,0.0223
1162.0,0.0225
1161.0,0.0227
1160.0,0.023
1159.0,0.0235
1158.0,0.024
1157.0,0.0246
1156.0,0.0252
1155.0,0.0256
1154.0,0.0258
1153.0,0.0257
1152.0,0.0254
1151.0,0.0249
1150.0,0.0245
1149.0,0.024
1148.0,0.0237
1147.0,0.0234
1146.0,0.0232
1145.0,0.023
1144.0,0.0228
1143.0,0.0226
1142.0,0.0224
1141.0,0.0223
1140.0,0.0223
1139.0,0.0222
1138.0,0.0222
1137.0,0.0221
1136.0,0.022
1135.0,0.0219
1134.0,0.0218
1133.0,0.0217
1132.0,0.0217
1131.0,0.0216
1130.0,0.0216
1129.0,0.0216
1128.0,0.0217
1127.0,0.0216
1126.0,0.0215
1125.0,0.0215
1124.0,0.0214
1123.0,0.0214
1122.0,0.0213
1121.0,0.0213
1120.0,0.0214
1119.0,0.0215
1118.0,0.0217
1117.0,0.0218
1116.0,0.0219
1115.0,0.022
1114.0,0.022
1113.0,0.0221
1112.0,0.0221
1111.0,0.0221
1110.0,0.022
1109.0,0.022
1108.0,0.022
1107.0,0.022
1106.0,0.0219
1105.0,0.0219
1104.0,0.0218
1103.0,0.0218
1102.0,0.0218
1101.0,0.0218
1100.0,0.0218
1099.0,0.0219
1098.0,0.0219
1097.0,0.022
1096.0,0.0221
1095.0,0.0221
1094.0,0.0221
1093.0,0.022
1092.0,0.022
1091.0,0.0221
1090.0,0.0222
1089.0,0.0223
1088.0,0.0224
1087.0,0.0225
1086.0,0.0226
1085.0,0.0227
1084.0,0.0228
1083.0,0.023
1082.0,0.0232
1081.0,0.0235
1080.0,0.0237
1079.0,0.0239
1078.0,0.0242
1077.0,0.0244
1076.0,0.0248
1075.0,0.0253
1074.0,0.0257
1073.0,0.0262
1072.0,0.0267
1071.0,0.0271
1070.0,0.0275
1069.0,0.0277
1068.0,0.0278
1067.0,0.0277
1066.0,0.0275
1065.0,0.0273
1064.0,0.027
1063.0,0.0268
1062.0,0.0265
1061.0,0.0261
1060.0,0.0258
1059.0,0.0254
1058.0,0.0251
1057.0,0.0248
1056.0,0.0246
1055.0,0.0244
1054.0,0.0242
1053.0,0.024
1052.0,0.0238
1051.0,0.0236
1050.0,0.0235
1049.0,0.0234
1048.0,0.0232
1047.0,0.023
1046.0,0.0229
1045.0,0.0227
1044.0,0.0226
1043.0,0.0224
1042.0,0.0223
1041.0,0.0222
1040.0,0.0221
1039.0,0.0222
1038.0,0.0224
1037.0,0.0229
1036.0,0.0237
1035.0,0.0249
1034.0,0.0264
1033.0,0.0283
1032.0,0.0302
1031.0,0.0321
1030.0,0.0338
1029.0,0.0352
1028.0,0.0359
1027.0,0.036
1026.0,0.0355
1025.0,0.0346
1024.0,0.0335
1023.0,0.0324
1022.0,0.0315
1021.0,0.0307
1020.0,0.0301
1019.0,0.0295
1018.0,0.029
1017.0,0.0286
1016.0,0.0282
1015.0,0.0278
1014.0,0.0275
1013.0,0.0272
1012.0,0.0269
1011.0,0.0266
1010.0,0.0264
1009.0,0.0263
1008.0,0.0263
1007.0,0.0265
1006.0,0.0267
1005.0,0.0269
1004.0,0.0271
1003.0,0.0271
1002.0,0.027
1001.0,0.0267
1000.0,0.0264
999.0,0.026
998.0,0.0256
997.0,0.0253
996.0,0.0251
995.0,0.0249
994.0,0.0248
993.0,0.0247
992.0,0.0248
991.0,0.0248
990.0,0.0248
989.0,0.0247
988.0,0.0247
987.0,0.0248
986.0,0.0249
985.0,0.0251
984.0,0.0253
983.0,0.0254
982.0,0.0256
981.0,0.0257
980.0,0.0258
979.0,0.0258
978.0,0.0257
977.0,0.0256
976.0,0.0254
975.0,0.0253
974.0,0.0253
973.0,0.0252
972.0,0.0253
971.0,0.0254
970.0,0.0256
969.0,0.0258
968.0,0.0261
967.0,0.0263
966.0,0.0266
965.0,0.0268
964.0,0.0269
963.0,0.027
962.0,0.0269
961.0,0.0267
960.0,0.0264
959.0,0.0261
958.0,0.0258
957.0,0.0255
956.0,0.0253
955.0,0.0251
954.0,0.025
953.0,0.025
952.0,0.025
951.0,0.025
950.0,0.025
949.0,0.0251
948.0,0.0252
947.0,0.0254
946.0,0.0256
945.0,0.0258
944.0,0.0259
943.0,0.026
942.0,0.026
941.0,0.026
940.0,0.0259
939.0,0.0257
938.0,0.0256
937.0,0.0254
936.0,0.0252
935.0,0.025
934.0,0.0247
933.0,0.0245
932.0,0.0244
931.0,0.0243
930.0,0.0242
929.0,0.0242
928.0,0.0241
927.0,0.024
926.0,0.024
925.0,0.024
924.0,0.024
923.0,0.024
922.0,0.0241
921.0,0.0243
920.0,0.0244
919.0,0.0246
918.0,0.0247
917.0,0.0249
916.0,0.0253
915.0,0.0258
914.0,0.0265
913.0,0.0274
912.0,0.0284
911.0,0.0294
910.0,0.0305
909.0,0.0315
908.0,0.0324
907.0,0.0331
906.0,0.0335
905.0,0.0336
904.0,0.0334
903.0,0.033
902.0,0.0324
901.0,0.0315
900.0,0.0307
899.0,0.0298
898.0,0.029
897.0,0.0284
896.0,0.0278
895.0,0.0272
894.0,0.0269
893.0,0.0266
892.0,0.0264
891.0,0.0263
890.0,0.026
889.0,0.0258
888.0,0.0256
887.0,0.0254
886.0,0.0254
885.0,0.0253
884.0,0.0253
883.0,0.0252
882.0,0.0252
881.0,0.0251
880.0,0.0251
879.0,0.025
878.0,0.025
877.0,0.0249
876.0,0.0247
875.0,0.0246
874.0,0.0245
873.0,0.0245
872.0,0.0245
871.0,0.0244
870.0,0.0242
869.0,0.0241
868.0,0.024
867.0,0.0239
866.0,0.0238
865.0,0.0238
864.0,0.0238
863.0,0.0238
862.0,0.0238
861.0,0.0238
860.0,0.0237
859.0,0.0236
858.0,0.0234
857.0,0.0234
856.0,0.0235
855.0,0.0235
854.0,0.0235
853.0,0.0235
852.0,0.0236
851.0,0.0238
850.0,0.0241
849.0,0.0245
848.0,0.0248
847.0,0.0252
846.0,0.0256
845.0,0.026
844.0,0.0264
843.0,0.0267
842.0,0.0269
841.0,0.0271
840.0,0.0272
839.0,0.0271
838.0,0.0268
837.0,0.0263
836.0,0.0258
835.0,0.0253
834.0,0.0249
833.0,0.0247
832.0,0.0244
831.0,0.0241
830.0,0.0237
829.0,0.0234
828.0,0.0232
827.0,0.0231
826.0,0.0229
825.0,0.0228
824.0,0.0226
823.0,0.0225
822.0,0.0224
821.0,0.0223
820.0,0.0222
819.0,0.022
818.0,0.0218
817.0,0.0216
816.0,0.0215
815.0,0.0214
814.0,0.0215
813.0,0.0216
812.0,0.0215
811.0,0.0214
810.0,0.0212
809.0,0.0211
808.0,0.021
807.0,0.021
806.0,0.0209
805.0,0.0208
804.0,0.0205
803.0,0.0203
802.0,0.02
801.0,0.0199
800.0,0.0199
799.0,0.02
798.0,0.0201
797.0,0.0202
796.0,0.0203
795.0,0.0204
794.0,0.0205
793.0,0.0205
792.0,0.0206
791.0,0.0206
790.0,0.0207
789.0,0.021
788.0,0.0214
787.0,0.0217
786.0,0.0219
785.0,0.022
784.0,0.0223
783.0,0.0227
782.0,0.0232
781.0,0.0239
780.0,0.0248
779.0,0.0257
778.0,0.0268
777.0,0.0281
776.0,0.0295
775.0,0.0312
774.0,0.0332
773.0,0.0355
772.0,0.0381
771.0,0.0409
770.0,0.0438
769.0,0.0467
768.0,0.0496
767.0,0.0524
766.0,0.0552
765.0,0.058
764.0,0.0609
763.0,0.0638
762.0,0.0667
761.0,0.0696
760.0,0.0725
759.0,0.0754
758.0,0.0779
757.0,0.0799
756.0,0.0813
755.0,0.0821
754.0,0.0824
753.0,0.0825
752.0,0.0826
751.0,0.0827
750.0,0.0831
749.0,0.0837
748.0,0.0841
747.0,0.0838
746.0,0.0826
745.0,0.0805
744.0,0.0777
743.0,0.0744
742.0,0.0708
741.0,0.0672
740.0,0.0638
739.0,0.0604
738.0,0.0569
737.0,0.0535
736.0,0.0503
735.0,0.0473
734.0,0.0445
733.0,0.0418
732.0,0.0393
731.0,0.037
730.0,0.0352
729.0,0.0336
728.0,0.0321
727.0,0.0305
726.0,0.029
725.0,0.0276
724.0,0.0264
723.0,0.0254
722.0,0.0245
721.0,0.0236
720.0,0.0226
719.0,0.0216
718.0,0.0205
717.0,0.0194
716.0,0.0185
715.0,0.018
714.0,0.0179
713.0,0.0185
712.0,0.0198
711.0,0.0221
710.0,0.0258
709.0,0.0311
708.0,0.0384
707.0,0.0478
706.0,0.0592
705.0,0.073
704.0,0.0893
703.0,0.108
702.0,0.1287
701.0,0.1511
700.0,0.1748
699.0,0.1985
698.0,0.2202
697.0,0.2373
696.0,0.2464
695.0,0.2445
694.0,0.2311
693.0,0.21
692.0,0.1861
691.0,0.1634
690.0,0.1441
689.0,0.1288
688.0,0.1171
687.0,0.108
686.0,0.1009
685.0,0.0956
684.0,0.0918
683.0,0.0885
682.0,0.0853
681.0,0.0821
680.0,0.0792
679.0,0.0765
678.0,0.0739
677.0,0.0717
676.0,0.0699
675.0,0.0683
674.0,0.067
673.0,0.066
672.0,0.0653
671.0,0.0644
670.0,0.063
669.0,0.0615
668.0,0.0604
667.0,0.0602
666.0,0.0604
665.0,0.0602
664.0,0.0598
663.0,0.0592
662.0,0.0583
661.0,0.0571
660.0,0.0559
659.0,0.0547
658.0,0.0539
657.0,0.0533
656.0,0.0528
655.0,0.0523
654.0,0.0516
653.0,0.0512
652.0,0.051
651.0,0.0507
650.0,0.0502
649.0,0.0495
648.0,0.0491
647.0,0.049
646.0,0.0486
645.0,0.0482
644.0,0.0478
643.0,0.0478
642.0,0.048
641.0,0.0483
640.0,0.0486
639.0,0.0487
638.0,0.0487
637.0,0.0487
636.0,0.0487
635.0,0.0489
634.0,0.0492
633.0,0.0495
632.0,0.0497
631.0,0.0498
630.0,0.0499
629.0,0.0501
628.0,0.0504
627.0,0.0506
626.0,0.0504
625.0,0.05
624.0,0.0497
623.0,0.0495
622.0,0.0495
621.0,0.0498
620.0,0.05
619.0,0.0502
618.0,0.0503
617.0,0.0503
616.0,0.0501
615.0,0.0496
614.0,0.0489
613.0,0.0485
612.0,0.0488
611.0,0.0492
610.0,0.0493
609.0,0.0488
608.0,0.0477
607.0,0.0463
606.0,0.045
605.0,0.0443
604.0,0.0446
603.0,0.0457
602.0,0.0468
601.0,0.0474
600.0,0.0475
