cm-1,A
4000.0,-0.0024
3999.0,-0.0023
3998.0,-0.0023
3997.0,-0.0023
3996.0,-0.0023
3995.0,-0.0023
3994.0,-0.0023
3993.0,-0.0023
3992.0,-0.0023
3991.0,-0.0023
3990.0,-0.0023
3989.0,-0.0023
3988.0,-0.0023
3987.0,-0.0023
3986.0,-0.0024
3985.0,-0.0024
3984.0,-0.0024
3983.0,-0.0024
3982.0,-0.0024
3981.0,-0.0024
3980.0,-0.0023
3979.0,-0.0023
3978.0,-0.0023
3977.0,-0.0023
3976.0,-0.0023
3975.0,-0.0024
3974.0,-0.0024
3973.0,-0.0024
3972.0,-0.0024
3971.0,-0.0024
3970.0,-0.0024
3969.0,-0.0024
3968.0,-0.0023
3967.0,-0.0023
3966.0,-0.0023
3965.0,-0.0023
3964.0,-0.0023
3963.0,-0.0023
3962.0,-0.0023
3961.0,-0.0023
3960.0,-0.0023
3959.0,-0.0022
3958.0,-0.0022
3957.0,-0.0022
3956.0,-0.0022
3955.0,-0.0023
3954.0,-0.0022
3953.0,-0.0022
3952.0,-0.0022
3951.0,-0.0022
3950.0,-0.0022
3949.0,-0.0023
3948.0,-0.0024
3947.0,-0.0024
3946.0,-0.0024
3945.0,-0.0024
3944.0,-0.0024
3943.0,-0.0024
3942.0,-0.0024
3941.0,-0.0024
3940.0,-0.0023
3939.0,-0.0023
3938.0,-0.0022
3937.0,-0.0022
3936.0,-0.0022
3935.0,-0.0023
3934.0,-0.0023
3933.0,-0.0024
3932.0,-0.0025
3931.0,-0.0025
3930.0,-0.0024
3929.0,-0.0024
3928.0,-0.0023
3927.0,-0.0023
3926.0,-0.0023
3925.0,-0.0023
3924.0,-0.0023
3923.0,-0.0023
3922.0,-0.0022
3921.0,-0.0021
3920.0,-0.002
3919.0,-0.0019
3918.0,-0.0019
3917.0,-0.0021
3916.0,-0.0022
3915.0,-0.0022
3914.0,-0.0022
3913.0,-0.0022
3912.0,-0.0022
3911.0,-0.0021
3910.0,-0.002
3909.0,-0.0019
3908.0,-0.0019
3907.0,-0.0019
3906.0,-0.002
3905.0,-0.0021
3904.0,-0.0022
3903.0,-0.0023
3902.0,-0.0023
3901.0,-0.0023
3900.0,-0.0024
3899.0,-0.0024
3898.0,-0.0023
3897.0,-0.0022
3896.0,-0.002
3895.0,-0.002
3894.0,-0.002
3893.0,-0.002
3892.0,-0.0021
3891.0,-0.0023
3890.0,-0.0022
3889.0,-0.0021
3888.0,-0.002
3887.0,-0.0021
3886.0,-0.0022
3885.0,-0.0023
3884.0,-0.0022
3883.0,-0.0022
3882.0,-0.0023
3881.0,-0.0024
3880.0,-0.0024
3879.0,-0.0023
3878.0,-0.0021
3877.0,-0.002
3876.0,-0.0021
3875.0,-0.0021
3874.0,-0.0021
3873.0,-0.002
3872.0,-0.0019
3871.0,-0.002
3870.0,-0.0021
3869.0,-0.0021
3868.0,-0.002
3867.0,-0.002
3866.0,-0.0021
3865.0,-0.0022
3864.0,-0.0022
3863.0,-0.0022
3862.0,-0.0021
3861.0,-0.0019
3860.0,-0.0018
3859.0,-0.0017
3858.0,-0.0017
3857.0,-0.0017
3856.0,-0.0016
3855.0,-0.0014
3854.0,-0.0015
3853.0,-0.0019
3852.0,-0.002
3851.0,-0.0019
3850.0,-0.0018
3849.0,-0.0017
3848.0,-0.0016
3847.0,-0.0017
3846.0,-0.0017
3845.0,-0.0018
3844.0,-0.0018
3843.0,-0.0018
3842.0,-0.0017
3841.0,-0.0017
3840.0,-0.0017
3839.0,-0.0018
3838.0,-0.0019
3837.0,-0.002
3836.0,-0.0019
3835.0,-0.0019
3834.0,-0.0019
3833.0,-0.002
3832.0,-0.002
3831.0,-0.0019
3830.0,-0.0018
3829.0,-0.0018
3828.0,-0.0018
3827.0,-0.0018
3826.0,-0.0017
3825.0,-0.0017
3824.0,-0.0017
3823.0,-0.0018
3822.0,-0.002
3821.0,-0.0021
3820.0,-0.002
3819.0,-0.0016
3818.0,-0.0014
3817.0,-0.0014
3816.0,-0.0015
3815.0,-0.0015
3814.0,-0.0014
3813.0,-0.0014
3812.0,-0.0014
3811.0,-0.0015
3810.0,-0.0015
3809.0,-0.0014
3808.0,-0.0013
3807.0,-0.0014
3806.0,-0.0013
3805.0,-0.0013
3804.0,-0.0012
3803.0,-0.0013
3802.0,-0.0014
3801.0,-0.0015
3800.0,-0.0014
3799.0,-0.0014
3798.0,-0.0014
3797.0,-0.0016
3796.0,-0.0016
3795.0,-0.0016
3794.0,-0.0015
3793.0,-0.0015
3792.0,-0.0015
3791.0,-0.0016
3790.0,-0.0015
3789.0,-0.0015
3788.0,-0.0014
3787.0,-0.0014
3786.0,-0.0014
3785.0,-0.0014
3784.0,-0.0015
3783.0,-0.0016
3782.0,-0.0016
3781.0,-0.0016
3780.0,-0.0016
3779.0,-0.0015
3778.0,-0.0014
3777.0,-0.0013
3776.0,-0.0013
3775.0,-0.0013
3774.0,-0.0013
3773.0,-0.0013
3772.0,-0.0013
3771.0,-0.0014
3770.0,-0.0014
3769.0,-0.0013
3768.0,-0.0013
3767.0,-0.0013
3766.0,-0.0013
3765.0,-0.0013
3764.0,-0.0012
3763.0,-0.0011
3762.0,-0.0012
3761.0,-0.0013
3760.0,-0.0014
3759.0,-0.0014
3758.0,-0.0015
3757.0,-0.0014
3756.0,-0.0013
3755.0,-0.0013
3754.0,-0.0012
3753.0,-0.0009
3752.0,-0.0005
3751.0,-0.0002
3750.0,-0.0004
3749.0,-0.0005
3748.0,-0.0005
3747.0,-0.0005
3746.0,-0.0006
3745.0,-0.0006
3744.0,-0.0006
3743.0,-0.0004
3742.0,-0.0003
3741.0,-0.0003
3740.0,-0.0004
3739.0,-0.0003
3738.0,-0.0001
3737.0,0.0001
3736.0,0.0001
3735.0,-0.0002
3734.0,-0.0005
3733.0,-0.0006
3732.0,-0.0006
3731.0,-0.0005
3730.0,-0.0005
3729.0,-0.0004
3728.0,-0.0004
3727.0,-0.0004
3726.0,-0.0004
3725.0,-0.0005
3724.0,-0.0006
3723.0,-0.0009
3722.0,-0.001
3721.0,-0.0011
3720.0,-0.001
3719.0,-0.001
3718.0,-0.0009
3717.0,-0.0009
3716.0,-0.0008
3715.0,-0.0008
3714.0,-0.0007
3713.0,-0.0004
3712.0,0.0001
3711.0,0.0002
3710.0,-0.0
3709.0,-0.0002
3708.0,-0.0004
3707.0,-0.0005
3706.0,-0.0006
3705.0,-0.0007
3704.0,-0.0008
3703.0,-0.0009
3702.0,-0.0011
3701.0,-0.0011
3700.0,-0.001
3699.0,-0.0009
3698.0,-0.0008
3697.0,-0.0007
3696.0,-0.0006
3695.0,-0.0004
3694.0,-0.0002
3693.0,-0.0001
3692.0,-0.0
3691.0,-0.0001
3690.0,-0.0004
3689.0,-0.0007
3688.0,-0.0006
3687.0,-0.0003
3686.0,-0.0
3685.0,0.0001
3684.0,0.0001
3683.0,0.0001
3682.0,0.0001
3681.0,0.0
3680.0,-0.0001
3679.0,-0.0001
3678.0,-0.0001
3677.0,-0.0
3676.0,-0.0
3675.0,-0.0001
3674.0,0.0001
3673.0,0.0003
3672.0,0.0003
3671.0,0.0002
3670.0,0.0001
3669.0,0.0001
3668.0,0.0004
3667.0,0.0006
3666.0,0.0007
3665.0,0.0008
3664.0,0.0008
3663.0,0.0008
3662.0,0.0009
3661.0,0.001
3660.0,0.0012
3659.0,0.0013
3658.0,0.0014
3657.0,0.0014
3656.0,0.0014
3655.0,0.0014
3654.0,0.0014
3653.0,0.0013
3652.0,0.0012
3651.0,0.0017
3650.0,0.0024
3649.0,0.0026
3648.0,0.0024
3647.0,0.0023
3646.0,0.0024
3645.0,0.0027
3644.0,0.0029
3643.0,0.003
3642.0,0.0032
3641.0,0.0034
3640.0,0.0036
3639.0,0.0038
3638.0,0.004
3637.0,0.0041
3636.0,0.0042
3635.0,0.0043
3634.0,0.0045
3633.0,0.0046
3632.0,0.0047
3631.0,0.0047
3630.0,0.005
3629.0,0.0052
3628.0,0.0053
3627.0,0.0055
3626.0,0.0057
3625.0,0.0057
3624.0,0.0057
3623.0,0.0056
3622.0,0.0055
3621.0,0.0054
3620.0,0.0055
3619.0,0.0057
3618.0,0.006
3617.0,0.0063
3616.0,0.0065
3615.0,0.0067
3614.0,0.007
3613.0,0.0072
3612.0,0.0075
3611.0,0.0079
3610.0,0.0083
3609.0,0.0087
3608.0,0.009
3607.0,0.0091
3606.0,0.0091
3605.0,0.0091
3604.0,0.0091
3603.0,0.0092
3602.0,0.0094
3601.0,0.0096
3600.0,0.0096
3599.0,0.0097
3598.0,0.0098
3597.0,0.0099
3596.0,0.0102
3595.0,0.0104
3594.0,0.0107
3593.0,0.0108
3592.0,0.011
3591.0,0.0111
3590.0,0.0112
3589.0,0.0113
3588.0,0.0115
3587.0,0.0116
3586.0,0.0118
3585.0,0.012
3584.0,0.0123
3583.0,0.0125
3582.0,0.0127
3581.0,0.0129
3580.0,0.0131
3579.0,0.0132
3578.0,0.0134
3577.0,0.0137
3576.0,0.0139
3575.0,0.014
3574.0,0.0141
3573.0,0.0142
3572.0,0.0142
3571.0,0.0143
3570.0,0.0144
3569.0,0.0147
3568.0,0.015
3567.0,0.0153
3566.0,0.0153
3565.0,0.0154
3564.0,0.0155
3563.0,0.0156
3562.0,0.0158
3561.0,0.016
3560.0,0.0163
3559.0,0.0165
3558.0,0.0166
3557.0,0.0167
3556.0,0.0168
3555.0,0.0169
3554.0,0.017
3553.0,0.0172
3552.0,0.0174
3551.0,0.0176
3550.0,0.0177
3549.0,0.0179
3548.0,0.0181
3547.0,0.0184
3546.0,0.0187
3545.0,0.0189
3544.0,0.0191
3543.0,0.0192
3542.0,0.0193
3541.0,0.0194
3540.0,0.0195
3539.0,0.0196
3538.0,0.0197
3537.0,0.0199
3536.0,0.0201
3535.0,0.0203
3534.0,0.0204
3533.0,0.0206
3532.0,0.0208
3531.0,0.021
3530.0,0.0211
3529.0,0.0213
3528.0,0.0214
3527.0,0.0215
3526.0,0.0217
3525.0,0.0219
3524.0,0.0221
3523.0,0.0223
3522.0,0.0224
3521.0,0.0225
3520.0,0.0227
3519.0,0.0229
3518.0,0.0232
3517.0,0.0234
3516.0,0.0236
3515.0,0.0238
3514.0,0.024
3513.0,0.0241
3512.0,0.0243
3511.0,0.0244
3510.0,0.0245
3509.0,0.0246
3508.0,0.0247
3507.0,0.0249
3506.0,0.0251
3505.0,0.0254
3504.0,0.0257
3503.0,0.0259
3502.0,0.026
3501.0,0.0261
3500.0,0.0262
3499.0,0.0264
3498.0,0.0267
3497.0,0.027
3496.0,0.0272
3495.0,0.0274
3494.0,0.0276
3493.0,0.0276
3492.0,0.0277
3491.0,0.0279
3490.0,0.0281
3489.0,0.0283
3488.0,0.0284
3487.0,0.0286
3486.0,0.0288
3485.0,0.029
3484.0,0.0292
3483.0,0.0294
3482.0,0.0296
3481.0,0.0298
3480.0,0.03
3479.0,0.0303
3478.0,0.0304
3477.0,0.0305
3476.0,0.0306
3475.0,0.0306
3474.0,0.0307
3473.0,0.0309
3472.0,0.0311
3471.0,0.0313
3470.0,0.0315
3469.0,0.0318
3468.0,0.0321
3467.0,0.0323
3466.0,0.0324
3465.0,0.0326
3464.0,0.0328
3463.0,0.0329
3462.0,0.0331
3461.0,0.0333
3460.0,0.0335
3459.0,0.0336
3458.0,0.0337
3457.0,0.0338
3456.0,0.034
3455.0,0.0342
3454.0,0.0345
3453.0,0.0347
3452.0,0.0349
3451.0,0.0351
3450.0,0.0352
3449.0,0.0353
3448.0,0.0354
3447.0,0.0355
3446.0,0.0357
3445.0,0.0359
3444.0,0.0361
3443.0,0.0363
3442.0,0.0365
3441.0,0.0366
3440.0,0.0367
3439.0,0.0368
3438.0,0.037
3437.0,0.0371
3436.0,0.0372
3435.0,0.0374
3434.0,0.0375
3433.0,0.0377
3432.0,0.0378
3431.0,0.038
3430.0,0.0381
3429.0,0.0382
3428.0,0.0384
3427.0,0.0385
3426.0,0.0386
3425.0,0.0387
3424.0,0.0389
3423.0,0.039
3422.0,0.0392
3421.0,0.0393
3420.0,0.0395
3419.0,0.0396
3418.0,0.0398
3417.0,0.0399
3416.0,0.04
3415.0,0.0401
3414.0,0.0402
3413.0,0.0404
3412.0,0.0406
3411.0,0.0407
3410.0,0.0408
3409.0,0.0408
3408.0,0.0409
3407.0,0.0409
3406.0,0.041
3405.0,0.041
3404.0,0.0411
3403.0,0.0411
3402.0,0.0412
3401.0,0.0412
3400.0,0.0411
3399.0,0.0411
3398.0,0.0411
3397.0,0.0411
3396.0,0.0412
3395.0,0.0412
3394.0,0.0413
3393.0,0.0413
3392.0,0.0414
3391.0,0.0414
3390.0,0.0414
3389.0,0.0413
3388.0,0.0413
3387.0,0.0412
3386.0,0.0412
3385.0,0.0412
3384.0,0.0412
3383.0,0.0411
3382.0,0.0409
3381.0,0.0408
3380.0,0.0407
3379.0,0.0406
3378.0,0.0406
3377.0,0.0405
3376.0,0.0404
3375.0,0.0403
3374.0,0.0402
3373.0,0.04
3372.0,0.0399
3371.0,0.0399
3370.0,0.0398
3369.0,0.0398
3368.0,0.0398
3367.0,0.0397
3366.0,0.0396
3365.0,0.0395
3364.0,0.0394
3363.0,0.0392
3362.0,0.0392
3361.0,0.0391
3360.0,0.0392
3359.0,0.0391
3358.0,0.0391
3357.0,0.0389
3356.0,0.0387
3355.0,0.0385
3354.0,0.0384
3353.0,0.0382
3352.0,0.038
3351.0,0.0379
3350.0,0.0378
3349.0,0.0377
3348.0,0.0377
3347.0,0.0377
3346.0,0.0376
3345.0,0.0375
3344.0,0.0375
3343.0,0.0374
3342.0,0.0373
3341.0,0.0371
3340.0,0.037
3339.0,0.0368
3338.0,0.0365
3337.0,0.0363
3336.0,0.0362
3335.0,0.0361
3334.0,0.036
3333.0,0.0359
3332.0,0.0357
3331.0,0.0355
3330.0,0.0353
3329.0,0.0351
3328.0,0.035
3327.0,0.0348
3326.0,0.0346
3325.0,0.0344
3324.0,0.0342
3323.0,0.0341
3322.0,0.0339
3321.0,0.0337
3320.0,0.0336
3319.0,0.0334
3318.0,0.0334
3317.0,0.0333
3316.0,0.0333
3315.0,0.0332
3314.0,0.0331
3313.0,0.033
3312.0,0.0328
3311.0,0.0326
3310.0,0.0324
3309.0,0.0322
3308.0,0.0321
3307.0,0.0319
3306.0,0.0318
3305.0,0.0318
3304.0,0.0316
3303.0,0.0315
3302.0,0.0313
3301.0,0.0312
3300.0,0.0311
3299.0,0.0309
3298.0,0.0308
3297.0,0.0307
3296.0,0.0306
3295.0,0.0306
3294.0,0.0305
3293.0,0.0304
3292.0,0.0302
3291.0,0.0301
3290.0,0.03
3289.0,0.0298
3288.0,0.0297
3287.0,0.0296
3286.0,0.0294
3285.0,0.0293
3284.0,0.0292
3283.0,0.0291
3282.0,0.029
3281.0,0.0289
3280.0,0.0287
3279.0,0.0286
3278.0,0.0284
3277.0,0.0283
3276.0,0.0282
3275.0,0.0281
3274.0,0.028
3273.0,0.028
3272.0,0.0279
3271.0,0.0279
3270.0,0.0279
3269.0,0.0278
3268.0,0.0277
3267.0,0.0275
3266.0,0.0274
3265.0,0.0272
3264.0,0.0271
3263.0,0.027
3262.0,0.027
3261.0,0.027
3260.0,0.027
3259.0,0.0269
3258.0,0.0268
3257.0,0.0267
3256.0,0.0266
3255.0,0.0265
3254.0,0.0265
3253.0,0.0263
3252.0,0.0261
3251.0,0.0259
3250.0,0.0257
3249.0,0.0256
3248.0,0.0255
3247.0,0.0255
3246.0,0.0255
3245.0,0.0255
3244.0,0.0254
3243.0,0.0253
3242.0,0.0252
3241.0,0.025
3240.0,0.0248
3239.0,0.0246
3238.0,0.0244
3237.0,0.0243
3236.0,0.0242
3235.0,0.0241
3234.0,0.0239
3233.0,0.0238
3232.0,0.0237
3231.0,0.0235
3230.0,0.0234
3229.0,0.0233
3228.0,0.0232
3227.0,0.0232
3226.0,0.0231
3225.0,0.0229
3224.0,0.0227
3223.0,0.0224
3222.0,0.0222
3221.0,0.0221
3220.0,0.022
3219.0,0.0219
3218.0,0.0217
3217.0,0.0216
3216.0,0.0214
3215.0,0.0212
3214.0,0.0211
3213.0,0.021
3212.0,0.0209
3211.0,0.0208
3210.0,0.0206
3209.0,0.0205
3208.0,0.0204
3207.0,0.0202
3206.0,0.02
3205.0,0.0199
3204.0,0.0197
3203.0,0.0195
3202.0,0.0194
3201.0,0.0193
3200.0,0.0192
3199.0,0.0191
3198.0,0.019
3197.0,0.0188
3196.0,0.0186
3195.0,0.0184
3194.0,0.0182
3193.0,0.018
3192.0,0.0178
3191.0,0.0177
3190.0,0.0176
3189.0,0.0174
3188.0,0.0173
3187.0,0.0172
3186.0,0.0171
3185.0,0.0169
3184.0,0.0167
3183.0,0.0165
3182.0,0.0163
3181.0,0.0161
3180.0,0.0159
3179.0,0.0158
3178.0,0.0156
3177.0,0.0154
3176.0,0.0152
3175.0,0.015
3174.0,0.0149
3173.0,0.0147
3172.0,0.0145
3171.0,0.0144
3170.0,0.0142
3169.0,0.0141
3168.0,0.0139
3167.0,0.0138
3166.0,0.0137
3165.0,0.0136
3164.0,0.0135
3163.0,0.0134
3162.0,0.0133
3161.0,0.0132
3160.0,0.0131
3159.0,0.013
3158.0,0.0129
3157.0,0.0128
3156.0,0.0126
3155.0,0.0124
3154.0,0.0123
3153.0,0.0121
3152.0,0.012
3151.0,0.0118
3150.0,0.0117
3149.0,0.0116
3148.0,0.0115
3147.0,0.0113
3146.0,0.0112
3145.0,0.0111
3144.0,0.0109
3143.0,0.0108
3142.0,0.0107
3141.0,0.0106
3140.0,0.0104
3139.0,0.0103
3138.0,0.0101
3137.0,0.0099
3136.0,0.0097
3135.0,0.0095
3134.0,0.0094
3133.0,0.0093
3132.0,0.0093
3131.0,0.0091
3130.0,0.009
3129.0,0.0089
3128.0,0.0087
3127.0,0.0086
3126.0,0.0085
3125.0,0.0083
3124.0,0.0082
3123.0,0.008
3122.0,0.0078
3121.0,0.0077
3120.0,0.0076
3119.0,0.0075
3118.0,0.0075
3117.0,0.0074
3116.0,0.0073
3115.0,0.0072
3114.0,0.007
3113.0,0.0069
3112.0,0.0067
3111.0,0.0066
3110.0,0.0065
3109.0,0.0065
3108.0,0.0064
3107.0,0.0063
3106.0,0.0062
3105.0,0.0061
3104.0,0.006
3103.0,0.006
3102.0,0.0058
3101.0,0.0057
3100.0,0.0055
3099.0,0.0054
3098.0,0.0053
3097.0,0.0051
3096.0,0.005
3095.0,0.005
3094.0,0.0049
3093.0,0.0048
3092.0,0.0047
3091.0,0.0046
3090.0,0.0044
3089.0,0.0042
3088.0,0.0041
3087.0,0.0041
3086.0,0.004
3085.0,0.004
3084.0,0.0039
3083.0,0.0038
3082.0,0.0037
3081.0,0.0036
3080.0,0.0035
3079.0,0.0034
3078.0,0.0033
3077.0,0.0032
3076.0,0.0031
3075.0,0.003
3074.0,0.0028
3073.0,0.0027
3072.0,0.0026
3071.0,0.0025
3070.0,0.0024
3069.0,0.0023
3068.0,0.0022
3067.0,0.002
3066.0,0.0019
3065.0,0.0019
3064.0,0.0018
3063.0,0.0018
3062.0,0.0017
3061.0,0.0016
3060.0,0.0015
3059.0,0.0014
3058.0,0.0013
3057.0,0.0013
3056.0,0.0012
3055.0,0.0011
3054.0,0.001
3053.0,0.0009
3052.0,0.0007
3051.0,0.0006
3050.0,0.0004
3049.0,0.0003
3048.0,0.0002
3047.0,0.0001
3046.0,-0.0
3045.0,-0.0002
3044.0,-0.0003
3043.0,-0.0004
3042.0,-0.0006
3041.0,-0.0007
3040.0,-0.0008
3039.0,-0.0009
3038.0,-0.0009
3037.0,-0.001
3036.0,-0.0011
3035.0,-0.0012
3034.0,-0.0013
3033.0,-0.0014
3032.0,-0.0015
3031.0,-0.0016
3030.0,-0.0016
3029.0,-0.0017
3028.0,-0.0017
3027.0,-0.0018
3026.0,-0.0018
3025.0,-0.0018
3024.0,-0.002
3023.0,-0.0021
3022.0,-0.0023
3021.0,-0.0026
3020.0,-0.0027
3019.0,-0.0029
3018.0,-0.003
3017.0,-0.0031
3016.0,-0.0032
3015.0,-0.0033
3014.0,-0.0034
3013.0,-0.0035
3012.0,-0.0037
3011.0,-0.0039
3010.0,-0.0041
3009.0,-0.0042
3008.0,-0.0042
3007.0,-0.0042
3006.0,-0.0043
3005.0,-0.0043
3004.0,-0.0043
3003.0,-0.0044
3002.0,-0.0045
3001.0,-0.0046
3000.0,-0.0046
2999.0,-0.0047
2998.0,-0.0047
2997.0,-0.0046
2996.0,-0.0046
2995.0,-0.0045
2994.0,-0.0044
2993.0,-0.0043
2992.0,-0.0043
2991.0,-0.0042
2990.0,-0.004
2989.0,-0.0038
2988.0,-0.0034
2987.0,-0.003
2986.0,-0.0025
2985.0,-0.002
2984.0,-0.0012
2983.0,-0.0003
2982.0,0.0007
2981.0,0.0019
2980.0,0.0033
2979.0,0.0048
2978.0,0.0065
2977.0,0.0085
2976.0,0.0109
2975.0,0.0136
2974.0,0.0169
2973.0,0.0205
2972.0,0.0247
2971.0,0.0294
2970.0,0.0346
2969.0,0.0402
2968.0,0.0463
2967.0,0.0528
2966.0,0.0596
2965.0,0.0664
2964.0,0.0729
2963.0,0.0788
2962.0,0.0838
2961.0,0.0876
2960.0,0.0902
2959.0,0.0921
2958.0,0.0937
2957.0,0.0955
2956.0,0.0979
2955.0,0.1011
2954.0,0.105
2953.0,0.1092
2952.0,0.1129
2951.0,0.1153
2950.0,0.1158
2949.0,0.1138
2948.0,0.1096
2947.0,0.1036
2946.0,0.0964
2945.0,0.0889
2944.0,0.0817
2943.0,0.0755
2942.0,0.0704
2941.0,0.0667
2940.0,0.0644
2939.0,0.0633
2938.0,0.0635
2937.0,0.0647
2936.0,0.067
2935.0,0.0703
2934.0,0.0746
2933.0,0.0796
2932.0,0.0854
2931.0,0.0917
2930.0,0.0984
2929.0,0.1055
2928.0,0.1127
2927.0,0.1199
2926.0,0.1269
2925.0,0.1339
2924.0,0.1408
2923.0,0.1479
2922.0,0.1549
2921.0,0.1616
2920.0,0.1673
2919.0,0.1714
2918.0,0.1732
2917.0,0.1723
2916.0,0.1691
2915.0,0.1642
2914.0,0.1582
2913.0,0.1521
2912.0,0.1464
2911.0,0.1414
2910.0,0.137
2909.0,0.1332
2908.0,0.1297
2907.0,0.1263
2906.0,0.1228
2905.0,0.1193
2904.0,0.1157
2903.0,0.112
2902.0,0.1083
2901.0,0.1046
2900.0,0.1011
2899.0,0.0978
2898.0,0.0946
2897.0,0.0915
2896.0,0.0887
2895.0,0.0861
2894.0,0.0838
2893.0,0.082
2892.0,0.0805
2891.0,0.0795
2890.0,0.0787
2889.0,0.0781
2888.0,0.0778
2887.0,0.0775
2886.0,0.0775
2885.0,0.0776
2884.0,0.078
2883.0,0.0787
2882.0,0.0797
2881.0,0.0807
2880.0,0.0816
2879.0,0.0824
2878.0,0.0827
2877.0,0.0825
2876.0,0.0821
2875.0,0.0816
2874.0,0.0813
2873.0,0.0814
2872.0,0.082
2871.0,0.0829
2870.0,0.0842
2869.0,0.0854
2868.0,0.0863
2867.0,0.0863
2866.0,0.085
2865.0,0.0824
2864.0,0.0787
2863.0,0.0745
2862.0,0.0702
2861.0,0.0666
2860.0,0.0637
2859.0,0.062
2858.0,0.0612
2857.0,0.0615
2856.0,0.0627
2855.0,0.0647
2854.0,0.0674
2853.0,0.0705
2852.0,0.0734
2851.0,0.0755
2850.0,0.0763
2849.0,0.076
2848.0,0.0751
2847.0,0.0743
2846.0,0.0744
2845.0,0.0756
2844.0,0.0778
2843.0,0.0807
2842.0,0.0839
2841.0,0.0869
2840.0,0.0892
2839.0,0.0903
2838.0,0.09
2837.0,0.0879
2836.0,0.0843
2835.0,0.0793
2834.0,0.0736
2833.0,0.0677
2832.0,0.062
2831.0,0.057
2830.0,0.0526
2829.0,0.049
2828.0,0.046
2827.0,0.0434
2826.0,0.0413
2825.0,0.0395
2824.0,0.0379
2823.0,0.0365
2822.0,0.0352
2821.0,0.0341
2820.0,0.0331
2819.0,0.0321
2818.0,0.0313
2817.0,0.0306
2816.0,0.0299
2815.0,0.0293
2814.0,0.0288
2813.0,0.0282
2812.0,0.0277
2811.0,0.0272
2810.0,0.0267
2809.0,0.0262
2808.0,0.0256
2807.0,0.025
2806.0,0.0245
2805.0,0.0239
2804.0,0.0233
2803.0,0.0228
2802.0,0.0222
2801.0,0.0217
2800.0,0.0213
2799.0,0.021
2798.0,0.0208
2797.0,0.0205
2796.0,0.0203
2795.0,0.0201
2794.0,0.0198
2793.0,0.0196
2792.0,0.0192
2791.0,0.0189
2790.0,0.0185
2789.0,0.0181
2788.0,0.0178
2787.0,0.0175
2786.0,0.0172
2785.0,0.0169
2784.0,0.0166
2783.0,0.0164
2782.0,0.0161
2781.0,0.0159
2780.0,0.0157
2779.0,0.0154
2778.0,0.0152
2777.0,0.0151
2776.0,0.0149
2775.0,0.0147
2774.0,0.0145
2773.0,0.0144
2772.0,0.0142
2771.0,0.014
2770.0,0.0139
2769.0,0.0138
2768.0,0.0137
2767.0,0.0136
2766.0,0.0136
2765.0,0.0135
2764.0,0.0134
2763.0,0.0133
2762.0,0.0131
2761.0,0.013
2760.0,0.0128
2759.0,0.0127
2758.0,0.0126
2757.0,0.0124
2756.0,0.0124
2755.0,0.0123
2754.0,0.0123
2753.0,0.0123
2752.0,0.0123
2751.0,0.0123
2750.0,0.0122
2749.0,0.0122
2748.0,0.0121
2747.0,0.012
2746.0,0.012
2745.0,0.0119
2744.0,0.0118
2743.0,0.0117
2742.0,0.0117
2741.0,0.0118
2740.0,0.0119
2739.0,0.0119
2738.0,0.012
2737.0,0.012
2736.0,0.0121
2735.0,0.0122
2734.0,0.0123
2733.0,0.0124
2732.0,0.0125
2731.0,0.0127
2730.0,0.0128
2729.0,0.0129
2728.0,0.0131
2727.0,0.0133
2726.0,0.0134
2725.0,0.0136
2724.0,0.0137
2723.0,0.0137
2722.0,0.0137
2721.0,0.0136
2720.0,0.0135
2719.0,0.0133
2718.0,0.013
2717.0,0.0127
2716.0,0.0124
2715.0,0.0121
2714.0,0.0119
2713.0,0.0118
2712.0,0.0116
2711.0,0.0115
2710.0,0.0113
2709.0,0.0111
2708.0,0.011
2707.0,0.0109
2706.0,0.0109
2705.0,0.0108
2704.0,0.0108
2703.0,0.0107
2702.0,0.0106
2701.0,0.0105
2700.0,0.0103
2699.0,0.0102
2698.0,0.0101
2697.0,0.0101
2696.0,0.01
2695.0,0.01
2694.0,0.0099
2693.0,0.0098
2692.0,0.0098
2691.0,0.0098
2690.0,0.0098
2689.0,0.0097
2688.0,0.0097
2687.0,0.0096
2686.0,0.0095
2685.0,0.0095
2684.0,0.0095
2683.0,0.0095
2682.0,0.0095
2681.0,0.0095
2680.0,0.0096
2679.0,0.0096
2678.0,0.0095
2677.0,0.0094
2676.0,0.0094
2675.0,0.0093
2674.0,0.0093
2673.0,0.0093
2672.0,0.0093
2671.0,0.0093
2670.0,0.0092
2669.0,0.0092
2668.0,0.0091
2667.0,0.0091
2666.0,0.0091
2665.0,0.0091
2664.0,0.0091
2663.0,0.0091
2662.0,0.0091
2661.0,0.0091
2660.0,0.009
2659.0,0.009
2658.0,0.0089
2657.0,0.0089
2656.0,0.0089
2655.0,0.0089
2654.0,0.0088
2653.0,0.0088
2652.0,0.0087
2651.0,0.0087
2650.0,0.0086
2649.0,0.0085
2648.0,0.0085
2647.0,0.0084
2646.0,0.0083
2645.0,0.0082
2644.0,0.0082
2643.0,0.0081
2642.0,0.0081
2641.0,0.008
2640.0,0.008
2639.0,0.0079
2638.0,0.0079
2637.0,0.0079
2636.0,0.0079
2635.0,0.0079
2634.0,0.0079
2633.0,0.0079
2632.0,0.008
2631.0,0.008
2630.0,0.0079
2629.0,0.0079
2628.0,0.0079
2627.0,0.0078
2626.0,0.0078
2625.0,0.0078
2624.0,0.0078
2623.0,0.0078
2622.0,0.0079
2621.0,0.0079
2620.0,0.0079
2619.0,0.008
2618.0,0.008
2617.0,0.0079
2616.0,0.0079
2615.0,0.0078
2614.0,0.0078
2613.0,0.0077
2612.0,0.0077
2611.0,0.0077
2610.0,0.0077
2609.0,0.0076
2608.0,0.0076
2607.0,0.0075
2606.0,0.0075
2605.0,0.0074
2604.0,0.0074
2603.0,0.0073
2602.0,0.0073
2601.0,0.0073
2600.0,0.0072
2599.0,0.0072
2598.0,0.0071
2597.0,0.007
2596.0,0.007
2595.0,0.0069
2594.0,0.0069
2593.0,0.007
2592.0,0.0071
2591.0,0.0072
2590.0,0.0073
2589.0,0.0074
2588.0,0.0075
2587.0,0.0075
2586.0,0.0076
2585.0,0.0076
2584.0,0.0077
2583.0,0.0077
2582.0,0.0077
2581.0,0.0076
2580.0,0.0076
2579.0,0.0076
2578.0,0.0076
2577.0,0.0076
2576.0,0.0075
2575.0,0.0074
2574.0,0.0072
2573.0,0.007
2572.0,0.0069
2571.0,0.0068
2570.0,0.0068
2569.0,0.0067
2568.0,0.0067
2567.0,0.0066
2566.0,0.0066
2565.0,0.0065
2564.0,0.0065
2563.0,0.0064
2562.0,0.0063
2561.0,0.0063
2560.0,0.0063
2559.0,0.0063
2558.0,0.0064
2557.0,0.0064
2556.0,0.0064
2555.0,0.0064
2554.0,0.0063
2553.0,0.0062
2552.0,0.0061
2551.0,0.0061
2550.0,0.0062
2549.0,0.0062
2548.0,0.0062
2547.0,0.0061
2546.0,0.006
2545.0,0.0059
2544.0,0.0058
2543.0,0.0058
2542.0,0.0058
2541.0,0.0058
2540.0,0.0059
2539.0,0.0059
2538.0,0.0059
2537.0,0.0058
2536.0,0.0058
2535.0,0.0057
2534.0,0.0057
2533.0,0.0057
2532.0,0.0056
2531.0,0.0056
2530.0,0.0056
2529.0,0.0056
2528.0,0.0056
2527.0,0.0056
2526.0,0.0055
2525.0,0.0054
2524.0,0.0054
2523.0,0.0054
2522.0,0.0054
2521.0,0.0054
2520.0,0.0054
2519.0,0.0053
2518.0,0.0053
2517.0,0.0053
2516.0,0.0053
2515.0,0.0054
2514.0,0.0054
2513.0,0.0053
2512.0,0.0052
2511.0,0.0051
2510.0,0.0051
2509.0,0.005
2508.0,0.005
2507.0,0.0049
2506.0,0.0049
2505.0,0.0049
2504.0,0.005
2503.0,0.005
2502.0,0.005
2501.0,0.0049
2500.0,0.0049
2499.0,0.0049
2498.0,0.0049
2497.0,0.0049
2496.0,0.0049
2495.0,0.0049
2494.0,0.0049
2493.0,0.0049
2492.0,0.0049
2491.0,0.0049
2490.0,0.0049
2489.0,0.005
2488.0,0.005
2487.0,0.005
2486.0,0.005
2485.0,0.0049
2484.0,0.0049
2483.0,0.0048
2482.0,0.0048
2481.0,0.0048
2480.0,0.0049
2479.0,0.0049
2478.0,0.0048
2477.0,0.0048
2476.0,0.0047
2475.0,0.0047
2474.0,0.0048
2473.0,0.0048
2472.0,0.0048
2471.0,0.0047
2470.0,0.0048
2469.0,0.0047
2468.0,0.0047
2467.0,0.0047
2466.0,0.0047
2465.0,0.0046
2464.0,0.0046
2463.0,0.0047
2462.0,0.0047
2461.0,0.0047
2460.0,0.0047
2459.0,0.0047
2458.0,0.0047
2457.0,0.0048
2456.0,0.0048
2455.0,0.0048
2454.0,0.0049
2453.0,0.0049
2452.0,0.005
2451.0,0.005
2450.0,0.0049
2449.0,0.0048
2448.0,0.0048
2447.0,0.0048
2446.0,0.0048
2445.0,0.0048
2444.0,0.0048
2443.0,0.0049
2442.0,0.0049
2441.0,0.0049
2440.0,0.0048
2439.0,0.0048
2438.0,0.0047
2437.0,0.0047
2436.0,0.0047
2435.0,0.0047
2434.0,0.0048
2433.0,0.0048
2432.0,0.0049
2431.0,0.0049
2430.0,0.0049
2429.0,0.0049
2428.0,0.0049
2427.0,0.0049
2426.0,0.0049
2425.0,0.005
2424.0,0.005
2423.0,0.005
2422.0,0.0049
2421.0,0.0049
2420.0,0.0049
2419.0,0.0049
2418.0,0.0049
2417.0,0.0048
2416.0,0.0048
2415.0,0.0048
2414.0,0.0048
2413.0,0.0048
2412.0,0.0049
2411.0,0.0049
2410.0,0.0049
2409.0,0.0049
2408.0,0.0049
2407.0,0.0049
2406.0,0.0049
2405.0,0.0048
2404.0,0.0048
2403.0,0.0049
2402.0,0.0049
2401.0,0.005
2400.0,0.005
2399.0,0.005
2398.0,0.005
2397.0,0.0049
2396.0,0.0049
2395.0,0.0049
2394.0,0.0049
2393.0,0.0049
2392.0,0.005
2391.0,0.005
2390.0,0.0051
2389.0,0.0053
2388.0,0.0055
2387.0,0.0057
2386.0,0.0059
2385.0,0.006
2384.0,0.0058
2383.0,0.0053
2382.0,0.0045
2381.0,0.0035
2380.0,0.0025
2379.0,0.0018
2378.0,0.0013
2377.0,0.0012
2376.0,0.0016
2375.0,0.0022
2374.0,0.0029
2373.0,0.0036
2372.0,0.0043
2371.0,0.0048
2370.0,0.005
2369.0,0.0045
2368.0,0.0031
2367.0,0.0017
2366.0,0.0007
2365.0,0.0003
2364.0,0.0009
2363.0,0.0024
2362.0,0.0035
2361.0,0.0032
2360.0,0.0023
2359.0,0.0018
2358.0,0.0013
2357.0,0.0004
2356.0,-0.0001
2355.0,-0.0001
2354.0,-0.0007
2353.0,-0.0018
2352.0,-0.002
2351.0,-0.0011
2350.0,0.0001
2349.0,0.0008
2348.0,0.0006
2347.0,-0.0002
2346.0,-0.0005
2345.0,0.0003
2344.0,0.0021
2343.0,0.0036
2342.0,0.003
2341.0,0.0002
2340.0,-0.0023
2339.0,-0.0029
2338.0,-0.0023
2337.0,-0.0019
2336.0,-0.0021
2335.0,-0.0028
2334.0,-0.0037
2333.0,-0.0045
2332.0,-0.0043
2331.0,-0.003
2330.0,-0.0011
2329.0,0.0007
2328.0,0.0023
2327.0,0.0032
2326.0,0.0031
2325.0,0.0018
2324.0,0.0002
2323.0,-0.0008
2322.0,-0.0007
2321.0,0.0006
2320.0,0.0023
2319.0,0.0039
2318.0,0.005
2317.0,0.0055
2316.0,0.0057
2315.0,0.0055
2314.0,0.0054
2313.0,0.0055
2312.0,0.0058
2311.0,0.0061
2310.0,0.0063
2309.0,0.0062
2308.0,0.0059
2307.0,0.0056
2306.0,0.0053
2305.0,0.0054
2304.0,0.0056
2303.0,0.006
2302.0,0.0064
2301.0,0.0066
2300.0,0.0068
2299.0,0.0069
2298.0,0.007
2297.0,0.0071
2296.0,0.007
2295.0,0.0069
2294.0,0.0067
2293.0,0.0065
2292.0,0.0063
2291.0,0.0062
2290.0,0.0061
2289.0,0.006
2288.0,0.0058
2287.0,0.0057
2286.0,0.0055
2285.0,0.0054
2284.0,0.0053
2283.0,0.0053
2282.0,0.0053
2281.0,0.0053
2280.0,0.0053
2279.0,0.0053
2278.0,0.0052
2277.0,0.0051
2276.0,0.005
2275.0,0.0049
2274.0,0.0049
2273.0,0.0049
2272.0,0.0049
2271.0,0.0048
2270.0,0.0047
2269.0,0.0047
2268.0,0.0047
2267.0,0.0048
2266.0,0.0049
2265.0,0.0049
2264.0,0.0048
2263.0,0.0048
2262.0,0.0048
2261.0,0.0048
2260.0,0.0048
2259.0,0.0049
2258.0,0.0049
2257.0,0.0049
2256.0,0.0049
2255.0,0.0049
2254.0,0.0049
2253.0,0.0049
2252.0,0.0048
2251.0,0.0048
2250.0,0.0047
2249.0,0.0047
2248.0,0.0047
2247.0,0.0047
2246.0,0.0046
2245.0,0.0046
2244.0,0.0045
2243.0,0.0045
2242.0,0.0044
2241.0,0.0044
2240.0,0.0043
2239.0,0.0043
2238.0,0.0043
2237.0,0.0043
2236.0,0.0044
2235.0,0.0044
2234.0,0.0044
2233.0,0.0043
2232.0,0.0043
2231.0,0.0043
2230.0,0.0042
2229.0,0.0042
2228.0,0.0042
2227.0,0.0042
2226.0,0.0042
2225.0,0.0042
2224.0,0.0043
2223.0,0.0043
2222.0,0.0043
2221.0,0.0044
2220.0,0.0044
2219.0,0.0043
2218.0,0.0043
2217.0,0.0042
2216.0,0.0042
2215.0,0.0042
2214.0,0.0042
2213.0,0.0042
2212.0,0.0042
2211.0,0.0042
2210.0,0.0042
2209.0,0.0041
2208.0,0.0041
2207.0,0.0041
2206.0,0.0041
2205.0,0.0042
2204.0,0.0042
2203.0,0.0043
2202.0,0.0042
2201.0,0.0042
2200.0,0.0042
2199.0,0.0042
2198.0,0.0042
2197.0,0.0042
2196.0,0.0042
2195.0,0.0043
2194.0,0.0043
2193.0,0.0043
2192.0,0.0042
2191.0,0.0042
2190.0,0.0042
2189.0,0.0042
2188.0,0.0042
2187.0,0.0043
2186.0,0.0043
2185.0,0.0043
2184.0,0.0043
2183.0,0.0043
2182.0,0.0043
2181.0,0.0043
2180.0,0.0043
2179.0,0.0043
2178.0,0.0043
2177.0,0.0043
2176.0,0.0043
2175.0,0.0042
2174.0,0.0042
2173.0,0.0042
2172.0,0.0042
2171.0,0.0042
2170.0,0.0042
2169.0,0.0043
2168.0,0.0043
2167.0,0.0043
2166.0,0.0042
2165.0,0.0042
2164.0,0.0042
2163.0,0.0041
2162.0,0.0042
2161.0,0.0042
2160.0,0.0042
2159.0,0.0042
2158.0,0.0042
2157.0,0.0042
2156.0,0.0041
2155.0,0.0041
2154.0,0.0041
2153.0,0.0041
2152.0,0.004
2151.0,0.004
2150.0,0.004
2149.0,0.004
2148.0,0.0041
2147.0,0.0041
2146.0,0.0041
2145.0,0.0041
2144.0,0.004
2143.0,0.004
2142.0,0.004
2141.0,0.004
2140.0,0.004
2139.0,0.004
2138.0,0.0041
2137.0,0.0041
2136.0,0.0041
2135.0,0.0041
2134.0,0.0042
2133.0,0.0042
2132.0,0.0042
2131.0,0.0042
2130.0,0.0042
2129.0,0.0042
2128.0,0.0042
2127.0,0.0041
2126.0,0.0041
2125.0,0.0041
2124.0,0.004
2123.0,0.004
2122.0,0.004
2121.0,0.004
2120.0,0.004
2119.0,0.004
2118.0,0.004
2117.0,0.0039
2116.0,0.0039
2115.0,0.0039
2114.0,0.0039
2113.0,0.0039
2112.0,0.0039
2111.0,0.0039
2110.0,0.0039
2109.0,0.0039
2108.0,0.0039
2107.0,0.0039
2106.0,0.0039
2105.0,0.004
2104.0,0.004
2103.0,0.004
2102.0,0.004
2101.0,0.004
2100.0,0.004
2099.0,0.0039
2098.0,0.0039
2097.0,0.0039
2096.0,0.0039
2095.0,0.0039
2094.0,0.0039
2093.0,0.0039
2092.0,0.0039
2091.0,0.0039
2090.0,0.0039
2089.0,0.0039
2088.0,0.0039
2087.0,0.004
2086.0,0.004
2085.0,0.004
2084.0,0.004
2083.0,0.0039
2082.0,0.0039
2081.0,0.0039
2080.0,0.0039
2079.0,0.004
2078.0,0.004
2077.0,0.004
2076.0,0.004
2075.0,0.004
2074.0,0.0041
2073.0,0.0041
2072.0,0.004
2071.0,0.004
2070.0,0.0039
2069.0,0.0039
2068.0,0.0039
2067.0,0.0039
2066.0,0.0039
2065.0,0.0039
2064.0,0.004
2063.0,0.004
2062.0,0.004
2061.0,0.004
2060.0,0.004
2059.0,0.004
2058.0,0.004
2057.0,0.004
2056.0,0.004
2055.0,0.004
2054.0,0.004
2053.0,0.0039
2052.0,0.0039
2051.0,0.0039
2050.0,0.0039
2049.0,0.0039
2048.0,0.0039
2047.0,0.0039
2046.0,0.0038
2045.0,0.0038
2044.0,0.0038
2043.0,0.0038
2042.0,0.0038
2041.0,0.0039
2040.0,0.0039
2039.0,0.0038
2038.0,0.0038
2037.0,0.0038
2036.0,0.0038
2035.0,0.0038
2034.0,0.0038
2033.0,0.0039
2032.0,0.0039
2031.0,0.0038
2030.0,0.0038
2029.0,0.0038
2028.0,0.0038
2027.0,0.0038
2026.0,0.0038
2025.0,0.0038
2024.0,0.0039
2023.0,0.0039
2022.0,0.0039
2021.0,0.0039
2020.0,0.0039
2019.0,0.0039
2018.0,0.0039
2017.0,0.0039
2016.0,0.0039
2015.0,0.0039
2014.0,0.0039
2013.0,0.0039
2012.0,0.0039
2011.0,0.0039
2010.0,0.0038
2009.0,0.0038
2008.0,0.0037
2007.0,0.0037
2006.0,0.0038
2005.0,0.0038
2004.0,0.0038
2003.0,0.0038
2002.0,0.0038
2001.0,0.0038
2000.0,0.0038
1999.0,0.0038
1998.0,0.0038
1997.0,0.0039
1996.0,0.0039
1995.0,0.004
1994.0,0.004
1993.0,0.004
1992.0,0.0039
1991.0,0.0038
1990.0,0.0038
1989.0,0.0038
1988.0,0.0037
1987.0,0.0037
1986.0,0.0037
1985.0,0.0037
1984.0,0.0038
1983.0,0.0038
1982.0,0.0038
1981.0,0.0038
1980.0,0.0037
1979.0,0.0037
1978.0,0.0037
1977.0,0.0037
1976.0,0.0037
1975.0,0.0037
1974.0,0.0037
1973.0,0.0038
1972.0,0.0038
1971.0,0.0038
1970.0,0.0038
1969.0,0.0038
1968.0,0.0038
1967.0,0.0038
1966.0,0.0038
1965.0,0.0037
1964.0,0.0037
1963.0,0.0037
1962.0,0.0037
1961.0,0.0038
1960.0,0.0038
1959.0,0.0038
1958.0,0.0038
1957.0,0.0038
1956.0,0.0038
1955.0,0.0038
1954.0,0.0038
1953.0,0.0037
1952.0,0.0037
1951.0,0.0036
1950.0,0.0036
1949.0,0.0036
1948.0,0.0036
1947.0,0.0037
1946.0,0.0037
1945.0,0.0037
1944.0,0.0038
1943.0,0.0038
1942.0,0.0039
1941.0,0.0039
1940.0,0.0039
1939.0,0.0039
1938.0,0.0039
1937.0,0.004
1936.0,0.004
1935.0,0.004
1934.0,0.0039
1933.0,0.0038
1932.0,0.0038
1931.0,0.0038
1930.0,0.0039
1929.0,0.0039
1928.0,0.0039
1927.0,0.0039
1926.0,0.004
1925.0,0.004
1924.0,0.004
1923.0,0.004
1922.0,0.004
1921.0,0.004
1920.0,0.004
1919.0,0.0041
1918.0,0.0041
1917.0,0.0042
1916.0,0.0041
1915.0,0.0041
1914.0,0.0041
1913.0,0.0041
1912.0,0.0041
1911.0,0.0041
1910.0,0.0041
1909.0,0.0041
1908.0,0.0041
1907.0,0.0041
1906.0,0.0041
1905.0,0.0041
1904.0,0.0041
1903.0,0.0041
1902.0,0.0041
1901.0,0.0041
1900.0,0.0041
1899.0,0.0041
1898.0,0.0041
1897.0,0.0041
1896.0,0.0041
1895.0,0.0041
1894.0,0.0041
1893.0,0.0041
1892.0,0.0042
1891.0,0.0042
1890.0,0.0042
1889.0,0.0042
1888.0,0.0042
1887.0,0.0042
1886.0,0.0042
1885.0,0.0041
1884.0,0.0041
1883.0,0.0041
1882.0,0.0041
1881.0,0.0041
1880.0,0.0041
1879.0,0.0041
1878.0,0.0041
1877.0,0.0041
1876.0,0.0041
1875.0,0.0041
1874.0,0.0041
1873.0,0.0041
1872.0,0.0042
1871.0,0.0041
1870.0,0.0042
1869.0,0.0042
1868.0,0.0041
1867.0,0.0041
1866.0,0.0041
1865.0,0.0041
1864.0,0.0041
1863.0,0.0041
1862.0,0.0041
1861.0,0.0042
1860.0,0.0042
1859.0,0.0042
1858.0,0.0042
1857.0,0.0041
1856.0,0.0041
1855.0,0.0041
1854.0,0.0041
1853.0,0.0041
1852.0,0.0042
1851.0,0.0042
1850.0,0.0042
1849.0,0.0042
1848.0,0.0043
1847.0,0.0044
1846.0,0.0044
1845.0,0.0044
1844.0,0.0043
1843.0,0.0043
1842.0,0.0043
1841.0,0.0042
1840.0,0.0042
1839.0,0.0042
1838.0,0.0042
1837.0,0.0042
1836.0,0.0042
1835.0,0.0043
1834.0,0.0044
1833.0,0.0044
1832.0,0.0044
1831.0,0.0044
1830.0,0.0043
1829.0,0.0042
1828.0,0.0042
1827.0,0.0041
1826.0,0.0041
1825.0,0.0041
1824.0,0.0042
1823.0,0.0042
1822.0,0.0043
1821.0,0.0043
1820.0,0.0043
1819.0,0.0042
1818.0,0.0042
1817.0,0.0041
1816.0,0.0041
1815.0,0.0042
1814.0,0.0042
1813.0,0.0042
1812.0,0.0042
1811.0,0.0042
1810.0,0.0042
1809.0,0.0042
1808.0,0.0042
1807.0,0.0043
1806.0,0.0043
1805.0,0.0043
1804.0,0.0043
1803.0,0.0044
1802.0,0.0044
1801.0,0.0044
1800.0,0.0043
1799.0,0.0043
1798.0,0.0043
1797.0,0.0044
1796.0,0.0045
1795.0,0.0045
1794.0,0.0045
1793.0,0.0045
1792.0,0.0045
1791.0,0.0045
1790.0,0.0045
1789.0,0.0045
1788.0,0.0046
1787.0,0.0046
1786.0,0.0046
1785.0,0.0047
1784.0,0.0046
1783.0,0.0046
1782.0,0.0046
1781.0,0.0046
1780.0,0.0047
1779.0,0.0047
1778.0,0.0047
1777.0,0.0047
1776.0,0.0047
1775.0,0.0047
1774.0,0.0047
1773.0,0.0047
1772.0,0.0048
1771.0,0.0048
1770.0,0.0048
1769.0,0.0049
1768.0,0.0049
1767.0,0.005
1766.0,0.005
1765.0,0.0051
1764.0,0.0051
1763.0,0.0052
1762.0,0.0052
1761.0,0.0052
1760.0,0.0052
1759.0,0.0052
1758.0,0.0052
1757.0,0.0053
1756.0,0.0055
1755.0,0.0056
1754.0,0.0058
1753.0,0.0059
1752.0,0.0062
1751.0,0.0064
1750.0,0.0067
1749.0,0.0068
1748.0,0.007
1747.0,0.0072
1746.0,0.0073
1745.0,0.0075
1744.0,0.0078
1743.0,0.0079
1742.0,0.008
1741.0,0.0081
1740.0,0.0083
1739.0,0.0084
1738.0,0.0084
1737.0,0.0085
1736.0,0.0085
1735.0,0.0086
1734.0,0.0086
1733.0,0.0085
1732.0,0.0083
1731.0,0.0081
1730.0,0.008
1729.0,0.008
1728.0,0.008
1727.0,0.0081
1726.0,0.0081
1725.0,0.0082
1724.0,0.0083
1723.0,0.0083
1722.0,0.0084
1721.0,0.0084
1720.0,0.0083
1719.0,0.0083
1718.0,0.0085
1717.0,0.0087
1716.0,0.0088
1715.0,0.0087
1714.0,0.0087
1713.0,0.0088
1712.0,0.0088
1711.0,0.0088
1710.0,0.0089
1709.0,0.009
1708.0,0.009
1707.0,0.0091
1706.0,0.0093
1705.0,0.0095
1704.0,0.0097
1703.0,0.01
1702.0,0.0102
1701.0,0.0105
1700.0,0.0109
1699.0,0.0109
1698.0,0.0109
1697.0,0.0109
1696.0,0.0109
1695.0,0.011
1694.0,0.0111
1693.0,0.0113
1692.0,0.0114
1691.0,0.0116
1690.0,0.0119
1689.0,0.0122
1688.0,0.0124
1687.0,0.0125
1686.0,0.0125
1685.0,0.0127
1684.0,0.0132
1683.0,0.0135
1682.0,0.0139
1681.0,0.0142
1680.0,0.0144
1679.0,0.0147
1678.0,0.0148
1677.0,0.015
1676.0,0.0154
1675.0,0.0157
1674.0,0.0159
1673.0,0.016
1672.0,0.0161
1671.0,0.0163
1670.0,0.0166
1669.0,0.0169
1668.0,0.0171
1667.0,0.0172
1666.0,0.0173
1665.0,0.0174
1664.0,0.0176
1663.0,0.0179
1662.0,0.0181
1661.0,0.0183
1660.0,0.0185
1659.0,0.0186
1658.0,0.0187
1657.0,0.0187
1656.0,0.0188
1655.0,0.0188
1654.0,0.0191
1653.0,0.0195
1652.0,0.0195
1651.0,0.0196
1650.0,0.0196
1649.0,0.0196
1648.0,0.0198
1647.0,0.0203
1646.0,0.0205
1645.0,0.0205
1644.0,0.0205
1643.0,0.0205
1642.0,0.0204
1641.0,0.0204
1640.0,0.0204
1639.0,0.0203
1638.0,0.0201
1637.0,0.0198
1636.0,0.0194
1635.0,0.0188
1634.0,0.0185
1633.0,0.0183
1632.0,0.0181
1631.0,0.0178
1630.0,0.0175
1629.0,0.0172
1628.0,0.0169
1627.0,0.0167
1626.0,0.0165
1625.0,0.0164
1624.0,0.0163
1623.0,0.0161
1622.0,0.0158
1621.0,0.0157
1620.0,0.0156
1619.0,0.0154
1618.0,0.0152
1617.0,0.015
1616.0,0.0148
1615.0,0.0147
1614.0,0.0146
1613.0,0.0145
1612.0,0.0143
1611.0,0.0142
1610.0,0.0141
1609.0,0.014
1608.0,0.0139
1607.0,0.0139
1606.0,0.0138
1605.0,0.0138
1604.0,0.0138
1603.0,0.0138
1602.0,0.0137
1601.0,0.0137
1600.0,0.0136
1599.0,0.0136
1598.0,0.0135
1597.0,0.0134
1596.0,0.0132
1595.0,0.0131
1594.0,0.013
1593.0,0.0129
1592.0,0.0129
1591.0,0.0129
1590.0,0.0128
1589.0,0.0128
1588.0,0.0128
1587.0,0.0128
1586.0,0.0128
1585.0,0.0128
1584.0,0.0129
1583.0,0.0129
1582.0,0.0129
1581.0,0.0129
1580.0,0.0129
1579.0,0.0129
1578.0,0.0128
1577.0,0.0127
1576.0,0.0126
1575.0,0.0125
1574.0,0.0125
1573.0,0.0124
1572.0,0.0123
1571.0,0.0122
1570.0,0.012
1569.0,0.0119
1568.0,0.0119
1567.0,0.0119
1566.0,0.0118
1565.0,0.0117
1564.0,0.0116
1563.0,0.0116
1562.0,0.0115
1561.0,0.0112
1560.0,0.011
1559.0,0.0111
1558.0,0.0106
1557.0,0.0106
1556.0,0.0107
1555.0,0.0106
1554.0,0.0104
1553.0,0.0103
1552.0,0.0101
1551.0,0.0099
1550.0,0.0098
1549.0,0.0097
1548.0,0.0096
1547.0,0.0096
1546.0,0.0095
1545.0,0.0096
1544.0,0.0098
1543.0,0.0099
1542.0,0.0099
1541.0,0.0098
1540.0,0.0089
1539.0,0.008
1538.0,0.0078
1537.0,0.0078
1536.0,0.0079
1535.0,0.0077
1534.0,0.0075
1533.0,0.0073
1532.0,0.0072
1531.0,0.0071
1530.0,0.0071
1529.0,0.007
1528.0,0.0071
1527.0,0.0071
1526.0,0.007
1525.0,0.007
1524.0,0.007
1523.0,0.007
1522.0,0.007
1521.0,0.0069
1520.0,0.0067
1519.0,0.0065
1518.0,0.0064
1517.0,0.0063
1516.0,0.0064
1515.0,0.0063
1514.0,0.0063
1513.0,0.0064
1512.0,0.0064
1511.0,0.0064
1510.0,0.0063
1509.0,0.0064
1508.0,0.0067
1507.0,0.0066
1506.0,0.006
1505.0,0.006
1504.0,0.0061
1503.0,0.0062
1502.0,0.0062
1501.0,0.0063
1500.0,0.0065
1499.0,0.0067
1498.0,0.0069
1497.0,0.0074
1496.0,0.0078
1495.0,0.0081
1494.0,0.0083
1493.0,0.0084
1492.0,0.0085
1491.0,0.0084
1490.0,0.0083
1489.0,0.0084
1488.0,0.0084
1487.0,0.0085
1486.0,0.0085
1485.0,0.0088
1484.0,0.009
1483.0,0.0093
1482.0,0.0098
1481.0,0.0104
1480.0,0.0112
1479.0,0.0119
1478.0,0.0129
1477.0,0.0147
1476.0,0.0172
1475.0,0.0202
1474.0,0.0241
1473.0,0.0295
1472.0,0.0346
1471.0,0.0385
1470.0,0.042
1469.0,0.046
1468.0,0.0504
1467.0,0.0555
1466.0,0.0619
1465.0,0.0696
1464.0,0.0763
1463.0,0.0804
1462.0,0.0827
1461.0,0.0841
1460.0,0.0851
1459.0,0.0861
1458.0,0.0881
1457.0,0.091
1456.0,0.0924
1455.0,0.0926
1454.0,0.0925
1453.0,0.0922
1452.0,0.0914
1451.0,0.0898
1450.0,0.0874
1449.0,0.0835
1448.0,0.0782
1447.0,0.0722
1446.0,0.0668
1445.0,0.0621
1444.0,0.0577
1443.0,0.0538
1442.0,0.0508
1441.0,0.0487
1440.0,0.0472
1439.0,0.0464
1438.0,0.0464
1437.0,0.0467
1436.0,0.0463
1435.0,0.0447
1434.0,0.0423
1433.0,0.0393
1432.0,0.0361
1431.0,0.033
1430.0,0.0305
1429.0,0.0285
1428.0,0.027
1427.0,0.0259
1426.0,0.025
1425.0,0.0241
1424.0,0.0232
1423.0,0.0226
1422.0,0.0222
1421.0,0.0217
1420.0,0.0211
1419.0,0.0207
1418.0,0.0204
1417.0,0.0199
1416.0,0.0194
1415.0,0.019
1414.0,0.0187
1413.0,0.0183
1412.0,0.0179
1411.0,0.0176
1410.0,0.0173
1409.0,0.017
1408.0,0.0166
1407.0,0.0162
1406.0,0.0159
1405.0,0.0156
1404.0,0.0153
1403.0,0.0151
1402.0,0.015
1401.0,0.0147
1400.0,0.0144
1399.0,0.0144
1398.0,0.0143
1397.0,0.0142
1396.0,0.014
1395.0,0.0138
1394.0,0.0138
1393.0,0.0136
1392.0,0.0135
1391.0,0.0136
1390.0,0.0139
1389.0,0.0143
1388.0,0.0151
1387.0,0.0168
1386.0,0.0192
1385.0,0.0225
1384.0,0.0274
1383.0,0.0346
1382.0,0.0445
1381.0,0.0571
1380.0,0.0729
1379.0,0.091
1378.0,0.1084
1377.0,0.1213
1376.0,0.1268
1375.0,0.1227
1374.0,0.1105
1373.0,0.0957
1372.0,0.0824
1371.0,0.071
1370.0,0.0611
1369.0,0.0529
1368.0,0.0469
1367.0,0.0431
1366.0,0.0408
1365.0,0.0396
1364.0,0.0394
1363.0,0.0402
1362.0,0.0416
1361.0,0.0431
1360.0,0.0442
1359.0,0.0445
1358.0,0.0439
1357.0,0.0423
1356.0,0.0399
1355.0,0.0372
1354.0,0.0346
1353.0,0.0324
1352.0,0.0305
1351.0,0.029
1350.0,0.0277
1349.0,0.0266
1348.0,0.0256
1347.0,0.0247
1346.0,0.0239
1345.0,0.0232
1344.0,0.0226
1343.0,0.0221
1342.0,0.0217
1341.0,0.0214
1340.0,0.0212
1339.0,0.021
1338.0,0.0208
1337.0,0.0207
1336.0,0.0207
1335.0,0.0207
1334.0,0.0209
1333.0,0.0211
1332.0,0.0214
1331.0,0.0216
1330.0,0.0217
1329.0,0.0216
1328.0,0.0214
1327.0,0.021
1326.0,0.0206
1325.0,0.0202
1324.0,0.0198
1323.0,0.0194
1322.0,0.0191
1321.0,0.0189
1320.0,0.0187
1319.0,0.0186
1318.0,0.0184
1317.0,0.0183
1316.0,0.0181
1315.0,0.018
1314.0,0.0179
1313.0,0.0178
1312.0,0.0178
1311.0,0.0178
1310.0,0.0179
1309.0,0.0183
1308.0,0.0189
1307.0,0.0197
1306.0,0.0206
1305.0,0.0213
1304.0,0.0216
1303.0,0.0214
1302.0,0.021
1301.0,0.0207
1300.0,0.0205
1299.0,0.0205
1298.0,0.0206
1297.0,0.0206
1296.0,0.0205
1295.0,0.0203
1294.0,0.02
1293.0,0.0197
1292.0,0.0194
1291.0,0.0191
1290.0,0.0188
1289.0,0.0185
1288.0,0.0182
1287.0,0.018
1286.0,0.0178
1285.0,0.0177
1284.0,0.0176
1283.0,0.0174
1282.0,0.0172
1281.0,0.0171
1280.0,0.0169
1279.0,0.0168
1278.0,0.0167
1277.0,0.0167
1276.0,0.0167
1275.0,0.0166
1274.0,0.0166
1273.0,0.0166
1272.0,0.0166
1271.0,0.0166
1270.0,0.0166
1269.0,0.0167
1268.0,0.0167
1267.0,0.0168
1266.0,0.0169
1265.0,0.017
1264.0,0.0171
1263.0,0.0173
1262.0,0.0174
1261.0,0.0177
1260.0,0.0182
1259.0,0.0188
1258.0,0.0195
1257.0,0.0201
1256.0,0.0204
1255.0,0.0204
1254.0,0.02
1253.0,0.0194
1252.0,0.0187
1251.0,0.0182
1250.0,0.0178
1249.0,0.0176
1248.0,0.0174
1247.0,0.0173
1246.0,0.0172
1245.0,0.0171
1244.0,0.017
1243.0,0.0169
1242.0,0.0168
1241.0,0.0167
1240.0,0.0167
1239.0,0.0167
1238.0,0.0166
1237.0,0.0166
1236.0,0.0166
1235.0,0.0165
1234.0,0.0165
1233.0,0.0163
1232.0,0.0162
1231.0,0.0162
1230.0,0.0162
1229.0,0.0162
1228.0,0.0163
1227.0,0.0164
1226.0,0.0166
1225.0,0.0169
1224.0,0.0172
1223.0,0.0175
1222.0,0.0178
1221.0,0.0181
1220.0,0.0182
1219.0,0.0183
1218.0,0.0183
1217.0,0.0182
1216.0,0.0181
1215.0,0.0179
1214.0,0.0177
1213.0,0.0175
1212.0,0.0172
1211.0,0.0171
1210.0,0.017
1209.0,0.0169
1208.0,0.0169
1207.0,0.017
1206.0,0.017
1205.0,0.017
1204.0,0.0171
1203.0,0.0172
1202.0,0.0173
1201.0,0.0174
1200.0,0.0175
1199.0,0.0176
1198.0,0.0177
1197.0,0.0177
1196.0,0.0177
1195.0,0.0176
1194.0,0.0176
1193.0,0.0175
1192.0,0.0176
1191.0,0.0176
1190.0,0.0177
1189.0,0.0179
1188.0,0.0181
1187.0,0.0183
1186.0,0.0186
1185.0,0.0189
1184.0,0.0191
1183.0,0.0194
1182.0,0.0196
1181.0,0.0199
1180.0,0.0202
1179.0,0.0206
1178.0,0.021
1177.0,0.0216
1176.0,0.0224
1175.0,0.0234
1174.0,0.0249
1173.0,0.0268
1172.0,0.0291
1171.0,0.0318
1170.0,0.0344
1169.0,0.0367
1168.0,0.0381
1167.0,0.0387
1166.0,0.0383
1165.0,0.0374
1164.0,0.0363
1163.0,0.0351
1162.0,0.034
1161.0,0.0332
1160.0,0.0325
1159.0,0.032
1158.0,0.0317
1157.0,0.0315
1156.0,0.0314
1155.0,0.0314
1154.0,0.0314
1153.0,0.0313
1152.0,0.0312
1151.0,0.0309
1150.0,0.0304
1149.0,0.0299
1148.0,0.0294
1147.0,0.0289
1146.0,0.0285
1145.0,0.0281
1144.0,0.0278
1143.0,0.0276
1142.0,0.0274
1141.0,0.0273
1140.0,0.0272
1139.0,0.0271
1138.0,0.027
1137.0,0.0269
1136.0,0.027
1135.0,0.0271
1134.0,0.0273
1133.0,0.0274
1132.0,0.0276
1131.0,0.0278
1130.0,0.028
1129.0,0.0281
1128.0,0.0282
1127.0,0.0283
1126.0,0.0284
1125.0,0.0284
1124.0,0.0284
1123.0,0.0285
1122.0,0.0285
1121.0,0.0286
1120.0,0.0286
1119.0,0.0286
1118.0,0.0285
1117.0,0.0285
1116.0,0.0284
1115.0,0.0284
1114.0,0.0283
1113.0,0.0283
1112.0,0.0283
1111.0,0.0283
1110.0,0.0283
1109.0,0.0284
1108.0,0.0286
1107.0,0.0289
1106.0,0.0292
1105.0,0.0296
1104.0,0.03
1103.0,0.0303
1102.0,0.0303
1101.0,0.0301
1100.0,0.0296
1099.0,0.029
1098.0,0.0284
1097.0,0.0278
1096.0,0.0274
1095.0,0.027
1094.0,0.0267
1093.0,0.0264
1092.0,0.0261
1091.0,0.0258
1090.0,0.0255
1089.0,0.0252
1088.0,0.025
1087.0,0.0248
1086.0,0.0246
1085.0,0.0244
1084.0,0.0242
1083.0,0.0239
1082.0,0.0237
1081.0,0.0234
1080.0,0.0232
1079.0,0.0229
1078.0,0.0226
1077.0,0.0223
1076.0,0.0221
1075.0,0.0218
1074.0,0.0216
1073.0,0.0214
1072.0,0.0212
1071.0,0.0209
1070.0,0.0207
1069.0,0.0204
1068.0,0.0201
1067.0,0.0197
1066.0,0.0194
1065.0,0.0191
1064.0,0.019
1063.0,0.0189
1062.0,0.0188
1061.0,0.0186
1060.0,0.0183
1059.0,0.0181
1058.0,0.0179
1057.0,0.0178
1056.0,0.0178
1055.0,0.0179
1054.0,0.0179
1053.0,0.0179
1052.0,0.018
1051.0,0.018
1050.0,0.0181
1049.0,0.0183
1048.0,0.0186
1047.0,0.0188
1046.0,0.019
1045.0,0.0191
1044.0,0.0191
1043.0,0.0189
1042.0,0.0187
1041.0,0.0185
1040.0,0.0183
1039.0,0.0182
1038.0,0.0182
1037.0,0.0182
1036.0,0.0182
1035.0,0.0182
1034.0,0.0181
1033.0,0.0181
1032.0,0.018
1031.0,0.0179
1030.0,0.0179
1029.0,0.0178
1028.0,0.0178
1027.0,0.0178
1026.0,0.0179
1025.0,0.018
1024.0,0.0181
1023.0,0.0181
1022.0,0.0182
1021.0,0.0182
1020.0,0.0182
1019.0,0.0181
1018.0,0.0181
1017.0,0.0181
1016.0,0.0181
1015.0,0.0181
1014.0,0.018
1013.0,0.018
1012.0,0.018
1011.0,0.0181
1010.0,0.0181
1009.0,0.0183
1008.0,0.0186
1007.0,0.0191
1006.0,0.0197
1005.0,0.0205
1004.0,0.0216
1003.0,0.0233
1002.0,0.0257
1001.0,0.0288
1000.0,0.0322
999.0,0.0353
998.0,0.0371
997.0,0.0373
996.0,0.0358
995.0,0.0333
994.0,0.0305
993.0,0.0279
992.0,0.0257
991.0,0.0241
990.0,0.023
989.0,0.0222
988.0,0.0217
987.0,0.0213
986.0,0.021
985.0,0.0209
984.0,0.021
983.0,0.0213
982.0,0.0219
981.0,0.0229
980.0,0.0244
979.0,0.0265
978.0,0.0292
977.0,0.0325
976.0,0.0361
975.0,0.0397
974.0,0.0427
973.0,0.0442
972.0,0.0438
971.0,0.0415
970.0,0.0381
969.0,0.0345
968.0,0.0313
967.0,0.0289
966.0,0.027
965.0,0.0256
964.0,0.0246
963.0,0.0238
962.0,0.0232
961.0,0.0226
960.0,0.0221
959.0,0.0216
958.0,0.0212
957.0,0.0209
956.0,0.0207
955.0,0.0205
954.0,0.0204
953.0,0.0202
952.0,0.0201
951.0,0.02
950.0,0.02
949.0,0.0201
948.0,0.0201
947.0,0.0201
946.0,0.0201
945.0,0.0202
944.0,0.0203
943.0,0.0205
942.0,0.0208
941.0,0.0211
940.0,0.0212
939.0,0.0211
938.0,0.0208
937.0,0.0204
936.0,0.02
935.0,0.0197
934.0,0.0194
933.0,0.0193
932.0,0.0191
931.0,0.0191
930.0,0.019
929.0,0.019
928.0,0.019
927.0,0.0189
926.0,0.0189
925.0,0.0189
924.0,0.0188
923.0,0.0188
922.0,0.0188
921.0,0.0188
920.0,0.0188
919.0,0.0188
918.0,0.0188
917.0,0.0188
916.0,0.0188
915.0,0.0188
914.0,0.0189
913.0,0.019
912.0,0.0192
911.0,0.0194
910.0,0.0197
909.0,0.0199
908.0,0.0201
907.0,0.0203
906.0,0.0208
905.0,0.0216
904.0,0.0226
903.0,0.0239
902.0,0.0254
901.0,0.0269
900.0,0.028
899.0,0.0286
898.0,0.0284
897.0,0.0277
896.0,0.0265
895.0,0.0253
894.0,0.0243
893.0,0.0234
892.0,0.0228
891.0,0.0223
890.0,0.022
889.0,0.0218
888.0,0.0216
887.0,0.0216
886.0,0.0216
885.0,0.0217
884.0,0.0216
883.0,0.0216
882.0,0.0216
881.0,0.0216
880.0,0.0216
879.0,0.0216
878.0,0.0216
877.0,0.0216
876.0,0.0217
875.0,0.0216
874.0,0.0215
873.0,0.0214
872.0,0.0213
871.0,0.0212
870.0,0.0213
869.0,0.0214
868.0,0.0215
867.0,0.0216
866.0,0.0215
865.0,0.0215
864.0,0.0215
863.0,0.0216
862.0,0.0218
861.0,0.0219
860.0,0.022
859.0,0.022
858.0,0.022
857.0,0.022
856.0,0.0221
855.0,0.0222
854.0,0.0223
853.0,0.0224
852.0,0.0225
851.0,0.0227
850.0,0.0229
849.0,0.0234
848.0,0.024
847.0,0.0249
846.0,0.0263
845.0,0.0285
844.0,0.0319
843.0,0.0361
842.0,0.0398
841.0,0.0416
840.0,0.0407
839.0,0.0378
838.0,0.0344
837.0,0.0316
836.0,0.0296
835.0,0.0284
834.0,0.0276
833.0,0.0272
832.0,0.0268
831.0,0.0265
830.0,0.0262
829.0,0.0259
828.0,0.0257
827.0,0.0255
826.0,0.0254
825.0,0.0253
824.0,0.0252
823.0,0.0251
822.0,0.025
821.0,0.025
820.0,0.0251
819.0,0.0252
818.0,0.0255
817.0,0.0259
816.0,0.0266
815.0,0.0274
814.0,0.0285
813.0,0.0299
812.0,0.0314
811.0,0.0329
810.0,0.0341
809.0,0.0349
808.0,0.035
807.0,0.0345
806.0,0.0336
805.0,0.0325
804.0,0.0314
803.0,0.0305
802.0,0.0299
801.0,0.0294
800.0,0.029
799.0,0.0288
798.0,0.0287
797.0,0.0286
796.0,0.0283
795.0,0.028
794.0,0.0276
793.0,0.0275
792.0,0.0274
791.0,0.0275
790.0,0.0277
789.0,0.0278
788.0,0.0279
787.0,0.0278
786.0,0.0278
785.0,0.0277
784.0,0.0277
783.0,0.0277
782.0,0.0277
781.0,0.0277
780.0,0.0278
779.0,0.0279
778.0,0.028
777.0,0.0282
776.0,0.0284
775.0,0.0286
774.0,0.0289
773.0,0.0293
772.0,0.0297
771.0,0.03
770.0,0.0301
769.0,0.0302
768.0,0.0303
767.0,0.0305
766.0,0.0308
765.0,0.0311
764.0,0.0314
763.0,0.0316
762.0,0.0318
761.0,0.032
760.0,0.0322
759.0,0.0324
758.0,0.0328
757.0,0.0331
756.0,0.0335
755.0,0.0337
754.0,0.0339
753.0,0.034
752.0,0.034
751.0,0.034
750.0,0.0341
749.0,0.0343
748.0,0.0346
747.0,0.035
746.0,0.0353
745.0,0.0355
744.0,0.0356
743.0,0.0356
742.0,0.0354
741.0,0.0353
740.0,0.0353
739.0,0.0354
738.0,0.0355
737.0,0.0357
736.0,0.0359
735.0,0.0364
734.0,0.0373
733.0,0.0388
732.0,0.0407
731.0,0.0423
730.0,0.0431
729.0,0.0432
728.0,0.0427
727.0,0.0422
726.0,0.0419
725.0,0.042
724.0,0.0423
723.0,0.0431
722.0,0.0445
721.0,0.0462
720.0,0.0474
719.0,0.0474
718.0,0.0462
717.0,0.0447
716.0,0.0434
715.0,0.0425
714.0,0.0421
713.0,0.042
712.0,0.0421
711.0,0.042
710.0,0.042
709.0,0.0421
708.0,0.0424
707.0,0.0428
706.0,0.0431
705.0,0.0437
704.0,0.0448
703.0,0.0464
702.0,0.0483
701.0,0.0503
700.0,0.0518
699.0,0.0526
698.0,0.0526
697.0,0.0519
696.0,0.0504
695.0,0.0484
694.0,0.046
693.0,0.0438
692.0,0.0422
691.0,0.0414
690.0,0.0413
689.0,0.0417
688.0,0.0417
687.0,0.0409
686.0,0.0393
685.0,0.0379
684.0,0.0373
683.0,0.0374
682.0,0.0378
681.0,0.0382
680.0,0.0381
679.0,0.0374
678.0,0.0368
677.0,0.0368
676.0,0.0375
675.0,0.0385
674.0,0.0394
673.0,0.0399
672.0,0.0392
671.0,0.0366
670.0,0.0323
669.0,0.0275
668.0,0.0256
667.0,0.0303
666.0,0.0356
665.0,0.0383
664.0,0.0392
663.0,0.039
662.0,0.0384
661.0,0.0377
660.0,0.0371
659.0,0.0367
658.0,0.0364
657.0,0.0363
656.0,0.0363
655.0,0.0364
654.0,0.0365
653.0,0.0369
652.0,0.0374
651.0,0.038
650.0,0.0386
649.0,0.0393
648.0,0.0397
647.0,0.0394
646.0,0.0387
645.0,0.0379
644.0,0.0375
643.0,0.0376
642.0,0.0382
641.0,0.0392
640.0,0.0404
639.0,0.0414
638.0,0.0421
637.0,0.0428
636.0,0.0434
635.0,0.0438
634.0,0.0435
633.0,0.0427
632.0,0.0416
631.0,0.0407
630.0,0.0403
629.0,0.0404
628.0,0.0406
627.0,0.0405
626.0,0.0401
625.0,0.0396
624.0,0.0393
623.0,0.0392
622.0,0.0392
621.0,0.0395
620.0,0.0396
619.0,0.0395
618.0,0.0392
617.0,0.0391
616.0,0.0393
615.0,0.0396
614.0,0.0398
613.0,0.0402
612.0,0.0404
611.0,0.0405
610.0,0.0404
609.0,0.0403
608.0,0.04
607.0,0.0395
606.0,0.039
605.0,0.039
604.0,0.0397
603.0,0.0404
602.0,0.0405
601.0,0.0401
600.0,0.0398
