cm-1,A
4000.0,0.0065
3999.0,0.0065
3998.0,0.0065
3997.0,0.0065
3996.0,0.0066
3995.0,0.0066
3994.0,0.0066
3993.0,0.0066
3992.0,0.0066
3991.0,0.0065
3990.0,0.0065
3989.0,0.0065
3988.0,0.0065
3987.0,0.0065
3986.0,0.0065
3985.0,0.0065
3984.0,0.0065
3983.0,0.0066
3982.0,0.0066
3981.0,0.0067
3980.0,0.0066
3979.0,0.0066
3978.0,0.0065
3977.0,0.0065
3976.0,0.0065
3975.0,0.0065
3974.0,0.0065
3973.0,0.0066
3972.0,0.0066
3971.0,0.0067
3970.0,0.0067
3969.0,0.0067
3968.0,0.0067
3967.0,0.0067
3966.0,0.0067
3965.0,0.0068
3964.0,0.0068
3963.0,0.0068
3962.0,0.0068
3961.0,0.0067
3960.0,0.0066
3959.0,0.0066
3958.0,0.0065
3957.0,0.0066
3956.0,0.0066
3955.0,0.0067
3954.0,0.0068
3953.0,0.0068
3952.0,0.0068
3951.0,0.0067
3950.0,0.0067
3949.0,0.0067
3948.0,0.0066
3947.0,0.0066
3946.0,0.0066
3945.0,0.0066
3944.0,0.0066
3943.0,0.0066
3942.0,0.0066
3941.0,0.0067
3940.0,0.0068
3939.0,0.0068
3938.0,0.0068
3937.0,0.0067
3936.0,0.0065
3935.0,0.0064
3934.0,0.0064
3933.0,0.0064
3932.0,0.0067
3931.0,0.0069
3930.0,0.0072
3929.0,0.0073
3928.0,0.0073
3927.0,0.0072
3926.0,0.0071
3925.0,0.007
3924.0,0.0069
3923.0,0.0068
3922.0,0.0068
3921.0,0.0067
3920.0,0.0067
3919.0,0.0067
3918.0,0.0067
3917.0,0.0068
3916.0,0.0068
3915.0,0.0068
3914.0,0.0068
3913.0,0.0068
3912.0,0.0067
3911.0,0.0067
3910.0,0.0067
3909.0,0.0067
3908.0,0.0068
3907.0,0.0069
3906.0,0.0069
3905.0,0.0069
3904.0,0.0068
3903.0,0.0068
3902.0,0.0069
3901.0,0.0069
3900.0,0.0069
3899.0,0.0068
3898.0,0.0068
3897.0,0.0068
3896.0,0.0067
3895.0,0.0067
3894.0,0.0066
3893.0,0.0065
3892.0,0.0065
3891.0,0.0065
3890.0,0.0066
3889.0,0.0067
3888.0,0.0068
3887.0,0.0067
3886.0,0.0067
3885.0,0.0067
3884.0,0.0069
3883.0,0.007
3882.0,0.007
3881.0,0.007
3880.0,0.0069
3879.0,0.0069
3878.0,0.007
3877.0,0.007
3876.0,0.007
3875.0,0.0068
3874.0,0.0068
3873.0,0.0069
3872.0,0.007
3871.0,0.0071
3870.0,0.007
3869.0,0.007
3868.0,0.0071
3867.0,0.0072
3866.0,0.0071
3865.0,0.007
3864.0,0.007
3863.0,0.007
3862.0,0.0071
3861.0,0.0071
3860.0,0.0071
3859.0,0.007
3858.0,0.007
3857.0,0.007
3856.0,0.0071
3855.0,0.007
3854.0,0.0069
3853.0,0.0068
3852.0,0.0069
3851.0,0.007
3850.0,0.0071
3849.0,0.0071
3848.0,0.0071
3847.0,0.0071
3846.0,0.0071
3845.0,0.0072
3844.0,0.0072
3843.0,0.0072
3842.0,0.0072
3841.0,0.007
3840.0,0.0068
3839.0,0.0066
3838.0,0.0064
3837.0,0.0064
3836.0,0.0065
3835.0,0.0067
3834.0,0.0069
3833.0,0.0071
3832.0,0.0071
3831.0,0.0071
3830.0,0.0072
3829.0,0.0073
3828.0,0.0073
3827.0,0.0072
3826.0,0.0072
3825.0,0.0072
3824.0,0.0075
3823.0,0.0076
3822.0,0.0075
3821.0,0.0074
3820.0,0.0072
3819.0,0.0073
3818.0,0.0074
3817.0,0.0073
3816.0,0.0072
3815.0,0.0071
3814.0,0.0072
3813.0,0.0072
3812.0,0.0072
3811.0,0.0071
3810.0,0.0071
3809.0,0.0071
3808.0,0.0071
3807.0,0.007
3806.0,0.007
3805.0,0.007
3804.0,0.0071
3803.0,0.007
3802.0,0.0069
3801.0,0.0069
3800.0,0.007
3799.0,0.0071
3798.0,0.0072
3797.0,0.0072
3796.0,0.0072
3795.0,0.0072
3794.0,0.0073
3793.0,0.0074
3792.0,0.0074
3791.0,0.0073
3790.0,0.0073
3789.0,0.0072
3788.0,0.0072
3787.0,0.0072
3786.0,0.0073
3785.0,0.0073
3784.0,0.0073
3783.0,0.0073
3782.0,0.0073
3781.0,0.0073
3780.0,0.0072
3779.0,0.0072
3778.0,0.0072
3777.0,0.0072
3776.0,0.0073
3775.0,0.0073
3774.0,0.0073
3773.0,0.0074
3772.0,0.0074
3771.0,0.0074
3770.0,0.0074
3769.0,0.0074
3768.0,0.0075
3767.0,0.0075
3766.0,0.0075
3765.0,0.0074
3764.0,0.0073
3763.0,0.0073
3762.0,0.0072
3761.0,0.0072
3760.0,0.0073
3759.0,0.0075
3758.0,0.0075
3757.0,0.0075
3756.0,0.0075
3755.0,0.0074
3754.0,0.0074
3753.0,0.0073
3752.0,0.0072
3751.0,0.0071
3750.0,0.0069
3749.0,0.0066
3748.0,0.0066
3747.0,0.0068
3746.0,0.0069
3745.0,0.0068
3744.0,0.0067
3743.0,0.0066
3742.0,0.0067
3741.0,0.0067
3740.0,0.0067
3739.0,0.0067
3738.0,0.0067
3737.0,0.0067
3736.0,0.0067
3735.0,0.0068
3734.0,0.0068
3733.0,0.0066
3732.0,0.0064
3731.0,0.0063
3730.0,0.0063
3729.0,0.0063
3728.0,0.0063
3727.0,0.0064
3726.0,0.0066
3725.0,0.0068
3724.0,0.0071
3723.0,0.0072
3722.0,0.0072
3721.0,0.0072
3720.0,0.0072
3719.0,0.0072
3718.0,0.0072
3717.0,0.0072
3716.0,0.0072
3715.0,0.0071
3714.0,0.007
3713.0,0.007
3712.0,0.0071
3711.0,0.0073
3710.0,0.0074
3709.0,0.0073
3708.0,0.0072
3707.0,0.0071
3706.0,0.007
3705.0,0.0069
3704.0,0.007
3703.0,0.007
3702.0,0.007
3701.0,0.007
3700.0,0.007
3699.0,0.007
3698.0,0.0069
3697.0,0.0069
3696.0,0.007
3695.0,0.0071
3694.0,0.0072
3693.0,0.0073
3692.0,0.0073
3691.0,0.0074
3690.0,0.0076
3689.0,0.0076
3688.0,0.0075
3687.0,0.0075
3686.0,0.0075
3685.0,0.0076
3684.0,0.0076
3683.0,0.0077
3682.0,0.0077
3681.0,0.0077
3680.0,0.0077
3679.0,0.0077
3678.0,0.0077
3677.0,0.0076
3676.0,0.0076
3675.0,0.0076
3674.0,0.0076
3673.0,0.0078
3672.0,0.0078
3671.0,0.0078
3670.0,0.0079
3669.0,0.008
3668.0,0.008
3667.0,0.008
3666.0,0.008
3665.0,0.008
3664.0,0.0081
3663.0,0.0081
3662.0,0.0082
3661.0,0.0082
3660.0,0.0082
3659.0,0.0082
3658.0,0.0081
3657.0,0.0081
3656.0,0.008
3655.0,0.0081
3654.0,0.0083
3653.0,0.0085
3652.0,0.0085
3651.0,0.0085
3650.0,0.0087
3649.0,0.0088
3648.0,0.0088
3647.0,0.0088
3646.0,0.0087
3645.0,0.0086
3644.0,0.0085
3643.0,0.0085
3642.0,0.0085
3641.0,0.0085
3640.0,0.0086
3639.0,0.0086
3638.0,0.0087
3637.0,0.0087
3636.0,0.0087
3635.0,0.0087
3634.0,0.0087
3633.0,0.0086
3632.0,0.0086
3631.0,0.0086
3630.0,0.0085
3629.0,0.0086
3628.0,0.0087
3627.0,0.0087
3626.0,0.0087
3625.0,0.0088
3624.0,0.0088
3623.0,0.0089
3622.0,0.0091
3621.0,0.0093
3620.0,0.0095
3619.0,0.0096
3618.0,0.0097
3617.0,0.0097
3616.0,0.0097
3615.0,0.0097
3614.0,0.0097
3613.0,0.0098
3612.0,0.0099
3611.0,0.01
3610.0,0.01
3609.0,0.01
3608.0,0.0102
3607.0,0.0103
3606.0,0.0103
3605.0,0.0103
3604.0,0.0102
3603.0,0.0102
3602.0,0.0102
3601.0,0.0102
3600.0,0.0102
3599.0,0.0102
3598.0,0.0102
3597.0,0.0103
3596.0,0.0105
3595.0,0.0105
3594.0,0.0105
3593.0,0.0104
3592.0,0.0103
3591.0,0.0103
3590.0,0.0103
3589.0,0.0104
3588.0,0.0104
3587.0,0.0104
3586.0,0.0104
3585.0,0.0103
3584.0,0.0103
3583.0,0.0104
3582.0,0.0105
3581.0,0.0105
3580.0,0.0106
3579.0,0.0106
3578.0,0.0106
3577.0,0.0106
3576.0,0.0106
3575.0,0.0107
3574.0,0.0107
3573.0,0.0108
3572.0,0.0107
3571.0,0.0107
3570.0,0.0107
3569.0,0.0107
3568.0,0.0108
3567.0,0.011
3566.0,0.0111
3565.0,0.0112
3564.0,0.0112
3563.0,0.0112
3562.0,0.0112
3561.0,0.0112
3560.0,0.0112
3559.0,0.0113
3558.0,0.0113
3557.0,0.0114
3556.0,0.0114
3555.0,0.0115
3554.0,0.0115
3553.0,0.0115
3552.0,0.0115
3551.0,0.0115
3550.0,0.0115
3549.0,0.0115
3548.0,0.0115
3547.0,0.0116
3546.0,0.0116
3545.0,0.0116
3544.0,0.0115
3543.0,0.0115
3542.0,0.0116
3541.0,0.0117
3540.0,0.0118
3539.0,0.0119
3538.0,0.012
3537.0,0.012
3536.0,0.012
3535.0,0.0119
3534.0,0.0118
3533.0,0.0117
3532.0,0.0116
3531.0,0.0115
3530.0,0.0115
3529.0,0.0115
3528.0,0.0115
3527.0,0.0115
3526.0,0.0114
3525.0,0.0114
3524.0,0.0115
3523.0,0.0115
3522.0,0.0116
3521.0,0.0116
3520.0,0.0116
3519.0,0.0116
3518.0,0.0115
3517.0,0.0114
3516.0,0.0113
3515.0,0.0113
3514.0,0.0113
3513.0,0.0114
3512.0,0.0113
3511.0,0.0113
3510.0,0.0112
3509.0,0.0111
3508.0,0.0109
3507.0,0.0108
3506.0,0.0108
3505.0,0.0109
3504.0,0.011
3503.0,0.0112
3502.0,0.0112
3501.0,0.0112
3500.0,0.0111
3499.0,0.0111
3498.0,0.0111
3497.0,0.0111
3496.0,0.0111
3495.0,0.0111
3494.0,0.0111
3493.0,0.011
3492.0,0.011
3491.0,0.0109
3490.0,0.0108
3489.0,0.0108
3488.0,0.0108
3487.0,0.0108
3486.0,0.0108
3485.0,0.0108
3484.0,0.0109
3483.0,0.0109
3482.0,0.0109
3481.0,0.0109
3480.0,0.0109
3479.0,0.0109
3478.0,0.0109
3477.0,0.0109
3476.0,0.0108
3475.0,0.0107
3474.0,0.0107
3473.0,0.0107
3472.0,0.0108
3471.0,0.0109
3470.0,0.011
3469.0,0.0111
3468.0,0.0111
3467.0,0.0111
3466.0,0.011
3465.0,0.0109
3464.0,0.0109
3463.0,0.0108
3462.0,0.0108
3461.0,0.0107
3460.0,0.0106
3459.0,0.0106
3458.0,0.0106
3457.0,0.0107
3456.0,0.0107
3455.0,0.0107
3454.0,0.0106
3453.0,0.0107
3452.0,0.0107
3451.0,0.0108
3450.0,0.0109
3449.0,0.0109
3448.0,0.0109
3447.0,0.0108
3446.0,0.0107
3445.0,0.0106
3444.0,0.0106
3443.0,0.0106
3442.0,0.0106
3441.0,0.0107
3440.0,0.0107
3439.0,0.0107
3438.0,0.0106
3437.0,0.0105
3436.0,0.0104
3435.0,0.0103
3434.0,0.0104
3433.0,0.0104
3432.0,0.0105
3431.0,0.0105
3430.0,0.0105
3429.0,0.0106
3428.0,0.0106
3427.0,0.0106
3426.0,0.0106
3425.0,0.0105
3424.0,0.0105
3423.0,0.0105
3422.0,0.0106
3421.0,0.0106
3420.0,0.0107
3419.0,0.0107
3418.0,0.0107
3417.0,0.0107
3416.0,0.0107
3415.0,0.0108
3414.0,0.0108
3413.0,0.0108
3412.0,0.0108
3411.0,0.0107
3410.0,0.0106
3409.0,0.0106
3408.0,0.0106
3407.0,0.0106
3406.0,0.0107
3405.0,0.0107
3404.0,0.0107
3403.0,0.0108
3402.0,0.0108
3401.0,0.0108
3400.0,0.0108
3399.0,0.0107
3398.0,0.0107
3397.0,0.0107
3396.0,0.0107
3395.0,0.0106
3394.0,0.0105
3393.0,0.0105
3392.0,0.0105
3391.0,0.0105
3390.0,0.0105
3389.0,0.0105
3388.0,0.0105
3387.0,0.0104
3386.0,0.0104
3385.0,0.0104
3384.0,0.0104
3383.0,0.0105
3382.0,0.0105
3381.0,0.0104
3380.0,0.0103
3379.0,0.0103
3378.0,0.0103
3377.0,0.0103
3376.0,0.0104
3375.0,0.0104
3374.0,0.0104
3373.0,0.0104
3372.0,0.0104
3371.0,0.0104
3370.0,0.0104
3369.0,0.0104
3368.0,0.0104
3367.0,0.0104
3366.0,0.0104
3365.0,0.0104
3364.0,0.0104
3363.0,0.0104
3362.0,0.0104
3361.0,0.0103
3360.0,0.0102
3359.0,0.0102
3358.0,0.0102
3357.0,0.0102
3356.0,0.0102
3355.0,0.0102
3354.0,0.0102
3353.0,0.0102
3352.0,0.0102
3351.0,0.0101
3350.0,0.0101
3349.0,0.0101
3348.0,0.0101
3347.0,0.0101
3346.0,0.0101
3345.0,0.0101
3344.0,0.01
3343.0,0.01
3342.0,0.0099
3341.0,0.0099
3340.0,0.0099
3339.0,0.01
3338.0,0.0101
3337.0,0.0102
3336.0,0.0103
3335.0,0.0103
3334.0,0.0103
3333.0,0.0103
3332.0,0.0102
3331.0,0.0101
3330.0,0.01
3329.0,0.0099
3328.0,0.0098
3327.0,0.0098
3326.0,0.0099
3325.0,0.01
3324.0,0.01
3323.0,0.01
3322.0,0.0098
3321.0,0.0097
3320.0,0.0096
3319.0,0.0096
3318.0,0.0096
3317.0,0.0097
3316.0,0.0098
3315.0,0.0099
3314.0,0.01
3313.0,0.0099
3312.0,0.0099
3311.0,0.0098
3310.0,0.0097
3309.0,0.0097
3308.0,0.0097
3307.0,0.0097
3306.0,0.0096
3305.0,0.0095
3304.0,0.0094
3303.0,0.0094
3302.0,0.0095
3301.0,0.0096
3300.0,0.0097
3299.0,0.0097
3298.0,0.0096
3297.0,0.0095
3296.0,0.0094
3295.0,0.0093
3294.0,0.0093
3293.0,0.0093
3292.0,0.0093
3291.0,0.0093
3290.0,0.0093
3289.0,0.0093
3288.0,0.0093
3287.0,0.0093
3286.0,0.0094
3285.0,0.0094
3284.0,0.0094
3283.0,0.0094
3282.0,0.0093
3281.0,0.0093
3280.0,0.0094
3279.0,0.0094
3278.0,0.0094
3277.0,0.0093
3276.0,0.0092
3275.0,0.0092
3274.0,0.0092
3273.0,0.0092
3272.0,0.0093
3271.0,0.0094
3270.0,0.0095
3269.0,0.0095
3268.0,0.0095
3267.0,0.0094
3266.0,0.0094
3265.0,0.0092
3264.0,0.0091
3263.0,0.009
3262.0,0.009
3261.0,0.009
3260.0,0.009
3259.0,0.0091
3258.0,0.0092
3257.0,0.0092
3256.0,0.0092
3255.0,0.0092
3254.0,0.0092
3253.0,0.0092
3252.0,0.0092
3251.0,0.0091
3250.0,0.0091
3249.0,0.009
3248.0,0.009
3247.0,0.009
3246.0,0.0091
3245.0,0.009
3244.0,0.009
3243.0,0.009
3242.0,0.009
3241.0,0.0089
3240.0,0.0089
3239.0,0.0089
3238.0,0.009
3237.0,0.009
3236.0,0.009
3235.0,0.009
3234.0,0.0089
3233.0,0.0089
3232.0,0.0088
3231.0,0.0088
3230.0,0.0088
3229.0,0.0088
3228.0,0.0088
3227.0,0.0088
3226.0,0.0088
3225.0,0.0088
3224.0,0.0088
3223.0,0.0088
3222.0,0.0088
3221.0,0.0088
3220.0,0.0088
3219.0,0.0088
3218.0,0.0088
3217.0,0.0088
3216.0,0.0087
3215.0,0.0086
3214.0,0.0085
3213.0,0.0084
3212.0,0.0084
3211.0,0.0084
3210.0,0.0085
3209.0,0.0085
3208.0,0.0085
3207.0,0.0085
3206.0,0.0084
3205.0,0.0083
3204.0,0.0083
3203.0,0.0082
3202.0,0.0082
3201.0,0.0082
3200.0,0.0082
3199.0,0.0082
3198.0,0.0082
3197.0,0.0082
3196.0,0.0082
3195.0,0.0082
3194.0,0.0082
3193.0,0.0082
3192.0,0.0082
3191.0,0.0082
3190.0,0.0082
3189.0,0.0082
3188.0,0.0082
3187.0,0.0081
3186.0,0.008
3185.0,0.0079
3184.0,0.0078
3183.0,0.0078
3182.0,0.0077
3181.0,0.0078
3180.0,0.0078
3179.0,0.0079
3178.0,0.008
3177.0,0.008
3176.0,0.0079
3175.0,0.0079
3174.0,0.0078
3173.0,0.0077
3172.0,0.0077
3171.0,0.0076
3170.0,0.0076
3169.0,0.0076
3168.0,0.0077
3167.0,0.0077
3166.0,0.0077
3165.0,0.0077
3164.0,0.0077
3163.0,0.0077
3162.0,0.0077
3161.0,0.0077
3160.0,0.0077
3159.0,0.0076
3158.0,0.0075
3157.0,0.0074
3156.0,0.0073
3155.0,0.0074
3154.0,0.0074
3153.0,0.0074
3152.0,0.0074
3151.0,0.0074
3150.0,0.0074
3149.0,0.0073
3148.0,0.0073
3147.0,0.0072
3146.0,0.0072
3145.0,0.0073
3144.0,0.0072
3143.0,0.0072
3142.0,0.0072
3141.0,0.0072
3140.0,0.0072
3139.0,0.0072
3138.0,0.0072
3137.0,0.0072
3136.0,0.0072
3135.0,0.0071
3134.0,0.007
3133.0,0.007
3132.0,0.007
3131.0,0.007
3130.0,0.007
3129.0,0.0069
3128.0,0.0069
3127.0,0.0068
3126.0,0.0068
3125.0,0.0068
3124.0,0.0067
3123.0,0.0067
3122.0,0.0067
3121.0,0.0067
3120.0,0.0067
3119.0,0.0067
3118.0,0.0066
3117.0,0.0065
3116.0,0.0064
3115.0,0.0064
3114.0,0.0065
3113.0,0.0065
3112.0,0.0066
3111.0,0.0065
3110.0,0.0065
3109.0,0.0064
3108.0,0.0063
3107.0,0.0063
3106.0,0.0063
3105.0,0.0062
3104.0,0.0062
3103.0,0.0062
3102.0,0.0063
3101.0,0.0063
3100.0,0.0063
3099.0,0.0063
3098.0,0.0063
3097.0,0.0063
3096.0,0.0063
3095.0,0.0062
3094.0,0.0061
3093.0,0.006
3092.0,0.006
3091.0,0.0061
3090.0,0.0062
3089.0,0.0062
3088.0,0.0062
3087.0,0.0061
3086.0,0.006
3085.0,0.0059
3084.0,0.0058
3083.0,0.0058
3082.0,0.0058
3081.0,0.0058
3080.0,0.0058
3079.0,0.0057
3078.0,0.0056
3077.0,0.0056
3076.0,0.0055
3075.0,0.0055
3074.0,0.0055
3073.0,0.0055
3072.0,0.0055
3071.0,0.0055
3070.0,0.0055
3069.0,0.0054
3068.0,0.0054
3067.0,0.0053
3066.0,0.0053
3065.0,0.0053
3064.0,0.0053
3063.0,0.0054
3062.0,0.0054
3061.0,0.0054
3060.0,0.0055
3059.0,0.0055
3058.0,0.0054
3057.0,0.0053
3056.0,0.0052
3055.0,0.005
3054.0,0.0049
3053.0,0.0048
3052.0,0.0047
3051.0,0.0047
3050.0,0.0047
3049.0,0.0048
3048.0,0.0048
3047.0,0.0048
3046.0,0.0048
3045.0,0.0048
3044.0,0.0048
3043.0,0.0047
3042.0,0.0047
3041.0,0.0047
3040.0,0.0046
3039.0,0.0045
3038.0,0.0044
3037.0,0.0044
3036.0,0.0043
3035.0,0.0043
3034.0,0.0043
3033.0,0.0043
3032.0,0.0043
3031.0,0.0043
3030.0,0.0042
3029.0,0.0042
3028.0,0.0041
3027.0,0.004
3026.0,0.0039
3025.0,0.0039
3024.0,0.0038
3023.0,0.0038
3022.0,0.0038
3021.0,0.0037
3020.0,0.0037
3019.0,0.0036
3018.0,0.0036
3017.0,0.0036
3016.0,0.0035
3015.0,0.0035
3014.0,0.0034
3013.0,0.0033
3012.0,0.0032
3011.0,0.0031
3010.0,0.003
3009.0,0.0029
3008.0,0.0029
3007.0,0.0028
3006.0,0.0028
3005.0,0.0028
3004.0,0.0028
3003.0,0.0027
3002.0,0.0026
3001.0,0.0024
3000.0,0.0023
2999.0,0.0022
2998.0,0.0022
2997.0,0.0021
2996.0,0.002
2995.0,0.0019
2994.0,0.0019
2993.0,0.0018
2992.0,0.0017
2991.0,0.0016
2990.0,0.0015
2989.0,0.0014
2988.0,0.0013
2987.0,0.0012
2986.0,0.0012
2985.0,0.0012
2984.0,0.0012
2983.0,0.0012
2982.0,0.0011
2981.0,0.0011
2980.0,0.001
2979.0,0.001
2978.0,0.001
2977.0,0.001
2976.0,0.001
2975.0,0.001
2974.0,0.001
2973.0,0.001
2972.0,0.001
2971.0,0.001
2970.0,0.001
2969.0,0.0011
2968.0,0.0012
2967.0,0.0012
2966.0,0.0013
2965.0,0.0014
2964.0,0.0016
2963.0,0.0018
2962.0,0.0019
2961.0,0.002
2960.0,0.0021
2959.0,0.0022
2958.0,0.0024
2957.0,0.0025
2956.0,0.0027
2955.0,0.0029
2954.0,0.0031
2953.0,0.0034
2952.0,0.0036
2951.0,0.0039
2950.0,0.0042
2949.0,0.0046
2948.0,0.0051
2947.0,0.0057
2946.0,0.0063
2945.0,0.0072
2944.0,0.0081
2943.0,0.0092
2942.0,0.0105
2941.0,0.012
2940.0,0.0136
2939.0,0.0153
2938.0,0.0171
2937.0,0.0191
2936.0,0.0214
2935.0,0.0238
2934.0,0.0265
2933.0,0.0294
2932.0,0.0325
2931.0,0.0358
2930.0,0.0395
2929.0,0.0436
2928.0,0.0481
2927.0,0.0532
2926.0,0.0588
2925.0,0.065
2924.0,0.0718
2923.0,0.0794
2922.0,0.0876
2921.0,0.0966
2920.0,0.106
2919.0,0.1158
2918.0,0.1254
2917.0,0.1338
2916.0,0.1401
2915.0,0.1429
2914.0,0.1416
2913.0,0.1366
2912.0,0.1289
2911.0,0.1202
2910.0,0.1115
2909.0,0.1037
2908.0,0.097
2907.0,0.0914
2906.0,0.0868
2905.0,0.0829
2904.0,0.0796
2903.0,0.0769
2902.0,0.0745
2901.0,0.0724
2900.0,0.0707
2899.0,0.0691
2898.0,0.0676
2897.0,0.0661
2896.0,0.0647
2895.0,0.0632
2894.0,0.0618
2893.0,0.0605
2892.0,0.0592
2891.0,0.0578
2890.0,0.0565
2889.0,0.055
2888.0,0.0535
2887.0,0.0519
2886.0,0.0503
2885.0,0.0488
2884.0,0.0473
2883.0,0.0458
2882.0,0.0443
2881.0,0.0427
2880.0,0.0411
2879.0,0.0395
2878.0,0.038
2877.0,0.0364
2876.0,0.0348
2875.0,0.0332
2874.0,0.0318
2873.0,0.0304
2872.0,0.0291
2871.0,0.028
2870.0,0.027
2869.0,0.0261
2868.0,0.0253
2867.0,0.0246
2866.0,0.0241
2865.0,0.024
2864.0,0.0241
2863.0,0.0247
2862.0,0.0257
2861.0,0.0273
2860.0,0.0297
2859.0,0.0329
2858.0,0.0373
2857.0,0.0429
2856.0,0.0501
2855.0,0.0588
2854.0,0.0691
2853.0,0.0805
2852.0,0.0924
2851.0,0.1038
2850.0,0.1132
2849.0,0.1193
2848.0,0.1213
2847.0,0.1191
2846.0,0.1138
2845.0,0.1067
2844.0,0.099
2843.0,0.0916
2842.0,0.0848
2841.0,0.0789
2840.0,0.0737
2839.0,0.0692
2838.0,0.0654
2837.0,0.0621
2836.0,0.0592
2835.0,0.0566
2834.0,0.0544
2833.0,0.0523
2832.0,0.0504
2831.0,0.0487
2830.0,0.0472
2829.0,0.0459
2828.0,0.0447
2827.0,0.0436
2826.0,0.0426
2825.0,0.0416
2824.0,0.0407
2823.0,0.0399
2822.0,0.0391
2821.0,0.0384
2820.0,0.0378
2819.0,0.0372
2818.0,0.0366
2817.0,0.036
2816.0,0.0355
2815.0,0.035
2814.0,0.0345
2813.0,0.0341
2812.0,0.0337
2811.0,0.0333
2810.0,0.0329
2809.0,0.0325
2808.0,0.0322
2807.0,0.0318
2806.0,0.0314
2805.0,0.031
2804.0,0.0307
2803.0,0.0305
2802.0,0.0303
2801.0,0.0301
2800.0,0.0299
2799.0,0.0297
2798.0,0.0293
2797.0,0.029
2796.0,0.0286
2795.0,0.0283
2794.0,0.0281
2793.0,0.0279
2792.0,0.0277
2791.0,0.0275
2790.0,0.0274
2789.0,0.0272
2788.0,0.0269
2787.0,0.0267
2786.0,0.0264
2785.0,0.0262
2784.0,0.026
2783.0,0.0258
2782.0,0.0258
2781.0,0.0257
2780.0,0.0256
2779.0,0.0255
2778.0,0.0253
2777.0,0.0251
2776.0,0.0249
2775.0,0.0247
2774.0,0.0245
2773.0,0.0244
2772.0,0.0242
2771.0,0.0241
2770.0,0.0239
2769.0,0.0237
2768.0,0.0236
2767.0,0.0235
2766.0,0.0234
2765.0,0.0234
2764.0,0.0234
2763.0,0.0233
2762.0,0.0232
2761.0,0.023
2760.0,0.0228
2759.0,0.0226
2758.0,0.0225
2757.0,0.0223
2756.0,0.0223
2755.0,0.0222
2754.0,0.0222
2753.0,0.0222
2752.0,0.0221
2751.0,0.0221
2750.0,0.0221
2749.0,0.022
2748.0,0.0219
2747.0,0.0218
2746.0,0.0217
2745.0,0.0217
2744.0,0.0217
2743.0,0.0217
2742.0,0.0216
2741.0,0.0215
2740.0,0.0214
2739.0,0.0214
2738.0,0.0213
2737.0,0.0212
2736.0,0.0211
2735.0,0.0211
2734.0,0.0211
2733.0,0.021
2732.0,0.021
2731.0,0.0209
2730.0,0.0209
2729.0,0.0208
2728.0,0.0208
2727.0,0.0207
2726.0,0.0206
2725.0,0.0205
2724.0,0.0204
2723.0,0.0204
2722.0,0.0204
2721.0,0.0203
2720.0,0.0202
2719.0,0.0201
2718.0,0.02
2717.0,0.02
2716.0,0.0199
2715.0,0.0199
2714.0,0.0199
2713.0,0.0198
2712.0,0.0198
2711.0,0.0198
2710.0,0.0197
2709.0,0.0197
2708.0,0.0196
2707.0,0.0195
2706.0,0.0195
2705.0,0.0195
2704.0,0.0194
2703.0,0.0193
2702.0,0.0192
2701.0,0.0191
2700.0,0.019
2699.0,0.019
2698.0,0.0189
2697.0,0.0189
2696.0,0.0189
2695.0,0.0189
2694.0,0.0189
2693.0,0.0188
2692.0,0.0188
2691.0,0.0188
2690.0,0.0188
2689.0,0.0188
2688.0,0.0187
2687.0,0.0187
2686.0,0.0187
2685.0,0.0187
2684.0,0.0187
2683.0,0.0186
2682.0,0.0186
2681.0,0.0185
2680.0,0.0185
2679.0,0.0185
2678.0,0.0185
2677.0,0.0186
2676.0,0.0186
2675.0,0.0186
2674.0,0.0186
2673.0,0.0186
2672.0,0.0185
2671.0,0.0184
2670.0,0.0184
2669.0,0.0184
2668.0,0.0184
2667.0,0.0185
2666.0,0.0185
2665.0,0.0185
2664.0,0.0184
2663.0,0.0184
2662.0,0.0185
2661.0,0.0185
2660.0,0.0185
2659.0,0.0185
2658.0,0.0184
2657.0,0.0184
2656.0,0.0183
2655.0,0.0182
2654.0,0.0182
2653.0,0.0181
2652.0,0.0181
2651.0,0.0182
2650.0,0.0182
2649.0,0.0182
2648.0,0.0182
2647.0,0.0181
2646.0,0.0181
2645.0,0.0181
2644.0,0.0181
2643.0,0.0181
2642.0,0.0181
2641.0,0.0181
2640.0,0.0181
2639.0,0.0181
2638.0,0.0181
2637.0,0.0181
2636.0,0.0181
2635.0,0.018
2634.0,0.018
2633.0,0.018
2632.0,0.018
2631.0,0.018
2630.0,0.0179
2629.0,0.0179
2628.0,0.0178
2627.0,0.0178
2626.0,0.0178
2625.0,0.0178
2624.0,0.0177
2623.0,0.0177
2622.0,0.0177
2621.0,0.0177
2620.0,0.0176
2619.0,0.0176
2618.0,0.0175
2617.0,0.0175
2616.0,0.0175
2615.0,0.0174
2614.0,0.0173
2613.0,0.0173
2612.0,0.0173
2611.0,0.0173
2610.0,0.0172
2609.0,0.0172
2608.0,0.0172
2607.0,0.0172
2606.0,0.0171
2605.0,0.0171
2604.0,0.0171
2603.0,0.017
2602.0,0.017
2601.0,0.017
2600.0,0.0169
2599.0,0.0169
2598.0,0.0169
2597.0,0.0169
2596.0,0.0169
2595.0,0.0168
2594.0,0.0168
2593.0,0.0167
2592.0,0.0167
2591.0,0.0167
2590.0,0.0167
2589.0,0.0166
2588.0,0.0166
2587.0,0.0166
2586.0,0.0166
2585.0,0.0165
2584.0,0.0165
2583.0,0.0165
2582.0,0.0165
2581.0,0.0165
2580.0,0.0165
2579.0,0.0165
2578.0,0.0164
2577.0,0.0163
2576.0,0.0163
2575.0,0.0162
2574.0,0.0162
2573.0,0.0161
2572.0,0.0161
2571.0,0.0162
2570.0,0.0162
2569.0,0.0162
2568.0,0.0162
2567.0,0.0163
2566.0,0.0163
2565.0,0.0163
2564.0,0.0162
2563.0,0.0162
2562.0,0.0161
2561.0,0.0159
2560.0,0.0159
2559.0,0.0158
2558.0,0.0158
2557.0,0.0158
2556.0,0.0158
2555.0,0.0158
2554.0,0.0158
2553.0,0.0158
2552.0,0.0159
2551.0,0.0159
2550.0,0.0159
2549.0,0.0159
2548.0,0.0158
2547.0,0.0158
2546.0,0.0158
2545.0,0.0158
2544.0,0.0158
2543.0,0.0157
2542.0,0.0157
2541.0,0.0156
2540.0,0.0156
2539.0,0.0156
2538.0,0.0156
2537.0,0.0156
2536.0,0.0156
2535.0,0.0156
2534.0,0.0156
2533.0,0.0156
2532.0,0.0156
2531.0,0.0156
2530.0,0.0156
2529.0,0.0155
2528.0,0.0155
2527.0,0.0155
2526.0,0.0154
2525.0,0.0154
2524.0,0.0153
2523.0,0.0153
2522.0,0.0153
2521.0,0.0153
2520.0,0.0153
2519.0,0.0152
2518.0,0.0152
2517.0,0.0151
2516.0,0.0151
2515.0,0.0151
2514.0,0.0152
2513.0,0.0151
2512.0,0.0151
2511.0,0.0151
2510.0,0.0151
2509.0,0.0152
2508.0,0.0153
2507.0,0.0153
2506.0,0.0153
2505.0,0.0152
2504.0,0.0152
2503.0,0.0151
2502.0,0.0151
2501.0,0.0151
2500.0,0.015
2499.0,0.015
2498.0,0.0149
2497.0,0.0149
2496.0,0.0149
2495.0,0.0148
2494.0,0.0148
2493.0,0.0148
2492.0,0.0148
2491.0,0.0148
2490.0,0.0148
2489.0,0.0148
2488.0,0.0149
2487.0,0.0149
2486.0,0.0149
2485.0,0.0149
2484.0,0.0149
2483.0,0.0149
2482.0,0.0149
2481.0,0.0149
2480.0,0.0149
2479.0,0.0149
2478.0,0.0149
2477.0,0.0149
2476.0,0.015
2475.0,0.015
2474.0,0.015
2473.0,0.0149
2472.0,0.0149
2471.0,0.0148
2470.0,0.0148
2469.0,0.0148
2468.0,0.0148
2467.0,0.0148
2466.0,0.0148
2465.0,0.0148
2464.0,0.0148
2463.0,0.0148
2462.0,0.0147
2461.0,0.0147
2460.0,0.0146
2459.0,0.0146
2458.0,0.0146
2457.0,0.0146
2456.0,0.0146
2455.0,0.0146
2454.0,0.0146
2453.0,0.0146
2452.0,0.0146
2451.0,0.0146
2450.0,0.0146
2449.0,0.0146
2448.0,0.0145
2447.0,0.0145
2446.0,0.0145
2445.0,0.0145
2444.0,0.0146
2443.0,0.0146
2442.0,0.0146
2441.0,0.0146
2440.0,0.0146
2439.0,0.0146
2438.0,0.0146
2437.0,0.0146
2436.0,0.0146
2435.0,0.0146
2434.0,0.0146
2433.0,0.0146
2432.0,0.0146
2431.0,0.0146
2430.0,0.0145
2429.0,0.0145
2428.0,0.0144
2427.0,0.0144
2426.0,0.0144
2425.0,0.0144
2424.0,0.0144
2423.0,0.0145
2422.0,0.0145
2421.0,0.0145
2420.0,0.0145
2419.0,0.0144
2418.0,0.0143
2417.0,0.0142
2416.0,0.0142
2415.0,0.0142
2414.0,0.0143
2413.0,0.0144
2412.0,0.0145
2411.0,0.0145
2410.0,0.0144
2409.0,0.0144
2408.0,0.0145
2407.0,0.0145
2406.0,0.0144
2405.0,0.0143
2404.0,0.0143
2403.0,0.0143
2402.0,0.0143
2401.0,0.0143
2400.0,0.0143
2399.0,0.0143
2398.0,0.0143
2397.0,0.0143
2396.0,0.0143
2395.0,0.0142
2394.0,0.0142
2393.0,0.0142
2392.0,0.0142
2391.0,0.0142
2390.0,0.0143
2389.0,0.0142
2388.0,0.0142
2387.0,0.0141
2386.0,0.014
2385.0,0.0139
2384.0,0.0136
2383.0,0.0133
2382.0,0.013
2381.0,0.0126
2380.0,0.0124
2379.0,0.0122
2378.0,0.0121
2377.0,0.0122
2376.0,0.0122
2375.0,0.0121
2374.0,0.0119
2373.0,0.0118
2372.0,0.0118
2371.0,0.0118
2370.0,0.012
2369.0,0.0124
2368.0,0.0131
2367.0,0.0137
2366.0,0.014
2365.0,0.0137
2364.0,0.013
2363.0,0.0119
2362.0,0.0108
2361.0,0.0101
2360.0,0.01
2359.0,0.0105
2358.0,0.0113
2357.0,0.0121
2356.0,0.0125
2355.0,0.0122
2354.0,0.0115
2353.0,0.0108
2352.0,0.0106
2351.0,0.0107
2350.0,0.0107
2349.0,0.0101
2348.0,0.0091
2347.0,0.0082
2346.0,0.0078
2345.0,0.0082
2344.0,0.0089
2343.0,0.0095
2342.0,0.01
2341.0,0.0106
2340.0,0.0109
2339.0,0.0108
2338.0,0.0104
2337.0,0.0099
2336.0,0.0095
2335.0,0.0091
2334.0,0.0085
2333.0,0.008
2332.0,0.0079
2331.0,0.0083
2330.0,0.0091
2329.0,0.0101
2328.0,0.0107
2327.0,0.011
2326.0,0.0111
2325.0,0.0112
2324.0,0.0114
2323.0,0.0118
2322.0,0.0122
2321.0,0.0127
2320.0,0.0132
2319.0,0.0136
2318.0,0.0139
2317.0,0.0142
2316.0,0.0142
2315.0,0.0141
2314.0,0.0138
2313.0,0.0135
2312.0,0.0133
2311.0,0.0133
2310.0,0.0133
2309.0,0.0133
2308.0,0.0133
2307.0,0.0133
2306.0,0.0134
2305.0,0.0134
2304.0,0.0134
2303.0,0.0134
2302.0,0.0134
2301.0,0.0134
2300.0,0.0134
2299.0,0.0134
2298.0,0.0134
2297.0,0.0134
2296.0,0.0134
2295.0,0.0135
2294.0,0.0136
2293.0,0.0137
2292.0,0.0138
2291.0,0.0138
2290.0,0.0138
2289.0,0.0138
2288.0,0.0138
2287.0,0.0139
2286.0,0.014
2285.0,0.0141
2284.0,0.0141
2283.0,0.014
2282.0,0.0139
2281.0,0.0138
2280.0,0.0138
2279.0,0.0138
2278.0,0.0138
2277.0,0.0138
2276.0,0.0138
2275.0,0.0137
2274.0,0.0136
2273.0,0.0136
2272.0,0.0136
2271.0,0.0137
2270.0,0.0137
2269.0,0.0137
2268.0,0.0137
2267.0,0.0136
2266.0,0.0136
2265.0,0.0135
2264.0,0.0136
2263.0,0.0136
2262.0,0.0137
2261.0,0.0137
2260.0,0.0138
2259.0,0.0138
2258.0,0.0138
2257.0,0.0138
2256.0,0.0138
2255.0,0.0138
2254.0,0.0138
2253.0,0.0138
2252.0,0.0139
2251.0,0.0139
2250.0,0.0139
2249.0,0.014
2248.0,0.014
2247.0,0.014
2246.0,0.0139
2245.0,0.0139
2244.0,0.0139
2243.0,0.0139
2242.0,0.0139
2241.0,0.0139
2240.0,0.0139
2239.0,0.0138
2238.0,0.0138
2237.0,0.0138
2236.0,0.0139
2235.0,0.0139
2234.0,0.0138
2233.0,0.0138
2232.0,0.0137
2231.0,0.0138
2230.0,0.0139
2229.0,0.0139
2228.0,0.014
2227.0,0.0139
2226.0,0.0139
2225.0,0.0139
2224.0,0.0138
2223.0,0.0138
2222.0,0.0138
2221.0,0.0139
2220.0,0.0139
2219.0,0.0139
2218.0,0.0139
2217.0,0.0139
2216.0,0.0138
2215.0,0.0138
2214.0,0.0138
2213.0,0.0139
2212.0,0.0139
2211.0,0.0139
2210.0,0.0138
2209.0,0.0138
2208.0,0.0139
2207.0,0.0139
2206.0,0.0139
2205.0,0.0139
2204.0,0.0139
2203.0,0.0139
2202.0,0.0139
2201.0,0.0139
2200.0,0.0139
2199.0,0.0138
2198.0,0.0138
2197.0,0.0138
2196.0,0.0138
2195.0,0.0138
2194.0,0.0138
2193.0,0.0138
2192.0,0.0138
2191.0,0.0138
2190.0,0.0138
2189.0,0.0139
2188.0,0.0139
2187.0,0.0139
2186.0,0.0139
2185.0,0.0139
2184.0,0.0139
2183.0,0.0139
2182.0,0.0139
2181.0,0.0139
2180.0,0.0139
2179.0,0.0139
2178.0,0.0139
2177.0,0.0139
2176.0,0.0139
2175.0,0.0139
2174.0,0.0139
2173.0,0.0139
2172.0,0.0139
2171.0,0.0139
2170.0,0.0138
2169.0,0.0138
2168.0,0.0138
2167.0,0.0138
2166.0,0.0138
2165.0,0.0139
2164.0,0.0139
2163.0,0.014
2162.0,0.014
2161.0,0.014
2160.0,0.014
2159.0,0.0139
2158.0,0.0139
2157.0,0.0139
2156.0,0.014
2155.0,0.014
2154.0,0.014
2153.0,0.014
2152.0,0.014
2151.0,0.014
2150.0,0.014
2149.0,0.014
2148.0,0.014
2147.0,0.014
2146.0,0.014
2145.0,0.014
2144.0,0.0139
2143.0,0.0139
2142.0,0.0139
2141.0,0.0139
2140.0,0.014
2139.0,0.014
2138.0,0.014
2137.0,0.014
2136.0,0.0139
2135.0,0.0139
2134.0,0.0138
2133.0,0.0138
2132.0,0.0139
2131.0,0.0139
2130.0,0.014
2129.0,0.014
2128.0,0.014
2127.0,0.014
2126.0,0.014
2125.0,0.0139
2124.0,0.0139
2123.0,0.0139
2122.0,0.0139
2121.0,0.0139
2120.0,0.0139
2119.0,0.014
2118.0,0.014
2117.0,0.0139
2116.0,0.0139
2115.0,0.0138
2114.0,0.0138
2113.0,0.0138
2112.0,0.0139
2111.0,0.0139
2110.0,0.0139
2109.0,0.014
2108.0,0.014
2107.0,0.014
2106.0,0.014
2105.0,0.014
2104.0,0.014
2103.0,0.0139
2102.0,0.0139
2101.0,0.0139
2100.0,0.0139
2099.0,0.0139
2098.0,0.0139
2097.0,0.0139
2096.0,0.014
2095.0,0.014
2094.0,0.0139
2093.0,0.0139
2092.0,0.0138
2091.0,0.0138
2090.0,0.0138
2089.0,0.0139
2088.0,0.0139
2087.0,0.0139
2086.0,0.0139
2085.0,0.0139
2084.0,0.0138
2083.0,0.0138
2082.0,0.0138
2081.0,0.0138
2080.0,0.0139
2079.0,0.0139
2078.0,0.0139
2077.0,0.014
2076.0,0.014
2075.0,0.014
2074.0,0.014
2073.0,0.014
2072.0,0.0139
2071.0,0.0139
2070.0,0.0139
2069.0,0.0139
2068.0,0.0139
2067.0,0.0139
2066.0,0.0138
2065.0,0.0138
2064.0,0.0138
2063.0,0.0138
2062.0,0.0138
2061.0,0.0138
2060.0,0.0138
2059.0,0.0138
2058.0,0.0138
2057.0,0.0138
2056.0,0.0139
2055.0,0.0139
2054.0,0.0139
2053.0,0.0139
2052.0,0.014
2051.0,0.014
2050.0,0.014
2049.0,0.014
2048.0,0.014
2047.0,0.0139
2046.0,0.014
2045.0,0.014
2044.0,0.014
2043.0,0.014
2042.0,0.014
2041.0,0.0139
2040.0,0.0139
2039.0,0.0139
2038.0,0.0139
2037.0,0.014
2036.0,0.014
2035.0,0.014
2034.0,0.014
2033.0,0.014
2032.0,0.014
2031.0,0.0141
2030.0,0.0141
2029.0,0.0141
2028.0,0.0142
2027.0,0.0142
2026.0,0.0141
2025.0,0.0142
2024.0,0.0142
2023.0,0.0142
2022.0,0.0142
2021.0,0.0142
2020.0,0.0141
2019.0,0.0141
2018.0,0.0142
2017.0,0.0142
2016.0,0.0142
2015.0,0.0142
2014.0,0.0142
2013.0,0.0141
2012.0,0.0141
2011.0,0.0141
2010.0,0.0141
2009.0,0.0141
2008.0,0.0141
2007.0,0.0141
2006.0,0.0141
2005.0,0.0141
2004.0,0.0142
2003.0,0.0141
2002.0,0.0141
2001.0,0.0141
2000.0,0.0141
1999.0,0.0141
1998.0,0.0141
1997.0,0.0141
1996.0,0.014
1995.0,0.014
1994.0,0.0139
1993.0,0.0139
1992.0,0.0139
1991.0,0.0139
1990.0,0.0139
1989.0,0.0139
1988.0,0.0139
1987.0,0.0139
1986.0,0.0139
1985.0,0.0139
1984.0,0.0139
1983.0,0.014
1982.0,0.014
1981.0,0.014
1980.0,0.014
1979.0,0.014
1978.0,0.0139
1977.0,0.0139
1976.0,0.0139
1975.0,0.0139
1974.0,0.014
1973.0,0.014
1972.0,0.014
1971.0,0.014
1970.0,0.0139
1969.0,0.0139
1968.0,0.0139
1967.0,0.014
1966.0,0.014
1965.0,0.0141
1964.0,0.0141
1963.0,0.0141
1962.0,0.0141
1961.0,0.0141
1960.0,0.014
1959.0,0.014
1958.0,0.0139
1957.0,0.0139
1956.0,0.0139
1955.0,0.014
1954.0,0.014
1953.0,0.014
1952.0,0.014
1951.0,0.014
1950.0,0.0139
1949.0,0.0139
1948.0,0.014
1947.0,0.014
1946.0,0.014
1945.0,0.014
1944.0,0.014
1943.0,0.014
1942.0,0.014
1941.0,0.014
1940.0,0.014
1939.0,0.014
1938.0,0.014
1937.0,0.0141
1936.0,0.0141
1935.0,0.014
1934.0,0.014
1933.0,0.014
1932.0,0.014
1931.0,0.0141
1930.0,0.0141
1929.0,0.0141
1928.0,0.0141
1927.0,0.014
1926.0,0.014
1925.0,0.014
1924.0,0.0141
1923.0,0.0141
1922.0,0.0142
1921.0,0.0142
1920.0,0.0142
1919.0,0.0142
1918.0,0.0141
1917.0,0.0141
1916.0,0.0141
1915.0,0.0141
1914.0,0.0141
1913.0,0.0141
1912.0,0.0141
1911.0,0.0141
1910.0,0.0141
1909.0,0.0142
1908.0,0.0142
1907.0,0.0142
1906.0,0.0142
1905.0,0.0143
1904.0,0.0143
1903.0,0.0143
1902.0,0.0144
1901.0,0.0144
1900.0,0.0144
1899.0,0.0144
1898.0,0.0144
1897.0,0.0144
1896.0,0.0144
1895.0,0.0144
1894.0,0.0143
1893.0,0.0143
1892.0,0.0143
1891.0,0.0143
1890.0,0.0142
1889.0,0.0142
1888.0,0.0142
1887.0,0.0142
1886.0,0.0142
1885.0,0.0142
1884.0,0.0142
1883.0,0.0141
1882.0,0.0141
1881.0,0.0141
1880.0,0.0141
1879.0,0.0141
1878.0,0.0141
1877.0,0.0141
1876.0,0.0141
1875.0,0.0141
1874.0,0.0141
1873.0,0.0141
1872.0,0.0141
1871.0,0.0141
1870.0,0.0141
1869.0,0.0141
1868.0,0.0141
1867.0,0.0141
1866.0,0.0141
1865.0,0.014
1864.0,0.014
1863.0,0.014
1862.0,0.014
1861.0,0.0141
1860.0,0.014
1859.0,0.014
1858.0,0.0139
1857.0,0.0139
1856.0,0.014
1855.0,0.014
1854.0,0.014
1853.0,0.0141
1852.0,0.0141
1851.0,0.0142
1850.0,0.0142
1849.0,0.0143
1848.0,0.0143
1847.0,0.0143
1846.0,0.0142
1845.0,0.014
1844.0,0.0139
1843.0,0.0139
1842.0,0.014
1841.0,0.0141
1840.0,0.0141
1839.0,0.0142
1838.0,0.0142
1837.0,0.0141
1836.0,0.0141
1835.0,0.0141
1834.0,0.014
1833.0,0.0141
1832.0,0.0141
1831.0,0.0141
1830.0,0.0141
1829.0,0.0141
1828.0,0.0141
1827.0,0.0141
1826.0,0.0141
1825.0,0.0142
1824.0,0.0142
1823.0,0.0142
1822.0,0.0142
1821.0,0.0142
1820.0,0.0142
1819.0,0.0142
1818.0,0.0142
1817.0,0.0142
1816.0,0.0142
1815.0,0.0142
1814.0,0.0142
1813.0,0.0142
1812.0,0.0142
1811.0,0.0142
1810.0,0.0142
1809.0,0.0142
1808.0,0.0142
1807.0,0.0142
1806.0,0.0142
1805.0,0.0142
1804.0,0.0141
1803.0,0.0141
1802.0,0.0141
1801.0,0.0142
1800.0,0.0143
1799.0,0.0143
1798.0,0.0142
1797.0,0.0142
1796.0,0.0141
1795.0,0.0141
1794.0,0.0141
1793.0,0.0141
1792.0,0.0142
1791.0,0.0142
1790.0,0.0142
1789.0,0.0142
1788.0,0.0142
1787.0,0.0142
1786.0,0.0142
1785.0,0.0142
1784.0,0.0142
1783.0,0.0142
1782.0,0.0142
1781.0,0.0143
1780.0,0.0143
1779.0,0.0143
1778.0,0.0143
1777.0,0.0142
1776.0,0.0142
1775.0,0.0142
1774.0,0.0142
1773.0,0.0142
1772.0,0.0142
1771.0,0.0142
1770.0,0.0142
1769.0,0.0142
1768.0,0.0142
1767.0,0.0141
1766.0,0.0142
1765.0,0.0142
1764.0,0.0143
1763.0,0.0143
1762.0,0.0143
1761.0,0.0143
1760.0,0.0143
1759.0,0.0144
1758.0,0.0145
1757.0,0.0145
1756.0,0.0145
1755.0,0.0145
1754.0,0.0144
1753.0,0.0144
1752.0,0.0144
1751.0,0.0146
1750.0,0.0148
1749.0,0.0149
1748.0,0.0151
1747.0,0.0152
1746.0,0.0152
1745.0,0.0152
1744.0,0.0152
1743.0,0.0151
1742.0,0.0151
1741.0,0.015
1740.0,0.0149
1739.0,0.0149
1738.0,0.0149
1737.0,0.0149
1736.0,0.015
1735.0,0.0149
1734.0,0.0148
1733.0,0.0148
1732.0,0.0149
1731.0,0.0149
1730.0,0.0149
1729.0,0.0149
1728.0,0.0149
1727.0,0.0149
1726.0,0.0148
1725.0,0.0148
1724.0,0.0148
1723.0,0.0149
1722.0,0.0149
1721.0,0.0149
1720.0,0.015
1719.0,0.015
1718.0,0.0148
1717.0,0.0148
1716.0,0.0148
1715.0,0.0149
1714.0,0.015
1713.0,0.015
1712.0,0.0151
1711.0,0.015
1710.0,0.015
1709.0,0.0149
1708.0,0.0149
1707.0,0.0149
1706.0,0.0149
1705.0,0.0149
1704.0,0.0149
1703.0,0.0149
1702.0,0.0149
1701.0,0.0148
1700.0,0.0148
1699.0,0.0148
1698.0,0.0149
1697.0,0.015
1696.0,0.0151
1695.0,0.015
1694.0,0.015
1693.0,0.0151
1692.0,0.0153
1691.0,0.0154
1690.0,0.0154
1689.0,0.0155
1688.0,0.0156
1687.0,0.0156
1686.0,0.0156
1685.0,0.0156
1684.0,0.0157
1683.0,0.0156
1682.0,0.0156
1681.0,0.0156
1680.0,0.0157
1679.0,0.0158
1678.0,0.0158
1677.0,0.0157
1676.0,0.0157
1675.0,0.0157
1674.0,0.0157
1673.0,0.0158
1672.0,0.0159
1671.0,0.0159
1670.0,0.0159
1669.0,0.016
1668.0,0.016
1667.0,0.016
1666.0,0.016
1665.0,0.016
1664.0,0.016
1663.0,0.0161
1662.0,0.0162
1661.0,0.0162
1660.0,0.0163
1659.0,0.0163
1658.0,0.0163
1657.0,0.0163
1656.0,0.0163
1655.0,0.0164
1654.0,0.0165
1653.0,0.0166
1652.0,0.0165
1651.0,0.0165
1650.0,0.0167
1649.0,0.0169
1648.0,0.0169
1647.0,0.017
1646.0,0.017
1645.0,0.0171
1644.0,0.0172
1643.0,0.0173
1642.0,0.0175
1641.0,0.0176
1640.0,0.0177
1639.0,0.0178
1638.0,0.0178
1637.0,0.018
1636.0,0.0182
1635.0,0.0184
1634.0,0.0185
1633.0,0.0186
1632.0,0.0188
1631.0,0.0189
1630.0,0.019
1629.0,0.0191
1628.0,0.0192
1627.0,0.0192
1626.0,0.0193
1625.0,0.0193
1624.0,0.0194
1623.0,0.0194
1622.0,0.0194
1621.0,0.0193
1620.0,0.0193
1619.0,0.0192
1618.0,0.0191
1617.0,0.0189
1616.0,0.0186
1615.0,0.0183
1614.0,0.0181
1613.0,0.0179
1612.0,0.0178
1611.0,0.0177
1610.0,0.0175
1609.0,0.0173
1608.0,0.0171
1607.0,0.017
1606.0,0.0169
1605.0,0.0168
1604.0,0.0167
1603.0,0.0166
1602.0,0.0166
1601.0,0.0165
1600.0,0.0164
1599.0,0.0163
1598.0,0.0162
1597.0,0.0161
1596.0,0.0161
1595.0,0.016
1594.0,0.016
1593.0,0.016
1592.0,0.016
1591.0,0.016
1590.0,0.0159
1589.0,0.0159
1588.0,0.0159
1587.0,0.0158
1586.0,0.0158
1585.0,0.0158
1584.0,0.0158
1583.0,0.0158
1582.0,0.0158
1581.0,0.0158
1580.0,0.0158
1579.0,0.0157
1578.0,0.0157
1577.0,0.0156
1576.0,0.0156
1575.0,0.0156
1574.0,0.0156
1573.0,0.0156
1572.0,0.0156
1571.0,0.0156
1570.0,0.0156
1569.0,0.0156
1568.0,0.0156
1567.0,0.0155
1566.0,0.0155
1565.0,0.0154
1564.0,0.0154
1563.0,0.0153
1562.0,0.0153
1561.0,0.0154
1560.0,0.0157
1559.0,0.016
1558.0,0.0157
1557.0,0.0154
1556.0,0.0153
1555.0,0.0153
1554.0,0.0154
1553.0,0.0154
1552.0,0.0154
1551.0,0.0154
1550.0,0.0153
1549.0,0.0153
1548.0,0.0153
1547.0,0.0153
1546.0,0.0152
1545.0,0.0152
1544.0,0.0152
1543.0,0.0152
1542.0,0.0152
1541.0,0.0154
1540.0,0.0156
1539.0,0.0153
1538.0,0.015
1537.0,0.015
1536.0,0.015
1535.0,0.015
1534.0,0.015
1533.0,0.0149
1532.0,0.0149
1531.0,0.0149
1530.0,0.0148
1529.0,0.0148
1528.0,0.0148
1527.0,0.0148
1526.0,0.0147
1525.0,0.0147
1524.0,0.0147
1523.0,0.0146
1522.0,0.0144
1521.0,0.0143
1520.0,0.0143
1519.0,0.0142
1518.0,0.0142
1517.0,0.0142
1516.0,0.0143
1515.0,0.0142
1514.0,0.0141
1513.0,0.0141
1512.0,0.0142
1511.0,0.0142
1510.0,0.0142
1509.0,0.0143
1508.0,0.0144
1507.0,0.0144
1506.0,0.014
1505.0,0.0138
1504.0,0.0137
1503.0,0.0137
1502.0,0.0136
1501.0,0.0135
1500.0,0.0134
1499.0,0.0134
1498.0,0.0133
1497.0,0.0133
1496.0,0.0132
1495.0,0.0131
1494.0,0.0129
1493.0,0.0129
1492.0,0.0129
1491.0,0.0128
1490.0,0.0126
1489.0,0.0125
1488.0,0.0125
1487.0,0.0123
1486.0,0.012
1485.0,0.012
1484.0,0.0121
1483.0,0.012
1482.0,0.0121
1481.0,0.0123
1480.0,0.0129
1479.0,0.014
1478.0,0.0167
1477.0,0.0225
1476.0,0.0318
1475.0,0.044
1474.0,0.0585
1473.0,0.0713
1472.0,0.076
1471.0,0.0734
1470.0,0.069
1469.0,0.0651
1468.0,0.0619
1467.0,0.0598
1466.0,0.0599
1465.0,0.0629
1464.0,0.0668
1463.0,0.0686
1462.0,0.0674
1461.0,0.0637
1460.0,0.0583
1459.0,0.0522
1458.0,0.0463
1457.0,0.042
1456.0,0.0395
1455.0,0.038
1454.0,0.0368
1453.0,0.0355
1452.0,0.0341
1451.0,0.033
1450.0,0.032
1449.0,0.0312
1448.0,0.0304
1447.0,0.0299
1446.0,0.0295
1445.0,0.0292
1444.0,0.0288
1443.0,0.0285
1442.0,0.0282
1441.0,0.0279
1440.0,0.0275
1439.0,0.0272
1438.0,0.0269
1437.0,0.0266
1436.0,0.0265
1435.0,0.0263
1434.0,0.0261
1433.0,0.0258
1432.0,0.0254
1431.0,0.0251
1430.0,0.0247
1429.0,0.0244
1428.0,0.024
1427.0,0.0236
1426.0,0.0233
1425.0,0.023
1424.0,0.0227
1423.0,0.0225
1422.0,0.0223
1421.0,0.0221
1420.0,0.0218
1419.0,0.0218
1418.0,0.0218
1417.0,0.0217
1416.0,0.0217
1415.0,0.0216
1414.0,0.0215
1413.0,0.0214
1412.0,0.0213
1411.0,0.0212
1410.0,0.0212
1409.0,0.0211
1408.0,0.021
1407.0,0.0209
1406.0,0.0208
1405.0,0.0208
1404.0,0.0207
1403.0,0.0206
1402.0,0.0206
1401.0,0.0204
1400.0,0.0204
1399.0,0.0203
1398.0,0.0203
1397.0,0.0203
1396.0,0.0202
1395.0,0.0202
1394.0,0.0202
1393.0,0.0202
1392.0,0.0201
1391.0,0.0201
1390.0,0.0201
1389.0,0.0201
1388.0,0.02
1387.0,0.02
1386.0,0.0201
1385.0,0.0201
1384.0,0.0202
1383.0,0.0203
1382.0,0.0205
1381.0,0.0207
1380.0,0.0209
1379.0,0.0211
1378.0,0.0212
1377.0,0.0212
1376.0,0.0212
1375.0,0.0212
1374.0,0.0214
1373.0,0.0216
1372.0,0.0217
1371.0,0.0219
1370.0,0.022
1369.0,0.0221
1368.0,0.0222
1367.0,0.0222
1366.0,0.0221
1365.0,0.022
1364.0,0.0219
1363.0,0.0218
1362.0,0.0217
1361.0,0.0217
1360.0,0.0215
1359.0,0.0215
1358.0,0.0214
1357.0,0.0214
1356.0,0.0214
1355.0,0.0215
1354.0,0.0216
1353.0,0.0216
1352.0,0.0216
1351.0,0.0216
1350.0,0.0216
1349.0,0.0215
1348.0,0.0215
1347.0,0.0214
1346.0,0.0214
1345.0,0.0213
1344.0,0.0212
1343.0,0.0211
1342.0,0.021
1341.0,0.0209
1340.0,0.0209
1339.0,0.0208
1338.0,0.0208
1337.0,0.0207
1336.0,0.0207
1335.0,0.0206
1334.0,0.0206
1333.0,0.0205
1332.0,0.0205
1331.0,0.0204
1330.0,0.0204
1329.0,0.0204
1328.0,0.0204
1327.0,0.0204
1326.0,0.0204
1325.0,0.0205
1324.0,0.0206
1323.0,0.0206
1322.0,0.0207
1321.0,0.0207
1320.0,0.0208
1319.0,0.0209
1318.0,0.021
1317.0,0.021
1316.0,0.0211
1315.0,0.0211
1314.0,0.0213
1313.0,0.0214
1312.0,0.0215
1311.0,0.0216
1310.0,0.0216
1309.0,0.0217
1308.0,0.0217
1307.0,0.0217
1306.0,0.0218
1305.0,0.0218
1304.0,0.0218
1303.0,0.0219
1302.0,0.0219
1301.0,0.0219
1300.0,0.0219
1299.0,0.0219
1298.0,0.0219
1297.0,0.0219
1296.0,0.0218
1295.0,0.0218
1294.0,0.0218
1293.0,0.0217
1292.0,0.0217
1291.0,0.0217
1290.0,0.0217
1289.0,0.0217
1288.0,0.0217
1287.0,0.0217
1286.0,0.0217
1285.0,0.0217
1284.0,0.0217
1283.0,0.0218
1282.0,0.0218
1281.0,0.0218
1280.0,0.0218
1279.0,0.0218
1278.0,0.0218
1277.0,0.0218
1276.0,0.0218
1275.0,0.0219
1274.0,0.0219
1273.0,0.022
1272.0,0.022
1271.0,0.0221
1270.0,0.0221
1269.0,0.0221
1268.0,0.0222
1267.0,0.0223
1266.0,0.0224
1265.0,0.0224
1264.0,0.0225
1263.0,0.0225
1262.0,0.0226
1261.0,0.0226
1260.0,0.0226
1259.0,0.0227
1258.0,0.0227
1257.0,0.0228
1256.0,0.0228
1255.0,0.0228
1254.0,0.0228
1253.0,0.0227
1252.0,0.0227
1251.0,0.0227
1250.0,0.0228
1249.0,0.0229
1248.0,0.023
1247.0,0.0231
1246.0,0.0231
1245.0,0.0232
1244.0,0.0232
1243.0,0.0233
1242.0,0.0233
1241.0,0.0234
1240.0,0.0235
1239.0,0.0237
1238.0,0.0238
1237.0,0.0239
1236.0,0.0239
1235.0,0.0241
1234.0,0.0242
1233.0,0.0244
1232.0,0.0246
1231.0,0.0248
1230.0,0.025
1229.0,0.0252
1228.0,0.0254
1227.0,0.0257
1226.0,0.0259
1225.0,0.0262
1224.0,0.0264
1223.0,0.0266
1222.0,0.0268
1221.0,0.027
1220.0,0.0272
1219.0,0.0275
1218.0,0.0278
1217.0,0.0281
1216.0,0.0283
1215.0,0.0285
1214.0,0.0287
1213.0,0.029
1212.0,0.0293
1211.0,0.0296
1210.0,0.03
1209.0,0.0303
1208.0,0.0307
1207.0,0.031
1206.0,0.0314
1205.0,0.0318
1204.0,0.0322
1203.0,0.0326
1202.0,0.0331
1201.0,0.0336
1200.0,0.0341
1199.0,0.0346
1198.0,0.0351
1197.0,0.0357
1196.0,0.0363
1195.0,0.0369
1194.0,0.0376
1193.0,0.0384
1192.0,0.0392
1191.0,0.0401
1190.0,0.041
1189.0,0.0419
1188.0,0.0428
1187.0,0.0437
1186.0,0.0446
1185.0,0.0456
1184.0,0.0466
1183.0,0.0476
1182.0,0.0486
1181.0,0.0496
1180.0,0.0506
1179.0,0.0516
1178.0,0.0526
1177.0,0.0536
1176.0,0.0545
1175.0,0.0554
1174.0,0.0563
1173.0,0.0572
1172.0,0.058
1171.0,0.0587
1170.0,0.0594
1169.0,0.0601
1168.0,0.0607
1167.0,0.0613
1166.0,0.0617
1165.0,0.0621
1164.0,0.0624
1163.0,0.0626
1162.0,0.0628
1161.0,0.063
1160.0,0.0632
1159.0,0.0634
1158.0,0.0635
1157.0,0.0636
1156.0,0.0637
1155.0,0.0637
1154.0,0.0637
1153.0,0.0636
1152.0,0.0636
1151.0,0.0636
1150.0,0.0635
1149.0,0.0635
1148.0,0.0634
1147.0,0.0633
1146.0,0.0632
1145.0,0.063
1144.0,0.0629
1143.0,0.0628
1142.0,0.0626
1141.0,0.0624
1140.0,0.0622
1139.0,0.062
1138.0,0.0617
1137.0,0.0614
1136.0,0.0611
1135.0,0.0608
1134.0,0.0605
1133.0,0.0601
1132.0,0.0597
1131.0,0.0593
1130.0,0.0589
1129.0,0.0585
1128.0,0.058
1127.0,0.0576
1126.0,0.0572
1125.0,0.0569
1124.0,0.0566
1123.0,0.0563
1122.0,0.0559
1121.0,0.0556
1120.0,0.0553
1119.0,0.0551
1118.0,0.0549
1117.0,0.0546
1116.0,0.0542
1115.0,0.0539
1114.0,0.0536
1113.0,0.0533
1112.0,0.053
1111.0,0.0527
1110.0,0.0524
1109.0,0.052
1108.0,0.0515
1107.0,0.0511
1106.0,0.0506
1105.0,0.0502
1104.0,0.0497
1103.0,0.0491
1102.0,0.0485
1101.0,0.0478
1100.0,0.0472
1099.0,0.0466
1098.0,0.0459
1097.0,0.0452
1096.0,0.0445
1095.0,0.0437
1094.0,0.043
1093.0,0.0423
1092.0,0.0416
1091.0,0.0408
1090.0,0.04
1089.0,0.0391
1088.0,0.0383
1087.0,0.0374
1086.0,0.0366
1085.0,0.0358
1084.0,0.0351
1083.0,0.0343
1082.0,0.0336
1081.0,0.0329
1080.0,0.0321
1079.0,0.0315
1078.0,0.0308
1077.0,0.0302
1076.0,0.0296
1075.0,0.0291
1074.0,0.0285
1073.0,0.0279
1072.0,0.0274
1071.0,0.027
1070.0,0.0266
1069.0,0.0262
1068.0,0.0259
1067.0,0.0256
1066.0,0.0253
1065.0,0.0249
1064.0,0.0247
1063.0,0.0245
1062.0,0.0243
1061.0,0.0242
1060.0,0.0241
1059.0,0.024
1058.0,0.0239
1057.0,0.0238
1056.0,0.0237
1055.0,0.0236
1054.0,0.0235
1053.0,0.0234
1052.0,0.0233
1051.0,0.0232
1050.0,0.0231
1049.0,0.0231
1048.0,0.0231
1047.0,0.023
1046.0,0.023
1045.0,0.023
1044.0,0.023
1043.0,0.023
1042.0,0.0229
1041.0,0.0229
1040.0,0.0229
1039.0,0.0228
1038.0,0.0228
1037.0,0.0228
1036.0,0.0228
1035.0,0.0227
1034.0,0.0227
1033.0,0.0227
1032.0,0.0228
1031.0,0.0228
1030.0,0.0229
1029.0,0.023
1028.0,0.023
1027.0,0.0231
1026.0,0.0231
1025.0,0.023
1024.0,0.0229
1023.0,0.0229
1022.0,0.0229
1021.0,0.023
1020.0,0.0232
1019.0,0.0234
1018.0,0.0236
1017.0,0.0238
1016.0,0.024
1015.0,0.0241
1014.0,0.0241
1013.0,0.0241
1012.0,0.0242
1011.0,0.0243
1010.0,0.0244
1009.0,0.0245
1008.0,0.0246
1007.0,0.0245
1006.0,0.0244
1005.0,0.0243
1004.0,0.0242
1003.0,0.0241
1002.0,0.024
1001.0,0.0238
1000.0,0.0236
999.0,0.0234
998.0,0.0232
997.0,0.023
996.0,0.0228
995.0,0.0227
994.0,0.0227
993.0,0.0227
992.0,0.0227
991.0,0.0227
990.0,0.0225
989.0,0.0224
988.0,0.0223
987.0,0.0223
986.0,0.0223
985.0,0.0222
984.0,0.0222
983.0,0.0222
982.0,0.0222
981.0,0.0222
980.0,0.0222
979.0,0.0222
978.0,0.0223
977.0,0.0224
976.0,0.0224
975.0,0.0225
974.0,0.0224
973.0,0.0224
972.0,0.0224
971.0,0.0224
970.0,0.0224
969.0,0.0223
968.0,0.0222
967.0,0.0222
966.0,0.0222
965.0,0.0223
964.0,0.0223
963.0,0.0224
962.0,0.0225
961.0,0.0225
960.0,0.0224
959.0,0.0224
958.0,0.0224
957.0,0.0224
956.0,0.0224
955.0,0.0223
954.0,0.0223
953.0,0.0223
952.0,0.0224
951.0,0.0224
950.0,0.0224
949.0,0.0224
948.0,0.0223
947.0,0.0222
946.0,0.0222
945.0,0.0222
944.0,0.0223
943.0,0.0224
942.0,0.0225
941.0,0.0224
940.0,0.0224
939.0,0.0223
938.0,0.0223
937.0,0.0223
936.0,0.0223
935.0,0.0223
934.0,0.0224
933.0,0.0224
932.0,0.0224
931.0,0.0224
930.0,0.0225
929.0,0.0224
928.0,0.0224
927.0,0.0224
926.0,0.0224
925.0,0.0224
924.0,0.0225
923.0,0.0225
922.0,0.0225
921.0,0.0224
920.0,0.0223
919.0,0.0222
918.0,0.0223
917.0,0.0223
916.0,0.0223
915.0,0.0223
914.0,0.0223
913.0,0.0224
912.0,0.0226
911.0,0.0227
910.0,0.0228
909.0,0.0228
908.0,0.0228
907.0,0.0229
906.0,0.0229
905.0,0.0229
904.0,0.023
903.0,0.023
902.0,0.023
901.0,0.023
900.0,0.0229
899.0,0.0227
898.0,0.0227
897.0,0.0227
896.0,0.0227
895.0,0.0228
894.0,0.0229
893.0,0.0228
892.0,0.0228
891.0,0.0228
890.0,0.0228
889.0,0.0229
888.0,0.023
887.0,0.0231
886.0,0.0232
885.0,0.0232
884.0,0.0232
883.0,0.0231
882.0,0.023
881.0,0.0229
880.0,0.0228
879.0,0.0228
878.0,0.0229
877.0,0.023
876.0,0.0231
875.0,0.0232
874.0,0.0232
873.0,0.0233
872.0,0.0233
871.0,0.0233
870.0,0.0232
869.0,0.0231
868.0,0.023
867.0,0.023
866.0,0.023
865.0,0.023
864.0,0.023
863.0,0.0229
862.0,0.0229
861.0,0.023
860.0,0.023
859.0,0.023
858.0,0.0231
857.0,0.0232
856.0,0.0232
855.0,0.0232
854.0,0.0231
853.0,0.023
852.0,0.023
851.0,0.023
850.0,0.023
849.0,0.023
848.0,0.0229
847.0,0.0229
846.0,0.023
845.0,0.0231
844.0,0.0232
843.0,0.0232
842.0,0.0232
841.0,0.0232
840.0,0.0232
839.0,0.0233
838.0,0.0234
837.0,0.0235
836.0,0.0235
835.0,0.0235
834.0,0.0235
833.0,0.0235
832.0,0.0234
831.0,0.0233
830.0,0.0232
829.0,0.0231
828.0,0.0232
827.0,0.0232
826.0,0.0231
825.0,0.023
824.0,0.023
823.0,0.023
822.0,0.0231
821.0,0.0232
820.0,0.0233
819.0,0.0235
818.0,0.0235
817.0,0.0236
816.0,0.0236
815.0,0.0236
814.0,0.0235
813.0,0.0234
812.0,0.0235
811.0,0.0235
810.0,0.0236
809.0,0.0234
808.0,0.0233
807.0,0.0232
806.0,0.0233
805.0,0.0235
804.0,0.0236
803.0,0.0237
802.0,0.0236
801.0,0.0236
800.0,0.0235
799.0,0.0236
798.0,0.0237
797.0,0.0237
796.0,0.0238
795.0,0.0237
794.0,0.0237
793.0,0.0235
792.0,0.0235
791.0,0.0235
790.0,0.0235
789.0,0.0236
788.0,0.0235
787.0,0.0235
786.0,0.0235
785.0,0.0235
784.0,0.0234
783.0,0.0233
782.0,0.0233
781.0,0.0233
780.0,0.0233
779.0,0.0234
778.0,0.0235
777.0,0.0235
776.0,0.0236
775.0,0.0236
774.0,0.0236
773.0,0.0235
772.0,0.0235
771.0,0.0235
770.0,0.0235
769.0,0.0235
768.0,0.0233
767.0,0.0231
766.0,0.0229
765.0,0.0228
764.0,0.0228
763.0,0.0228
762.0,0.0228
761.0,0.0228
760.0,0.0227
759.0,0.0226
758.0,0.0225
757.0,0.0224
756.0,0.0224
755.0,0.0224
754.0,0.0223
753.0,0.0221
752.0,0.0218
751.0,0.0216
750.0,0.0215
749.0,0.0215
748.0,0.0215
747.0,0.0213
746.0,0.021
745.0,0.0208
744.0,0.0207
743.0,0.0206
742.0,0.0206
741.0,0.0205
740.0,0.0203
739.0,0.0202
738.0,0.0201
737.0,0.0204
736.0,0.0213
735.0,0.0235
734.0,0.0284
733.0,0.0366
732.0,0.0471
731.0,0.0567
730.0,0.0618
729.0,0.0614
728.0,0.0576
727.0,0.0535
726.0,0.0513
725.0,0.0514
724.0,0.0542
723.0,0.0603
722.0,0.0708
721.0,0.0855
720.0,0.1007
719.0,0.1107
718.0,0.1127
717.0,0.1077
716.0,0.0981
715.0,0.0866
714.0,0.0755
713.0,0.0665
712.0,0.0598
711.0,0.0551
710.0,0.0515
709.0,0.0486
708.0,0.0463
707.0,0.0445
706.0,0.0429
705.0,0.0415
704.0,0.0401
703.0,0.0387
702.0,0.0376
701.0,0.0369
700.0,0.0365
699.0,0.036
698.0,0.0351
697.0,0.034
696.0,0.0333
695.0,0.0334
694.0,0.0339
693.0,0.0344
692.0,0.0342
691.0,0.0333
690.0,0.0318
689.0,0.0301
688.0,0.029
687.0,0.029
686.0,0.0298
685.0,0.0308
684.0,0.0313
683.0,0.0314
682.0,0.0312
681.0,0.0309
680.0,0.0307
679.0,0.0306
678.0,0.0304
677.0,0.03
676.0,0.0297
675.0,0.03
674.0,0.0307
673.0,0.0316
672.0,0.0325
671.0,0.0336
670.0,0.0352
669.0,0.0367
668.0,0.0378
667.0,0.0379
666.0,0.0364
665.0,0.0345
664.0,0.0333
663.0,0.033
662.0,0.0334
661.0,0.034
660.0,0.0347
659.0,0.0352
658.0,0.0352
657.0,0.035
656.0,0.0347
655.0,0.035
654.0,0.0357
653.0,0.0365
652.0,0.0369
651.0,0.0367
650.0,0.0361
649.0,0.0352
648.0,0.0342
647.0,0.0332
646.0,0.0326
645.0,0.0322
644.0,0.0317
643.0,0.0312
642.0,0.0308
641.0,0.0307
640.0,0.0311
639.0,0.0322
638.0,0.0336
637.0,0.0351
636.0,0.0364
635.0,0.0371
634.0,0.0372
633.0,0.0367
632.0,0.0357
631.0,0.0346
630.0,0.0337
629.0,0.0334
628.0,0.0336
627.0,0.0343
626.0,0.0351
625.0,0.0356
624.0,0.0357
623.0,0.0355
622.0,0.0356
621.0,0.0361
620.0,0.0369
619.0,0.0376
618.0,0.0382
617.0,0.0387
616.0,0.0392
615.0,0.0395
614.0,0.0399
613.0,0.0404
612.0,0.0411
611.0,0.0416
610.0,0.0423
609.0,0.0434
608.0,0.0452
607.0,0.047
606.0,0.0482
605.0,0.0492
604.0,0.0509
603.0,0.0536
602.0,0.0561
601.0,0.0569
600.0,0.0552
