cm-1,A
4000.0,0.0091
3999.0,0.0091
3998.0,0.0091
3997.0,0.009
3996.0,0.009
3995.0,0.0089
3994.0,0.0089
3993.0,0.0089
3992.0,0.009
3991.0,0.009
3990.0,0.0089
3989.0,0.0089
3988.0,0.0089
3987.0,0.0089
3986.0,0.0089
3985.0,0.0089
3984.0,0.0089
3983.0,0.0089
3982.0,0.0089
3981.0,0.009
3980.0,0.009
3979.0,0.009
3978.0,0.009
3977.0,0.009
3976.0,0.009
3975.0,0.009
3974.0,0.0089
3973.0,0.0089
3972.0,0.009
3971.0,0.0089
3970.0,0.0089
3969.0,0.0089
3968.0,0.0089
3967.0,0.0089
3966.0,0.0089
3965.0,0.009
3964.0,0.009
3963.0,0.0089
3962.0,0.0089
3961.0,0.0089
3960.0,0.0089
3959.0,0.009
3958.0,0.009
3957.0,0.009
3956.0,0.009
3955.0,0.009
3954.0,0.009
3953.0,0.0089
3952.0,0.0089
3951.0,0.0088
3950.0,0.0088
3949.0,0.0087
3948.0,0.0087
3947.0,0.0087
3946.0,0.0088
3945.0,0.0089
3944.0,0.009
3943.0,0.009
3942.0,0.009
3941.0,0.009
3940.0,0.0091
3939.0,0.0091
3938.0,0.009
3937.0,0.0089
3936.0,0.0088
3935.0,0.0087
3934.0,0.0087
3933.0,0.0088
3932.0,0.0088
3931.0,0.0089
3930.0,0.0089
3929.0,0.0088
3928.0,0.0088
3927.0,0.0088
3926.0,0.0088
3925.0,0.0088
3924.0,0.0088
3923.0,0.0087
3922.0,0.0086
3921.0,0.0085
3920.0,0.0085
3919.0,0.0085
3918.0,0.0085
3917.0,0.0086
3916.0,0.0087
3915.0,0.0088
3914.0,0.009
3913.0,0.0091
3912.0,0.0092
3911.0,0.0092
3910.0,0.0091
3909.0,0.009
3908.0,0.0088
3907.0,0.0086
3906.0,0.0084
3905.0,0.0084
3904.0,0.0083
3903.0,0.0083
3902.0,0.0083
3901.0,0.0084
3900.0,0.0086
3899.0,0.0087
3898.0,0.0088
3897.0,0.0089
3896.0,0.0089
3895.0,0.0089
3894.0,0.0089
3893.0,0.0089
3892.0,0.009
3891.0,0.0089
3890.0,0.0088
3889.0,0.0088
3888.0,0.0088
3887.0,0.0089
3886.0,0.0089
3885.0,0.0089
3884.0,0.0088
3883.0,0.0089
3882.0,0.009
3881.0,0.0091
3880.0,0.0091
3879.0,0.009
3878.0,0.0089
3877.0,0.0089
3876.0,0.0089
3875.0,0.0088
3874.0,0.0086
3873.0,0.0084
3872.0,0.0084
3871.0,0.0085
3870.0,0.0085
3869.0,0.0085
3868.0,0.0084
3867.0,0.0085
3866.0,0.0086
3865.0,0.0087
3864.0,0.0089
3863.0,0.009
3862.0,0.009
3861.0,0.0089
3860.0,0.0089
3859.0,0.0088
3858.0,0.0086
3857.0,0.0084
3856.0,0.0082
3855.0,0.0081
3854.0,0.0084
3853.0,0.0085
3852.0,0.0086
3851.0,0.0087
3850.0,0.009
3849.0,0.0091
3848.0,0.0091
3847.0,0.009
3846.0,0.009
3845.0,0.0089
3844.0,0.0089
3843.0,0.0089
3842.0,0.0089
3841.0,0.0088
3840.0,0.0088
3839.0,0.0088
3838.0,0.0088
3837.0,0.0087
3836.0,0.0088
3835.0,0.0089
3834.0,0.009
3833.0,0.0091
3832.0,0.0092
3831.0,0.0092
3830.0,0.0091
3829.0,0.0092
3828.0,0.0093
3827.0,0.0093
3826.0,0.0093
3825.0,0.0093
3824.0,0.0092
3823.0,0.0091
3822.0,0.0092
3821.0,0.0091
3820.0,0.0089
3819.0,0.0089
3818.0,0.009
3817.0,0.0092
3816.0,0.0092
3815.0,0.0092
3814.0,0.0093
3813.0,0.0094
3812.0,0.0095
3811.0,0.0094
3810.0,0.0093
3809.0,0.0092
3808.0,0.0092
3807.0,0.0092
3806.0,0.009
3805.0,0.0089
3804.0,0.0088
3803.0,0.0089
3802.0,0.009
3801.0,0.009
3800.0,0.0089
3799.0,0.0089
3798.0,0.0091
3797.0,0.0094
3796.0,0.0096
3795.0,0.0097
3794.0,0.0097
3793.0,0.0098
3792.0,0.0098
3791.0,0.0098
3790.0,0.0097
3789.0,0.0096
3788.0,0.0096
3787.0,0.0095
3786.0,0.0095
3785.0,0.0095
3784.0,0.0095
3783.0,0.0095
3782.0,0.0096
3781.0,0.0097
3780.0,0.0099
3779.0,0.0099
3778.0,0.0098
3777.0,0.0097
3776.0,0.0097
3775.0,0.0097
3774.0,0.0096
3773.0,0.0096
3772.0,0.0096
3771.0,0.0096
3770.0,0.0096
3769.0,0.0096
3768.0,0.0096
3767.0,0.0097
3766.0,0.0098
3765.0,0.0098
3764.0,0.0098
3763.0,0.0097
3762.0,0.0097
3761.0,0.0096
3760.0,0.0096
3759.0,0.0095
3758.0,0.0094
3757.0,0.0094
3756.0,0.0093
3755.0,0.0092
3754.0,0.0091
3753.0,0.0091
3752.0,0.0093
3751.0,0.0095
3750.0,0.0094
3749.0,0.0091
3748.0,0.009
3747.0,0.0091
3746.0,0.0092
3745.0,0.0093
3744.0,0.009
3743.0,0.0087
3742.0,0.0086
3741.0,0.0087
3740.0,0.0086
3739.0,0.0085
3738.0,0.0083
3737.0,0.008
3736.0,0.0077
3735.0,0.0075
3734.0,0.0075
3733.0,0.0077
3732.0,0.0078
3731.0,0.0078
3730.0,0.0077
3729.0,0.0076
3728.0,0.0076
3727.0,0.0076
3726.0,0.0077
3725.0,0.0078
3724.0,0.0079
3723.0,0.008
3722.0,0.0082
3721.0,0.0085
3720.0,0.0088
3719.0,0.0092
3718.0,0.0096
3717.0,0.0104
3716.0,0.0114
3715.0,0.012
3714.0,0.0118
3713.0,0.011
3712.0,0.01
3711.0,0.0093
3710.0,0.0089
3709.0,0.0088
3708.0,0.0088
3707.0,0.0087
3706.0,0.0087
3705.0,0.0086
3704.0,0.0087
3703.0,0.0088
3702.0,0.009
3701.0,0.0091
3700.0,0.0092
3699.0,0.0092
3698.0,0.0093
3697.0,0.0094
3696.0,0.0094
3695.0,0.0093
3694.0,0.0093
3693.0,0.0092
3692.0,0.0091
3691.0,0.0092
3690.0,0.0094
3689.0,0.0096
3688.0,0.0097
3687.0,0.0099
3686.0,0.0101
3685.0,0.0102
3684.0,0.0102
3683.0,0.0102
3682.0,0.0101
3681.0,0.0101
3680.0,0.01
3679.0,0.0099
3678.0,0.0098
3677.0,0.0098
3676.0,0.0098
3675.0,0.0096
3674.0,0.0094
3673.0,0.0094
3672.0,0.0096
3671.0,0.0098
3670.0,0.0099
3669.0,0.0099
3668.0,0.0099
3667.0,0.0101
3666.0,0.0102
3665.0,0.0103
3664.0,0.0103
3663.0,0.0102
3662.0,0.0102
3661.0,0.0102
3660.0,0.0102
3659.0,0.0103
3658.0,0.0103
3657.0,0.0104
3656.0,0.0104
3655.0,0.0103
3654.0,0.0101
3653.0,0.01
3652.0,0.0098
3651.0,0.0097
3650.0,0.0098
3649.0,0.0099
3648.0,0.0098
3647.0,0.0098
3646.0,0.01
3645.0,0.0102
3644.0,0.0104
3643.0,0.0105
3642.0,0.0106
3641.0,0.0107
3640.0,0.0107
3639.0,0.0107
3638.0,0.0107
3637.0,0.0107
3636.0,0.0106
3635.0,0.0106
3634.0,0.0104
3633.0,0.01
3632.0,0.0097
3631.0,0.0095
3630.0,0.0096
3629.0,0.0098
3628.0,0.0098
3627.0,0.0097
3626.0,0.0098
3625.0,0.0098
3624.0,0.0098
3623.0,0.0098
3622.0,0.0097
3621.0,0.0097
3620.0,0.0097
3619.0,0.0096
3618.0,0.0096
3617.0,0.0098
3616.0,0.0101
3615.0,0.0108
3614.0,0.0115
3613.0,0.0119
3612.0,0.0118
3611.0,0.0113
3610.0,0.0108
3609.0,0.0104
3608.0,0.0103
3607.0,0.0102
3606.0,0.0102
3605.0,0.0102
3604.0,0.0103
3603.0,0.0104
3602.0,0.0105
3601.0,0.0105
3600.0,0.0104
3599.0,0.0104
3598.0,0.0104
3597.0,0.0104
3596.0,0.0105
3595.0,0.0106
3594.0,0.0106
3593.0,0.0106
3592.0,0.0105
3591.0,0.0104
3590.0,0.0103
3589.0,0.0104
3588.0,0.0106
3587.0,0.0108
3586.0,0.0108
3585.0,0.0109
3584.0,0.0111
3583.0,0.0113
3582.0,0.0115
3581.0,0.0115
3580.0,0.0115
3579.0,0.0115
3578.0,0.0116
3577.0,0.0117
3576.0,0.0117
3575.0,0.0118
3574.0,0.0118
3573.0,0.0118
3572.0,0.0117
3571.0,0.0116
3570.0,0.0113
3569.0,0.011
3568.0,0.0108
3567.0,0.0109
3566.0,0.011
3565.0,0.0112
3564.0,0.0114
3563.0,0.0116
3562.0,0.0116
3561.0,0.0116
3560.0,0.0116
3559.0,0.0116
3558.0,0.0117
3557.0,0.0117
3556.0,0.0117
3555.0,0.0117
3554.0,0.0119
3553.0,0.0121
3552.0,0.0123
3551.0,0.0123
3550.0,0.0123
3549.0,0.0122
3548.0,0.012
3547.0,0.012
3546.0,0.012
3545.0,0.0121
3544.0,0.0122
3543.0,0.0123
3542.0,0.0123
3541.0,0.0124
3540.0,0.0125
3539.0,0.0125
3538.0,0.0124
3537.0,0.0124
3536.0,0.0123
3535.0,0.0123
3534.0,0.0124
3533.0,0.0124
3532.0,0.0123
3531.0,0.0123
3530.0,0.0122
3529.0,0.0122
3528.0,0.0121
3527.0,0.012
3526.0,0.0119
3525.0,0.0119
3524.0,0.0119
3523.0,0.012
3522.0,0.0121
3521.0,0.0123
3520.0,0.0125
3519.0,0.0126
3518.0,0.0126
3517.0,0.0126
3516.0,0.0126
3515.0,0.0125
3514.0,0.0125
3513.0,0.0125
3512.0,0.0125
3511.0,0.0124
3510.0,0.0124
3509.0,0.0123
3508.0,0.0123
3507.0,0.0123
3506.0,0.0124
3505.0,0.0125
3504.0,0.0126
3503.0,0.0127
3502.0,0.0127
3501.0,0.0126
3500.0,0.0125
3499.0,0.0125
3498.0,0.0124
3497.0,0.0124
3496.0,0.0125
3495.0,0.0126
3494.0,0.0126
3493.0,0.0127
3492.0,0.0127
3491.0,0.0127
3490.0,0.0127
3489.0,0.0127
3488.0,0.0126
3487.0,0.0125
3486.0,0.0125
3485.0,0.0125
3484.0,0.0127
3483.0,0.0128
3482.0,0.0129
3481.0,0.0128
3480.0,0.0128
3479.0,0.0128
3478.0,0.0128
3477.0,0.0129
3476.0,0.0129
3475.0,0.0129
3474.0,0.0129
3473.0,0.013
3472.0,0.013
3471.0,0.013
3470.0,0.0129
3469.0,0.0129
3468.0,0.013
3467.0,0.013
3466.0,0.013
3465.0,0.013
3464.0,0.013
3463.0,0.013
3462.0,0.013
3461.0,0.0131
3460.0,0.0132
3459.0,0.0133
3458.0,0.0134
3457.0,0.0134
3456.0,0.0133
3455.0,0.0132
3454.0,0.0131
3453.0,0.0131
3452.0,0.013
3451.0,0.013
3450.0,0.013
3449.0,0.0131
3448.0,0.0132
3447.0,0.0133
3446.0,0.0134
3445.0,0.0134
3444.0,0.0133
3443.0,0.0133
3442.0,0.0132
3441.0,0.0132
3440.0,0.0132
3439.0,0.0132
3438.0,0.0132
3437.0,0.0132
3436.0,0.0132
3435.0,0.0131
3434.0,0.0131
3433.0,0.0132
3432.0,0.0132
3431.0,0.0133
3430.0,0.0134
3429.0,0.0134
3428.0,0.0134
3427.0,0.0134
3426.0,0.0133
3425.0,0.0132
3424.0,0.0132
3423.0,0.0131
3422.0,0.0132
3421.0,0.0132
3420.0,0.0132
3419.0,0.0132
3418.0,0.0132
3417.0,0.0133
3416.0,0.0134
3415.0,0.0135
3414.0,0.0136
3413.0,0.0136
3412.0,0.0136
3411.0,0.0135
3410.0,0.0135
3409.0,0.0134
3408.0,0.0135
3407.0,0.0135
3406.0,0.0135
3405.0,0.0135
3404.0,0.0134
3403.0,0.0134
3402.0,0.0134
3401.0,0.0134
3400.0,0.0134
3399.0,0.0134
3398.0,0.0134
3397.0,0.0133
3396.0,0.0133
3395.0,0.0132
3394.0,0.0131
3393.0,0.0131
3392.0,0.0131
3391.0,0.0131
3390.0,0.0132
3389.0,0.0134
3388.0,0.0134
3387.0,0.0135
3386.0,0.0134
3385.0,0.0134
3384.0,0.0134
3383.0,0.0134
3382.0,0.0134
3381.0,0.0134
3380.0,0.0133
3379.0,0.0133
3378.0,0.0133
3377.0,0.0133
3376.0,0.0134
3375.0,0.0134
3374.0,0.0134
3373.0,0.0134
3372.0,0.0134
3371.0,0.0134
3370.0,0.0133
3369.0,0.0133
3368.0,0.0133
3367.0,0.0133
3366.0,0.0133
3365.0,0.0133
3364.0,0.0133
3363.0,0.0133
3362.0,0.0133
3361.0,0.0133
3360.0,0.0133
3359.0,0.0132
3358.0,0.0131
3357.0,0.013
3356.0,0.0131
3355.0,0.0132
3354.0,0.0133
3353.0,0.0134
3352.0,0.0135
3351.0,0.0136
3350.0,0.0137
3349.0,0.0137
3348.0,0.0137
3347.0,0.0136
3346.0,0.0134
3345.0,0.0133
3344.0,0.0132
3343.0,0.0131
3342.0,0.0131
3341.0,0.0131
3340.0,0.0131
3339.0,0.0132
3338.0,0.0132
3337.0,0.0133
3336.0,0.0133
3335.0,0.0133
3334.0,0.0133
3333.0,0.0132
3332.0,0.0131
3331.0,0.013
3330.0,0.013
3329.0,0.0129
3328.0,0.0129
3327.0,0.0128
3326.0,0.0128
3325.0,0.0129
3324.0,0.0129
3323.0,0.0129
3322.0,0.013
3321.0,0.013
3320.0,0.013
3319.0,0.013
3318.0,0.0129
3317.0,0.0128
3316.0,0.0129
3315.0,0.0129
3314.0,0.0129
3313.0,0.0129
3312.0,0.0129
3311.0,0.0129
3310.0,0.0129
3309.0,0.0129
3308.0,0.0129
3307.0,0.0129
3306.0,0.0129
3305.0,0.0129
3304.0,0.0128
3303.0,0.0128
3302.0,0.0127
3301.0,0.0127
3300.0,0.0127
3299.0,0.0127
3298.0,0.0127
3297.0,0.0127
3296.0,0.0128
3295.0,0.0128
3294.0,0.0127
3293.0,0.0127
3292.0,0.0127
3291.0,0.0128
3290.0,0.0128
3289.0,0.0128
3288.0,0.0127
3287.0,0.0126
3286.0,0.0126
3285.0,0.0126
3284.0,0.0127
3283.0,0.0127
3282.0,0.0127
3281.0,0.0127
3280.0,0.0127
3279.0,0.0127
3278.0,0.0127
3277.0,0.0126
3276.0,0.0126
3275.0,0.0126
3274.0,0.0126
3273.0,0.0125
3272.0,0.0125
3271.0,0.0124
3270.0,0.0124
3269.0,0.0124
3268.0,0.0125
3267.0,0.0125
3266.0,0.0124
3265.0,0.0124
3264.0,0.0123
3263.0,0.0122
3262.0,0.0122
3261.0,0.0122
3260.0,0.0122
3259.0,0.0122
3258.0,0.0123
3257.0,0.0124
3256.0,0.0124
3255.0,0.0124
3254.0,0.0123
3253.0,0.0122
3252.0,0.0121
3251.0,0.012
3250.0,0.012
3249.0,0.0119
3248.0,0.0118
3247.0,0.0118
3246.0,0.0118
3245.0,0.0118
3244.0,0.0119
3243.0,0.0119
3242.0,0.012
3241.0,0.012
3240.0,0.012
3239.0,0.012
3238.0,0.012
3237.0,0.0119
3236.0,0.0118
3235.0,0.0118
3234.0,0.0118
3233.0,0.0118
3232.0,0.0119
3231.0,0.012
3230.0,0.0121
3229.0,0.012
3228.0,0.012
3227.0,0.012
3226.0,0.012
3225.0,0.0121
3224.0,0.0121
3223.0,0.0122
3222.0,0.0121
3221.0,0.0121
3220.0,0.012
3219.0,0.0119
3218.0,0.0119
3217.0,0.0119
3216.0,0.0119
3215.0,0.0119
3214.0,0.0119
3213.0,0.0119
3212.0,0.012
3211.0,0.012
3210.0,0.012
3209.0,0.012
3208.0,0.012
3207.0,0.012
3206.0,0.012
3205.0,0.012
3204.0,0.0121
3203.0,0.012
3202.0,0.0119
3201.0,0.0118
3200.0,0.0118
3199.0,0.0118
3198.0,0.0118
3197.0,0.0119
3196.0,0.0119
3195.0,0.012
3194.0,0.012
3193.0,0.0119
3192.0,0.0118
3191.0,0.0118
3190.0,0.0117
3189.0,0.0117
3188.0,0.0117
3187.0,0.0117
3186.0,0.0117
3185.0,0.0116
3184.0,0.0115
3183.0,0.0114
3182.0,0.0114
3181.0,0.0113
3180.0,0.0113
3179.0,0.0112
3178.0,0.0113
3177.0,0.0113
3176.0,0.0114
3175.0,0.0115
3174.0,0.0114
3173.0,0.0113
3172.0,0.0112
3171.0,0.0112
3170.0,0.0112
3169.0,0.0112
3168.0,0.0112
3167.0,0.0111
3166.0,0.0111
3165.0,0.0111
3164.0,0.0111
3163.0,0.0111
3162.0,0.011
3161.0,0.011
3160.0,0.0111
3159.0,0.0111
3158.0,0.0112
3157.0,0.0112
3156.0,0.0111
3155.0,0.011
3154.0,0.0109
3153.0,0.0109
3152.0,0.0109
3151.0,0.0108
3150.0,0.0108
3149.0,0.0107
3148.0,0.0106
3147.0,0.0105
3146.0,0.0105
3145.0,0.0105
3144.0,0.0106
3143.0,0.0106
3142.0,0.0105
3141.0,0.0105
3140.0,0.0105
3139.0,0.0105
3138.0,0.0105
3137.0,0.0105
3136.0,0.0104
3135.0,0.0103
3134.0,0.0102
3133.0,0.0102
3132.0,0.0102
3131.0,0.0102
3130.0,0.0101
3129.0,0.0101
3128.0,0.01
3127.0,0.0099
3126.0,0.0099
3125.0,0.0098
3124.0,0.0097
3123.0,0.0097
3122.0,0.0097
3121.0,0.0097
3120.0,0.0097
3119.0,0.0097
3118.0,0.0096
3117.0,0.0096
3116.0,0.0095
3115.0,0.0095
3114.0,0.0095
3113.0,0.0095
3112.0,0.0095
3111.0,0.0095
3110.0,0.0095
3109.0,0.0095
3108.0,0.0094
3107.0,0.0094
3106.0,0.0093
3105.0,0.0092
3104.0,0.0091
3103.0,0.009
3102.0,0.009
3101.0,0.0089
3100.0,0.0089
3099.0,0.0089
3098.0,0.0089
3097.0,0.009
3096.0,0.009
3095.0,0.009
3094.0,0.0089
3093.0,0.0089
3092.0,0.0088
3091.0,0.0086
3090.0,0.0085
3089.0,0.0084
3088.0,0.0084
3087.0,0.0084
3086.0,0.0084
3085.0,0.0084
3084.0,0.0083
3083.0,0.0083
3082.0,0.0082
3081.0,0.0082
3080.0,0.0082
3079.0,0.0082
3078.0,0.0082
3077.0,0.0081
3076.0,0.008
3075.0,0.008
3074.0,0.008
3073.0,0.008
3072.0,0.008
3071.0,0.008
3070.0,0.0079
3069.0,0.0079
3068.0,0.0078
3067.0,0.0077
3066.0,0.0077
3065.0,0.0076
3064.0,0.0075
3063.0,0.0074
3062.0,0.0074
3061.0,0.0073
3060.0,0.0074
3059.0,0.0074
3058.0,0.0074
3057.0,0.0073
3056.0,0.0073
3055.0,0.0073
3054.0,0.0073
3053.0,0.0072
3052.0,0.0072
3051.0,0.0072
3050.0,0.0071
3049.0,0.007
3048.0,0.0069
3047.0,0.0069
3046.0,0.0068
3045.0,0.0068
3044.0,0.0067
3043.0,0.0066
3042.0,0.0066
3041.0,0.0065
3040.0,0.0065
3039.0,0.0064
3038.0,0.0063
3037.0,0.0062
3036.0,0.0062
3035.0,0.0061
3034.0,0.0061
3033.0,0.0061
3032.0,0.006
3031.0,0.0059
3030.0,0.0058
3029.0,0.0057
3028.0,0.0058
3027.0,0.0058
3026.0,0.0057
3025.0,0.0056
3024.0,0.0055
3023.0,0.0055
3022.0,0.0055
3021.0,0.0055
3020.0,0.0055
3019.0,0.0055
3018.0,0.0055
3017.0,0.0054
3016.0,0.0053
3015.0,0.0052
3014.0,0.0052
3013.0,0.0051
3012.0,0.0051
3011.0,0.0051
3010.0,0.0051
3009.0,0.0051
3008.0,0.0051
3007.0,0.0051
3006.0,0.0051
3005.0,0.0051
3004.0,0.005
3003.0,0.005
3002.0,0.005
3001.0,0.005
3000.0,0.005
2999.0,0.0051
2998.0,0.0053
2997.0,0.0055
2996.0,0.0056
2995.0,0.0056
2994.0,0.0056
2993.0,0.0057
2992.0,0.0059
2991.0,0.0062
2990.0,0.0065
2989.0,0.0069
2988.0,0.0074
2987.0,0.0078
2986.0,0.0084
2985.0,0.009
2984.0,0.0098
2983.0,0.0107
2982.0,0.0117
2981.0,0.0128
2980.0,0.0141
2979.0,0.0156
2978.0,0.0173
2977.0,0.0192
2976.0,0.0214
2975.0,0.0239
2974.0,0.0268
2973.0,0.0302
2972.0,0.034
2971.0,0.0382
2970.0,0.0428
2969.0,0.0478
2968.0,0.0532
2967.0,0.0588
2966.0,0.0645
2965.0,0.0702
2964.0,0.0756
2963.0,0.0804
2962.0,0.0846
2961.0,0.088
2960.0,0.0909
2959.0,0.0935
2958.0,0.0964
2957.0,0.0998
2956.0,0.1039
2955.0,0.109
2954.0,0.1148
2953.0,0.1209
2952.0,0.1267
2951.0,0.1312
2950.0,0.1337
2949.0,0.1334
2948.0,0.1304
2947.0,0.1247
2946.0,0.117
2945.0,0.1082
2944.0,0.0993
2943.0,0.0912
2942.0,0.0844
2941.0,0.0793
2940.0,0.0757
2939.0,0.0737
2938.0,0.073
2937.0,0.0737
2936.0,0.0755
2935.0,0.0786
2934.0,0.0826
2933.0,0.0877
2932.0,0.0935
2931.0,0.0999
2930.0,0.1068
2929.0,0.1138
2928.0,0.1207
2927.0,0.1273
2926.0,0.1337
2925.0,0.1398
2924.0,0.1458
2923.0,0.152
2922.0,0.1583
2921.0,0.1645
2920.0,0.1701
2919.0,0.1746
2918.0,0.1773
2917.0,0.1777
2916.0,0.1759
2915.0,0.1721
2914.0,0.1671
2913.0,0.1615
2912.0,0.156
2911.0,0.1509
2910.0,0.1462
2909.0,0.1419
2908.0,0.1379
2907.0,0.1341
2906.0,0.1302
2905.0,0.1263
2904.0,0.1224
2903.0,0.1184
2902.0,0.1145
2901.0,0.1106
2900.0,0.1069
2899.0,0.1034
2898.0,0.1
2897.0,0.097
2896.0,0.0942
2895.0,0.0918
2894.0,0.0898
2893.0,0.0882
2892.0,0.087
2891.0,0.0862
2890.0,0.0857
2889.0,0.0856
2888.0,0.0857
2887.0,0.086
2886.0,0.0866
2885.0,0.0874
2884.0,0.0884
2883.0,0.0899
2882.0,0.0917
2881.0,0.0938
2880.0,0.0959
2879.0,0.0978
2878.0,0.0991
2877.0,0.0996
2876.0,0.0995
2875.0,0.099
2874.0,0.0986
2873.0,0.0986
2872.0,0.0993
2871.0,0.1005
2870.0,0.1021
2869.0,0.1037
2868.0,0.1049
2867.0,0.105
2866.0,0.1036
2865.0,0.1004
2864.0,0.0956
2863.0,0.0897
2862.0,0.0835
2861.0,0.0776
2860.0,0.0724
2859.0,0.0681
2858.0,0.0647
2857.0,0.0621
2856.0,0.0602
2855.0,0.0588
2854.0,0.058
2853.0,0.0575
2852.0,0.0575
2851.0,0.0579
2850.0,0.0589
2849.0,0.0604
2848.0,0.0625
2847.0,0.0652
2846.0,0.0686
2845.0,0.0727
2844.0,0.0773
2843.0,0.0822
2842.0,0.0873
2841.0,0.0921
2840.0,0.0962
2839.0,0.0991
2838.0,0.1003
2837.0,0.0996
2836.0,0.097
2835.0,0.0925
2834.0,0.0869
2833.0,0.0806
2832.0,0.0745
2831.0,0.069
2830.0,0.0642
2829.0,0.0603
2828.0,0.0571
2827.0,0.0543
2826.0,0.052
2825.0,0.0501
2824.0,0.0484
2823.0,0.0469
2822.0,0.0456
2821.0,0.0445
2820.0,0.0436
2819.0,0.0427
2818.0,0.042
2817.0,0.0413
2816.0,0.0406
2815.0,0.0399
2814.0,0.0393
2813.0,0.0388
2812.0,0.0383
2811.0,0.0378
2810.0,0.0374
2809.0,0.0369
2808.0,0.0364
2807.0,0.0359
2806.0,0.0353
2805.0,0.0346
2804.0,0.034
2803.0,0.0334
2802.0,0.0329
2801.0,0.0325
2800.0,0.0321
2799.0,0.0318
2798.0,0.0315
2797.0,0.0313
2796.0,0.031
2795.0,0.0308
2794.0,0.0305
2793.0,0.0302
2792.0,0.0299
2791.0,0.0296
2790.0,0.0292
2789.0,0.0289
2788.0,0.0286
2787.0,0.0283
2786.0,0.028
2785.0,0.0278
2784.0,0.0276
2783.0,0.0274
2782.0,0.0272
2781.0,0.0269
2780.0,0.0266
2779.0,0.0264
2778.0,0.0261
2777.0,0.0259
2776.0,0.0258
2775.0,0.0257
2774.0,0.0256
2773.0,0.0255
2772.0,0.0255
2771.0,0.0254
2770.0,0.0252
2769.0,0.025
2768.0,0.0249
2767.0,0.0248
2766.0,0.0247
2765.0,0.0247
2764.0,0.0246
2763.0,0.0244
2762.0,0.0243
2761.0,0.0242
2760.0,0.0241
2759.0,0.024
2758.0,0.0239
2757.0,0.0238
2756.0,0.0237
2755.0,0.0236
2754.0,0.0235
2753.0,0.0234
2752.0,0.0232
2751.0,0.0232
2750.0,0.0232
2749.0,0.0233
2748.0,0.0233
2747.0,0.0233
2746.0,0.0232
2745.0,0.0231
2744.0,0.0231
2743.0,0.0231
2742.0,0.0232
2741.0,0.0233
2740.0,0.0234
2739.0,0.0234
2738.0,0.0235
2737.0,0.0235
2736.0,0.0236
2735.0,0.0237
2734.0,0.0238
2733.0,0.0239
2732.0,0.024
2731.0,0.0241
2730.0,0.0243
2729.0,0.0245
2728.0,0.0247
2727.0,0.0249
2726.0,0.0251
2725.0,0.0253
2724.0,0.0254
2723.0,0.0255
2722.0,0.0255
2721.0,0.0254
2720.0,0.0252
2719.0,0.0249
2718.0,0.0246
2717.0,0.0243
2716.0,0.0241
2715.0,0.0239
2714.0,0.0238
2713.0,0.0235
2712.0,0.0234
2711.0,0.0232
2710.0,0.023
2709.0,0.0228
2708.0,0.0227
2707.0,0.0225
2706.0,0.0224
2705.0,0.0223
2704.0,0.0223
2703.0,0.0222
2702.0,0.0221
2701.0,0.0219
2700.0,0.0218
2699.0,0.0217
2698.0,0.0217
2697.0,0.0216
2696.0,0.0216
2695.0,0.0215
2694.0,0.0215
2693.0,0.0214
2692.0,0.0214
2691.0,0.0214
2690.0,0.0214
2689.0,0.0213
2688.0,0.0213
2687.0,0.0212
2686.0,0.0211
2685.0,0.0211
2684.0,0.0211
2683.0,0.0212
2682.0,0.0212
2681.0,0.0212
2680.0,0.0212
2679.0,0.0211
2678.0,0.0211
2677.0,0.0211
2676.0,0.0211
2675.0,0.0211
2674.0,0.0211
2673.0,0.021
2672.0,0.0209
2671.0,0.0208
2670.0,0.0208
2669.0,0.0207
2668.0,0.0207
2667.0,0.0206
2666.0,0.0206
2665.0,0.0207
2664.0,0.0208
2663.0,0.0208
2662.0,0.0208
2661.0,0.0208
2660.0,0.0208
2659.0,0.0207
2658.0,0.0207
2657.0,0.0206
2656.0,0.0205
2655.0,0.0204
2654.0,0.0204
2653.0,0.0203
2652.0,0.0203
2651.0,0.0203
2650.0,0.0202
2649.0,0.0202
2648.0,0.0201
2647.0,0.02
2646.0,0.02
2645.0,0.0199
2644.0,0.0198
2643.0,0.0197
2642.0,0.0196
2641.0,0.0196
2640.0,0.0195
2639.0,0.0195
2638.0,0.0195
2637.0,0.0195
2636.0,0.0194
2635.0,0.0194
2634.0,0.0193
2633.0,0.0193
2632.0,0.0193
2631.0,0.0194
2630.0,0.0195
2629.0,0.0195
2628.0,0.0196
2627.0,0.0196
2626.0,0.0196
2625.0,0.0196
2624.0,0.0196
2623.0,0.0196
2622.0,0.0196
2621.0,0.0196
2620.0,0.0196
2619.0,0.0196
2618.0,0.0196
2617.0,0.0197
2616.0,0.0197
2615.0,0.0197
2614.0,0.0197
2613.0,0.0197
2612.0,0.0197
2611.0,0.0196
2610.0,0.0196
2609.0,0.0195
2608.0,0.0194
2607.0,0.0193
2606.0,0.0192
2605.0,0.0191
2604.0,0.019
2603.0,0.0189
2602.0,0.0189
2601.0,0.0188
2600.0,0.0188
2599.0,0.0188
2598.0,0.0188
2597.0,0.0189
2596.0,0.0189
2595.0,0.0189
2594.0,0.0189
2593.0,0.0189
2592.0,0.019
2591.0,0.0191
2590.0,0.0191
2589.0,0.0192
2588.0,0.0192
2587.0,0.0192
2586.0,0.0194
2585.0,0.0195
2584.0,0.0197
2583.0,0.0198
2582.0,0.0198
2581.0,0.0197
2580.0,0.0196
2579.0,0.0195
2578.0,0.0194
2577.0,0.0193
2576.0,0.0192
2575.0,0.0191
2574.0,0.0191
2573.0,0.019
2572.0,0.0189
2571.0,0.0188
2570.0,0.0187
2569.0,0.0187
2568.0,0.0186
2567.0,0.0185
2566.0,0.0185
2565.0,0.0185
2564.0,0.0185
2563.0,0.0184
2562.0,0.0184
2561.0,0.0182
2560.0,0.0181
2559.0,0.0181
2558.0,0.0182
2557.0,0.0183
2556.0,0.0183
2555.0,0.0183
2554.0,0.0183
2553.0,0.0182
2552.0,0.0181
2551.0,0.018
2550.0,0.0179
2549.0,0.0178
2548.0,0.0177
2547.0,0.0177
2546.0,0.0177
2545.0,0.0177
2544.0,0.0177
2543.0,0.0176
2542.0,0.0176
2541.0,0.0175
2540.0,0.0175
2539.0,0.0175
2538.0,0.0174
2537.0,0.0174
2536.0,0.0175
2535.0,0.0175
2534.0,0.0175
2533.0,0.0175
2532.0,0.0175
2531.0,0.0174
2530.0,0.0173
2529.0,0.0173
2528.0,0.0172
2527.0,0.0172
2526.0,0.0172
2525.0,0.0172
2524.0,0.0171
2523.0,0.0171
2522.0,0.017
2521.0,0.017
2520.0,0.017
2519.0,0.017
2518.0,0.017
2517.0,0.0169
2516.0,0.0169
2515.0,0.0169
2514.0,0.0168
2513.0,0.0169
2512.0,0.0169
2511.0,0.0168
2510.0,0.0168
2509.0,0.0168
2508.0,0.0168
2507.0,0.0168
2506.0,0.0168
2505.0,0.0167
2504.0,0.0167
2503.0,0.0167
2502.0,0.0167
2501.0,0.0167
2500.0,0.0167
2499.0,0.0167
2498.0,0.0167
2497.0,0.0167
2496.0,0.0167
2495.0,0.0167
2494.0,0.0167
2493.0,0.0167
2492.0,0.0167
2491.0,0.0167
2490.0,0.0166
2489.0,0.0166
2488.0,0.0166
2487.0,0.0166
2486.0,0.0165
2485.0,0.0165
2484.0,0.0164
2483.0,0.0164
2482.0,0.0164
2481.0,0.0164
2480.0,0.0165
2479.0,0.0165
2478.0,0.0165
2477.0,0.0165
2476.0,0.0165
2475.0,0.0165
2474.0,0.0165
2473.0,0.0164
2472.0,0.0163
2471.0,0.0163
2470.0,0.0163
2469.0,0.0163
2468.0,0.0164
2467.0,0.0164
2466.0,0.0164
2465.0,0.0164
2464.0,0.0164
2463.0,0.0164
2462.0,0.0163
2461.0,0.0162
2460.0,0.0162
2459.0,0.0162
2458.0,0.0162
2457.0,0.0163
2456.0,0.0163
2455.0,0.0163
2454.0,0.0163
2453.0,0.0163
2452.0,0.0162
2451.0,0.0162
2450.0,0.0163
2449.0,0.0163
2448.0,0.0163
2447.0,0.0163
2446.0,0.0163
2445.0,0.0163
2444.0,0.0163
2443.0,0.0163
2442.0,0.0163
2441.0,0.0163
2440.0,0.0163
2439.0,0.0163
2438.0,0.0163
2437.0,0.0163
2436.0,0.0163
2435.0,0.0163
2434.0,0.0163
2433.0,0.0164
2432.0,0.0164
2431.0,0.0164
2430.0,0.0164
2429.0,0.0164
2428.0,0.0164
2427.0,0.0163
2426.0,0.0163
2425.0,0.0163
2424.0,0.0163
2423.0,0.0163
2422.0,0.0163
2421.0,0.0163
2420.0,0.0163
2419.0,0.0163
2418.0,0.0163
2417.0,0.0163
2416.0,0.0163
2415.0,0.0163
2414.0,0.0162
2413.0,0.0162
2412.0,0.0161
2411.0,0.016
2410.0,0.016
2409.0,0.016
2408.0,0.016
2407.0,0.0161
2406.0,0.0161
2405.0,0.0161
2404.0,0.0161
2403.0,0.0161
2402.0,0.0161
2401.0,0.0161
2400.0,0.0161
2399.0,0.016
2398.0,0.016
2397.0,0.016
2396.0,0.016
2395.0,0.0161
2394.0,0.0161
2393.0,0.0161
2392.0,0.0161
2391.0,0.016
2390.0,0.0161
2389.0,0.0164
2388.0,0.0165
2387.0,0.0167
2386.0,0.0169
2385.0,0.0171
2384.0,0.0172
2383.0,0.0172
2382.0,0.0169
2381.0,0.0164
2380.0,0.0157
2379.0,0.0149
2378.0,0.0139
2377.0,0.0128
2376.0,0.0118
2375.0,0.0111
2374.0,0.0108
2373.0,0.0108
2372.0,0.0108
2371.0,0.0108
2370.0,0.0107
2369.0,0.0102
2368.0,0.009
2367.0,0.0085
2366.0,0.0102
2365.0,0.0141
2364.0,0.0181
2363.0,0.0206
2362.0,0.0191
2361.0,0.0196
2360.0,0.0177
2359.0,0.0266
2358.0,0.037
2357.0,0.0311
2356.0,0.0291
2355.0,0.026
2354.0,0.0249
2353.0,0.023
2352.0,0.0212
2351.0,0.0196
2350.0,0.0185
2349.0,0.0179
2348.0,0.0178
2347.0,0.0182
2346.0,0.0193
2345.0,0.021
2344.0,0.0227
2343.0,0.0239
2342.0,0.0242
2341.0,0.0236
2340.0,0.0225
2339.0,0.0217
2338.0,0.0213
2337.0,0.0214
2336.0,0.0216
2335.0,0.0218
2334.0,0.0222
2333.0,0.0224
2332.0,0.0221
2331.0,0.0213
2330.0,0.0199
2329.0,0.0187
2328.0,0.0177
2327.0,0.0172
2326.0,0.0171
2325.0,0.0172
2324.0,0.0174
2323.0,0.0177
2322.0,0.0177
2321.0,0.0174
2320.0,0.017
2319.0,0.0165
2318.0,0.016
2317.0,0.0158
2316.0,0.0156
2315.0,0.0157
2314.0,0.0158
2313.0,0.0159
2312.0,0.0159
2311.0,0.0159
2310.0,0.0159
2309.0,0.0161
2308.0,0.0162
2307.0,0.0163
2306.0,0.0161
2305.0,0.016
2304.0,0.0155
2303.0,0.0158
2302.0,0.0143
2301.0,0.0119
2300.0,0.0141
2299.0,0.0157
2298.0,0.0153
2297.0,0.0155
2296.0,0.0154
2295.0,0.0154
2294.0,0.0154
2293.0,0.0154
2292.0,0.0154
2291.0,0.0154
2290.0,0.0153
2289.0,0.0153
2288.0,0.0153
2287.0,0.0152
2286.0,0.0153
2285.0,0.0153
2284.0,0.0152
2283.0,0.0152
2282.0,0.0151
2281.0,0.0151
2280.0,0.015
2279.0,0.0151
2278.0,0.0148
2277.0,0.0145
2276.0,0.0146
2275.0,0.0146
2274.0,0.0146
2273.0,0.0145
2272.0,0.0145
2271.0,0.0146
2270.0,0.0147
2269.0,0.0148
2268.0,0.0148
2267.0,0.0148
2266.0,0.0147
2265.0,0.0147
2264.0,0.0147
2263.0,0.0147
2262.0,0.0148
2261.0,0.0148
2260.0,0.0148
2259.0,0.0147
2258.0,0.0147
2257.0,0.0148
2256.0,0.0148
2255.0,0.0149
2254.0,0.0149
2253.0,0.0149
2252.0,0.0149
2251.0,0.0149
2250.0,0.0149
2249.0,0.0149
2248.0,0.0149
2247.0,0.0149
2246.0,0.0149
2245.0,0.0149
2244.0,0.0149
2243.0,0.0149
2242.0,0.0149
2241.0,0.0149
2240.0,0.0149
2239.0,0.0149
2238.0,0.0149
2237.0,0.0149
2236.0,0.0149
2235.0,0.0149
2234.0,0.0149
2233.0,0.0149
2232.0,0.0149
2231.0,0.0149
2230.0,0.0149
2229.0,0.0149
2228.0,0.0149
2227.0,0.0149
2226.0,0.0149
2225.0,0.015
2224.0,0.015
2223.0,0.015
2222.0,0.015
2221.0,0.0149
2220.0,0.0149
2219.0,0.0149
2218.0,0.0149
2217.0,0.0149
2216.0,0.0149
2215.0,0.0149
2214.0,0.0149
2213.0,0.0149
2212.0,0.0149
2211.0,0.0148
2210.0,0.0147
2209.0,0.0147
2208.0,0.0148
2207.0,0.0148
2206.0,0.0149
2205.0,0.0149
2204.0,0.0149
2203.0,0.0149
2202.0,0.0149
2201.0,0.0149
2200.0,0.0148
2199.0,0.0148
2198.0,0.0148
2197.0,0.0149
2196.0,0.0149
2195.0,0.0149
2194.0,0.0149
2193.0,0.0149
2192.0,0.0149
2191.0,0.0149
2190.0,0.0149
2189.0,0.0148
2188.0,0.0148
2187.0,0.0148
2186.0,0.0148
2185.0,0.0148
2184.0,0.0148
2183.0,0.0148
2182.0,0.0149
2181.0,0.0149
2180.0,0.015
2179.0,0.015
2178.0,0.0151
2177.0,0.0151
2176.0,0.0151
2175.0,0.015
2174.0,0.0149
2173.0,0.0149
2172.0,0.0148
2171.0,0.0148
2170.0,0.0149
2169.0,0.0149
2168.0,0.0149
2167.0,0.0149
2166.0,0.0149
2165.0,0.0149
2164.0,0.0149
2163.0,0.0149
2162.0,0.0148
2161.0,0.0147
2160.0,0.0147
2159.0,0.0147
2158.0,0.0148
2157.0,0.0148
2156.0,0.0148
2155.0,0.0148
2154.0,0.0147
2153.0,0.0147
2152.0,0.0147
2151.0,0.0147
2150.0,0.0147
2149.0,0.0148
2148.0,0.0148
2147.0,0.0148
2146.0,0.0148
2145.0,0.0148
2144.0,0.0148
2143.0,0.0148
2142.0,0.0147
2141.0,0.0147
2140.0,0.0147
2139.0,0.0147
2138.0,0.0148
2137.0,0.0148
2136.0,0.0148
2135.0,0.0147
2134.0,0.0147
2133.0,0.0147
2132.0,0.0147
2131.0,0.0147
2130.0,0.0147
2129.0,0.0147
2128.0,0.0147
2127.0,0.0146
2126.0,0.0146
2125.0,0.0146
2124.0,0.0145
2123.0,0.0145
2122.0,0.0145
2121.0,0.0145
2120.0,0.0146
2119.0,0.0146
2118.0,0.0146
2117.0,0.0145
2116.0,0.0145
2115.0,0.0145
2114.0,0.0145
2113.0,0.0145
2112.0,0.0145
2111.0,0.0145
2110.0,0.0145
2109.0,0.0145
2108.0,0.0145
2107.0,0.0144
2106.0,0.0144
2105.0,0.0144
2104.0,0.0145
2103.0,0.0145
2102.0,0.0145
2101.0,0.0145
2100.0,0.0145
2099.0,0.0145
2098.0,0.0145
2097.0,0.0145
2096.0,0.0145
2095.0,0.0145
2094.0,0.0145
2093.0,0.0145
2092.0,0.0145
2091.0,0.0145
2090.0,0.0144
2089.0,0.0144
2088.0,0.0144
2087.0,0.0144
2086.0,0.0144
2085.0,0.0144
2084.0,0.0144
2083.0,0.0144
2082.0,0.0144
2081.0,0.0144
2080.0,0.0145
2079.0,0.0144
2078.0,0.0144
2077.0,0.0144
2076.0,0.0144
2075.0,0.0145
2074.0,0.0145
2073.0,0.0144
2072.0,0.0143
2071.0,0.0143
2070.0,0.0143
2069.0,0.0143
2068.0,0.0144
2067.0,0.0144
2066.0,0.0144
2065.0,0.0144
2064.0,0.0143
2063.0,0.0142
2062.0,0.0142
2061.0,0.0142
2060.0,0.0143
2059.0,0.0143
2058.0,0.0143
2057.0,0.0143
2056.0,0.0142
2055.0,0.0142
2054.0,0.0142
2053.0,0.0143
2052.0,0.0144
2051.0,0.0144
2050.0,0.0144
2049.0,0.0143
2048.0,0.0143
2047.0,0.0143
2046.0,0.0143
2045.0,0.0143
2044.0,0.0144
2043.0,0.0144
2042.0,0.0144
2041.0,0.0144
2040.0,0.0143
2039.0,0.0143
2038.0,0.0143
2037.0,0.0143
2036.0,0.0143
2035.0,0.0143
2034.0,0.0143
2033.0,0.0144
2032.0,0.0145
2031.0,0.0145
2030.0,0.0145
2029.0,0.0145
2028.0,0.0144
2027.0,0.0144
2026.0,0.0144
2025.0,0.0144
2024.0,0.0144
2023.0,0.0144
2022.0,0.0143
2021.0,0.0143
2020.0,0.0143
2019.0,0.0143
2018.0,0.0143
2017.0,0.0143
2016.0,0.0144
2015.0,0.0143
2014.0,0.0143
2013.0,0.0143
2012.0,0.0143
2011.0,0.0143
2010.0,0.0143
2009.0,0.0143
2008.0,0.0143
2007.0,0.0143
2006.0,0.0143
2005.0,0.0143
2004.0,0.0144
2003.0,0.0144
2002.0,0.0144
2001.0,0.0144
2000.0,0.0144
1999.0,0.0144
1998.0,0.0143
1997.0,0.0143
1996.0,0.0142
1995.0,0.0142
1994.0,0.0143
1993.0,0.0143
1992.0,0.0143
1991.0,0.0143
1990.0,0.0143
1989.0,0.0143
1988.0,0.0143
1987.0,0.0143
1986.0,0.0144
1985.0,0.0144
1984.0,0.0144
1983.0,0.0144
1982.0,0.0143
1981.0,0.0143
1980.0,0.0143
1979.0,0.0143
1978.0,0.0142
1977.0,0.0142
1976.0,0.0142
1975.0,0.0142
1974.0,0.0142
1973.0,0.0142
1972.0,0.0142
1971.0,0.0142
1970.0,0.0142
1969.0,0.0143
1968.0,0.0143
1967.0,0.0143
1966.0,0.0144
1965.0,0.0144
1964.0,0.0144
1963.0,0.0144
1962.0,0.0144
1961.0,0.0144
1960.0,0.0143
1959.0,0.0143
1958.0,0.0143
1957.0,0.0143
1956.0,0.0143
1955.0,0.0144
1954.0,0.0144
1953.0,0.0143
1952.0,0.0143
1951.0,0.0143
1950.0,0.0143
1949.0,0.0144
1948.0,0.0144
1947.0,0.0144
1946.0,0.0144
1945.0,0.0143
1944.0,0.0143
1943.0,0.0144
1942.0,0.0144
1941.0,0.0143
1940.0,0.0143
1939.0,0.0143
1938.0,0.0143
1937.0,0.0143
1936.0,0.0143
1935.0,0.0143
1934.0,0.0143
1933.0,0.0143
1932.0,0.0143
1931.0,0.0143
1930.0,0.0143
1929.0,0.0143
1928.0,0.0143
1927.0,0.0143
1926.0,0.0143
1925.0,0.0143
1924.0,0.0144
1923.0,0.0144
1922.0,0.0144
1921.0,0.0145
1920.0,0.0144
1919.0,0.0144
1918.0,0.0144
1917.0,0.0144
1916.0,0.0145
1915.0,0.0145
1914.0,0.0145
1913.0,0.0145
1912.0,0.0144
1911.0,0.0143
1910.0,0.0143
1909.0,0.0143
1908.0,0.0143
1907.0,0.0144
1906.0,0.0144
1905.0,0.0144
1904.0,0.0144
1903.0,0.0144
1902.0,0.0144
1901.0,0.0144
1900.0,0.0145
1899.0,0.0145
1898.0,0.0145
1897.0,0.0145
1896.0,0.0145
1895.0,0.0144
1894.0,0.0144
1893.0,0.0144
1892.0,0.0144
1891.0,0.0143
1890.0,0.0143
1889.0,0.0143
1888.0,0.0143
1887.0,0.0144
1886.0,0.0145
1885.0,0.0145
1884.0,0.0145
1883.0,0.0144
1882.0,0.0144
1881.0,0.0144
1880.0,0.0144
1879.0,0.0144
1878.0,0.0144
1877.0,0.0144
1876.0,0.0144
1875.0,0.0144
1874.0,0.0144
1873.0,0.0143
1872.0,0.0143
1871.0,0.0142
1870.0,0.0141
1869.0,0.0141
1868.0,0.0141
1867.0,0.0142
1866.0,0.0143
1865.0,0.0143
1864.0,0.0144
1863.0,0.0144
1862.0,0.0144
1861.0,0.0144
1860.0,0.0144
1859.0,0.0144
1858.0,0.0144
1857.0,0.0144
1856.0,0.0144
1855.0,0.0144
1854.0,0.0145
1853.0,0.0145
1852.0,0.0145
1851.0,0.0145
1850.0,0.0144
1849.0,0.0144
1848.0,0.0144
1847.0,0.0144
1846.0,0.0144
1845.0,0.0143
1844.0,0.0143
1843.0,0.0144
1842.0,0.0145
1841.0,0.0145
1840.0,0.0146
1839.0,0.0146
1838.0,0.0145
1837.0,0.0145
1836.0,0.0145
1835.0,0.0145
1834.0,0.0145
1833.0,0.0144
1832.0,0.0144
1831.0,0.0144
1830.0,0.0144
1829.0,0.0144
1828.0,0.0145
1827.0,0.0145
1826.0,0.0144
1825.0,0.0144
1824.0,0.0144
1823.0,0.0144
1822.0,0.0145
1821.0,0.0145
1820.0,0.0145
1819.0,0.0145
1818.0,0.0144
1817.0,0.0144
1816.0,0.0144
1815.0,0.0143
1814.0,0.0143
1813.0,0.0143
1812.0,0.0143
1811.0,0.0143
1810.0,0.0143
1809.0,0.0143
1808.0,0.0143
1807.0,0.0143
1806.0,0.0143
1805.0,0.0143
1804.0,0.0142
1803.0,0.0142
1802.0,0.0142
1801.0,0.0143
1800.0,0.0143
1799.0,0.0143
1798.0,0.0143
1797.0,0.0143
1796.0,0.0143
1795.0,0.0143
1794.0,0.0143
1793.0,0.0143
1792.0,0.0144
1791.0,0.0144
1790.0,0.0145
1789.0,0.0145
1788.0,0.0145
1787.0,0.0145
1786.0,0.0145
1785.0,0.0146
1784.0,0.0146
1783.0,0.0145
1782.0,0.0145
1781.0,0.0144
1780.0,0.0144
1779.0,0.0144
1778.0,0.0144
1777.0,0.0143
1776.0,0.0143
1775.0,0.0143
1774.0,0.0143
1773.0,0.0143
1772.0,0.0144
1771.0,0.0145
1770.0,0.0146
1769.0,0.0147
1768.0,0.0147
1767.0,0.0147
1766.0,0.0147
1765.0,0.0147
1764.0,0.0148
1763.0,0.0149
1762.0,0.0149
1761.0,0.015
1760.0,0.015
1759.0,0.0151
1758.0,0.0152
1757.0,0.0153
1756.0,0.0154
1755.0,0.0155
1754.0,0.0156
1753.0,0.0157
1752.0,0.0159
1751.0,0.0161
1750.0,0.0162
1749.0,0.0163
1748.0,0.0164
1747.0,0.0165
1746.0,0.0165
1745.0,0.0166
1744.0,0.0167
1743.0,0.0168
1742.0,0.0169
1741.0,0.0168
1740.0,0.0167
1739.0,0.0166
1738.0,0.0166
1737.0,0.0166
1736.0,0.0167
1735.0,0.0166
1734.0,0.0164
1733.0,0.0162
1732.0,0.016
1731.0,0.016
1730.0,0.016
1729.0,0.016
1728.0,0.016
1727.0,0.016
1726.0,0.0159
1725.0,0.0159
1724.0,0.0159
1723.0,0.0159
1722.0,0.0159
1721.0,0.016
1720.0,0.016
1719.0,0.0159
1718.0,0.016
1717.0,0.0161
1716.0,0.0161
1715.0,0.0161
1714.0,0.0161
1713.0,0.0161
1712.0,0.0161
1711.0,0.016
1710.0,0.016
1709.0,0.016
1708.0,0.016
1707.0,0.016
1706.0,0.0161
1705.0,0.0161
1704.0,0.0162
1703.0,0.0163
1702.0,0.0164
1701.0,0.0165
1700.0,0.0165
1699.0,0.0164
1698.0,0.0165
1697.0,0.0167
1696.0,0.0168
1695.0,0.0167
1694.0,0.0167
1693.0,0.0168
1692.0,0.0168
1691.0,0.0167
1690.0,0.0167
1689.0,0.0168
1688.0,0.017
1687.0,0.017
1686.0,0.017
1685.0,0.0171
1684.0,0.0172
1683.0,0.0172
1682.0,0.0173
1681.0,0.0174
1680.0,0.0174
1679.0,0.0175
1678.0,0.0176
1677.0,0.0176
1676.0,0.0177
1675.0,0.0178
1674.0,0.0178
1673.0,0.0179
1672.0,0.0179
1671.0,0.018
1670.0,0.0181
1669.0,0.0181
1668.0,0.0182
1667.0,0.0182
1666.0,0.0182
1665.0,0.0182
1664.0,0.0182
1663.0,0.0182
1662.0,0.0182
1661.0,0.0182
1660.0,0.0183
1659.0,0.0183
1658.0,0.0183
1657.0,0.0183
1656.0,0.0183
1655.0,0.0183
1654.0,0.0184
1653.0,0.0184
1652.0,0.0182
1651.0,0.0181
1650.0,0.0182
1649.0,0.0181
1648.0,0.0182
1647.0,0.0184
1646.0,0.0184
1645.0,0.0183
1644.0,0.0183
1643.0,0.0182
1642.0,0.0182
1641.0,0.0181
1640.0,0.0181
1639.0,0.018
1638.0,0.0179
1637.0,0.0179
1636.0,0.0181
1635.0,0.0181
1634.0,0.018
1633.0,0.018
1632.0,0.018
1631.0,0.0179
1630.0,0.0177
1629.0,0.0176
1628.0,0.0176
1627.0,0.0175
1626.0,0.0175
1625.0,0.0174
1624.0,0.0174
1623.0,0.0174
1622.0,0.0174
1621.0,0.0173
1620.0,0.0173
1619.0,0.0172
1618.0,0.0172
1617.0,0.0171
1616.0,0.017
1615.0,0.017
1614.0,0.017
1613.0,0.017
1612.0,0.017
1611.0,0.0169
1610.0,0.0169
1609.0,0.0168
1608.0,0.0167
1607.0,0.0167
1606.0,0.0167
1605.0,0.0166
1604.0,0.0166
1603.0,0.0165
1602.0,0.0165
1601.0,0.0166
1600.0,0.0166
1599.0,0.0165
1598.0,0.0165
1597.0,0.0164
1596.0,0.0163
1595.0,0.0163
1594.0,0.0163
1593.0,0.0163
1592.0,0.0162
1591.0,0.0162
1590.0,0.0162
1589.0,0.0162
1588.0,0.0162
1587.0,0.0162
1586.0,0.0162
1585.0,0.0162
1584.0,0.0161
1583.0,0.0161
1582.0,0.016
1581.0,0.0159
1580.0,0.0159
1579.0,0.0159
1578.0,0.0159
1577.0,0.0159
1576.0,0.0159
1575.0,0.0158
1574.0,0.0158
1573.0,0.0159
1572.0,0.0159
1571.0,0.0158
1570.0,0.0158
1569.0,0.0157
1568.0,0.0157
1567.0,0.0157
1566.0,0.0157
1565.0,0.0156
1564.0,0.0156
1563.0,0.0156
1562.0,0.0157
1561.0,0.0156
1560.0,0.0156
1559.0,0.0158
1558.0,0.0156
1557.0,0.0155
1556.0,0.0156
1555.0,0.0157
1554.0,0.0157
1553.0,0.0156
1552.0,0.0156
1551.0,0.0156
1550.0,0.0156
1549.0,0.0156
1548.0,0.0156
1547.0,0.0156
1546.0,0.0156
1545.0,0.0155
1544.0,0.0155
1543.0,0.0154
1542.0,0.0154
1541.0,0.0155
1540.0,0.0156
1539.0,0.0154
1538.0,0.0152
1537.0,0.0151
1536.0,0.0151
1535.0,0.015
1534.0,0.0149
1533.0,0.0149
1532.0,0.0149
1531.0,0.0149
1530.0,0.0148
1529.0,0.0147
1528.0,0.0146
1527.0,0.0145
1526.0,0.0144
1525.0,0.0144
1524.0,0.0144
1523.0,0.0144
1522.0,0.0144
1521.0,0.0144
1520.0,0.0143
1519.0,0.0142
1518.0,0.0141
1517.0,0.014
1516.0,0.0141
1515.0,0.0141
1514.0,0.0141
1513.0,0.0141
1512.0,0.0141
1511.0,0.014
1510.0,0.0138
1509.0,0.0138
1508.0,0.0139
1507.0,0.0141
1506.0,0.0139
1505.0,0.0139
1504.0,0.0139
1503.0,0.0138
1502.0,0.0138
1501.0,0.0138
1500.0,0.0138
1499.0,0.0139
1498.0,0.0139
1497.0,0.0139
1496.0,0.014
1495.0,0.014
1494.0,0.0139
1493.0,0.014
1492.0,0.014
1491.0,0.0139
1490.0,0.0139
1489.0,0.0141
1488.0,0.0143
1487.0,0.0144
1486.0,0.0146
1485.0,0.0148
1484.0,0.0152
1483.0,0.0155
1482.0,0.0159
1481.0,0.0164
1480.0,0.0171
1479.0,0.0176
1478.0,0.0184
1477.0,0.0194
1476.0,0.0208
1475.0,0.0224
1474.0,0.025
1473.0,0.0294
1472.0,0.0347
1471.0,0.0393
1470.0,0.0434
1469.0,0.0479
1468.0,0.0529
1467.0,0.0585
1466.0,0.0656
1465.0,0.0738
1464.0,0.081
1463.0,0.0856
1462.0,0.0885
1461.0,0.0905
1460.0,0.092
1459.0,0.0932
1458.0,0.0948
1457.0,0.0969
1456.0,0.0979
1455.0,0.0978
1454.0,0.0974
1453.0,0.0967
1452.0,0.0954
1451.0,0.0933
1450.0,0.0903
1449.0,0.0859
1448.0,0.08
1447.0,0.0736
1446.0,0.0681
1445.0,0.0633
1444.0,0.0589
1443.0,0.0552
1442.0,0.0523
1441.0,0.0503
1440.0,0.049
1439.0,0.0485
1438.0,0.0488
1437.0,0.0496
1436.0,0.0496
1435.0,0.0482
1434.0,0.0457
1433.0,0.0425
1432.0,0.039
1431.0,0.0357
1430.0,0.033
1429.0,0.0311
1428.0,0.0297
1427.0,0.0287
1426.0,0.028
1425.0,0.0273
1424.0,0.0266
1423.0,0.0261
1422.0,0.0258
1421.0,0.0253
1420.0,0.0248
1419.0,0.0244
1418.0,0.0242
1417.0,0.0239
1416.0,0.0236
1415.0,0.0234
1414.0,0.0232
1413.0,0.0229
1412.0,0.0226
1411.0,0.0224
1410.0,0.0222
1409.0,0.022
1408.0,0.0217
1407.0,0.0214
1406.0,0.0212
1405.0,0.021
1404.0,0.0208
1403.0,0.0207
1402.0,0.0206
1401.0,0.0203
1400.0,0.02
1399.0,0.0199
1398.0,0.0198
1397.0,0.0196
1396.0,0.0195
1395.0,0.0195
1394.0,0.0196
1393.0,0.0195
1392.0,0.0195
1391.0,0.0196
1390.0,0.0199
1389.0,0.0204
1388.0,0.0213
1387.0,0.0232
1386.0,0.0261
1385.0,0.0301
1384.0,0.0359
1383.0,0.0444
1382.0,0.0559
1381.0,0.0707
1380.0,0.0892
1379.0,0.1104
1378.0,0.1308
1377.0,0.1462
1376.0,0.153
1375.0,0.1487
1374.0,0.1345
1373.0,0.1171
1372.0,0.1011
1371.0,0.0874
1370.0,0.0755
1369.0,0.0657
1368.0,0.0586
1367.0,0.0539
1366.0,0.0511
1365.0,0.0496
1364.0,0.0493
1363.0,0.0502
1362.0,0.0519
1361.0,0.0538
1360.0,0.0553
1359.0,0.0559
1358.0,0.0552
1357.0,0.0535
1356.0,0.0508
1355.0,0.0477
1354.0,0.0447
1353.0,0.042
1352.0,0.0397
1351.0,0.0378
1350.0,0.0362
1349.0,0.0348
1348.0,0.0337
1347.0,0.0327
1346.0,0.0318
1345.0,0.0311
1344.0,0.0304
1343.0,0.0298
1342.0,0.0292
1341.0,0.0287
1340.0,0.0283
1339.0,0.0281
1338.0,0.0279
1337.0,0.0279
1336.0,0.0279
1335.0,0.0279
1334.0,0.0281
1333.0,0.0284
1332.0,0.0287
1331.0,0.029
1330.0,0.0291
1329.0,0.029
1328.0,0.0287
1327.0,0.0283
1326.0,0.0278
1325.0,0.0274
1324.0,0.0269
1323.0,0.0264
1322.0,0.026
1321.0,0.0257
1320.0,0.0254
1319.0,0.0252
1318.0,0.025
1317.0,0.0247
1316.0,0.0246
1315.0,0.0244
1314.0,0.0243
1313.0,0.0242
1312.0,0.0241
1311.0,0.0241
1310.0,0.0242
1309.0,0.0245
1308.0,0.025
1307.0,0.0256
1306.0,0.0263
1305.0,0.0268
1304.0,0.027
1303.0,0.027
1302.0,0.0268
1301.0,0.0267
1300.0,0.0268
1299.0,0.0269
1298.0,0.027
1297.0,0.0272
1296.0,0.0272
1295.0,0.0271
1294.0,0.0268
1293.0,0.0265
1292.0,0.0261
1291.0,0.0257
1290.0,0.0253
1289.0,0.025
1288.0,0.0247
1287.0,0.0245
1286.0,0.0243
1285.0,0.0241
1284.0,0.024
1283.0,0.0238
1282.0,0.0237
1281.0,0.0236
1280.0,0.0235
1279.0,0.0234
1278.0,0.0233
1277.0,0.0232
1276.0,0.0231
1275.0,0.0231
1274.0,0.0231
1273.0,0.0231
1272.0,0.0231
1271.0,0.0231
1270.0,0.0232
1269.0,0.0232
1268.0,0.0233
1267.0,0.0234
1266.0,0.0235
1265.0,0.0236
1264.0,0.0237
1263.0,0.0238
1262.0,0.024
1261.0,0.0243
1260.0,0.0247
1259.0,0.0251
1258.0,0.0256
1257.0,0.026
1256.0,0.0262
1255.0,0.0262
1254.0,0.0259
1253.0,0.0255
1252.0,0.025
1251.0,0.0246
1250.0,0.0242
1249.0,0.024
1248.0,0.0238
1247.0,0.0237
1246.0,0.0235
1245.0,0.0234
1244.0,0.0233
1243.0,0.0232
1242.0,0.0232
1241.0,0.0231
1240.0,0.0231
1239.0,0.023
1238.0,0.0229
1237.0,0.0228
1236.0,0.0228
1235.0,0.0228
1234.0,0.0228
1233.0,0.0228
1232.0,0.0228
1231.0,0.0228
1230.0,0.0229
1229.0,0.0229
1228.0,0.0229
1227.0,0.023
1226.0,0.0232
1225.0,0.0234
1224.0,0.0237
1223.0,0.024
1222.0,0.0243
1221.0,0.0246
1220.0,0.0247
1219.0,0.0248
1218.0,0.0248
1217.0,0.0247
1216.0,0.0245
1215.0,0.0243
1214.0,0.024
1213.0,0.0239
1212.0,0.0237
1211.0,0.0236
1210.0,0.0235
1209.0,0.0235
1208.0,0.0234
1207.0,0.0234
1206.0,0.0234
1205.0,0.0234
1204.0,0.0233
1203.0,0.0233
1202.0,0.0233
1201.0,0.0234
1200.0,0.0234
1199.0,0.0235
1198.0,0.0235
1197.0,0.0235
1196.0,0.0236
1195.0,0.0237
1194.0,0.0237
1193.0,0.0236
1192.0,0.0236
1191.0,0.0236
1190.0,0.0236
1189.0,0.0236
1188.0,0.0237
1187.0,0.0237
1186.0,0.0238
1185.0,0.0239
1184.0,0.024
1183.0,0.0241
1182.0,0.0242
1181.0,0.0244
1180.0,0.0246
1179.0,0.025
1178.0,0.0254
1177.0,0.026
1176.0,0.0267
1175.0,0.0277
1174.0,0.029
1173.0,0.0306
1172.0,0.0324
1171.0,0.0345
1170.0,0.0365
1169.0,0.0381
1168.0,0.039
1167.0,0.0394
1166.0,0.0391
1165.0,0.0386
1164.0,0.0379
1163.0,0.0372
1162.0,0.0366
1161.0,0.0361
1160.0,0.0358
1159.0,0.0355
1158.0,0.0354
1157.0,0.0354
1156.0,0.0354
1155.0,0.0354
1154.0,0.0354
1153.0,0.0354
1152.0,0.0353
1151.0,0.035
1150.0,0.0344
1149.0,0.0337
1148.0,0.033
1147.0,0.0322
1146.0,0.0314
1145.0,0.0307
1144.0,0.03
1143.0,0.0295
1142.0,0.029
1141.0,0.0285
1140.0,0.0281
1139.0,0.0277
1138.0,0.0275
1137.0,0.0272
1136.0,0.027
1135.0,0.0268
1134.0,0.0266
1133.0,0.0265
1132.0,0.0263
1131.0,0.0262
1130.0,0.0261
1129.0,0.0261
1128.0,0.0261
1127.0,0.026
1126.0,0.026
1125.0,0.0259
1124.0,0.0259
1123.0,0.026
1122.0,0.0261
1121.0,0.0261
1120.0,0.0262
1119.0,0.0262
1118.0,0.0263
1117.0,0.0263
1116.0,0.0263
1115.0,0.0263
1114.0,0.0264
1113.0,0.0265
1112.0,0.0267
1111.0,0.0269
1110.0,0.0272
1109.0,0.0276
1108.0,0.028
1107.0,0.0285
1106.0,0.0291
1105.0,0.0297
1104.0,0.0302
1103.0,0.0306
1102.0,0.0307
1101.0,0.0305
1100.0,0.0302
1099.0,0.0297
1098.0,0.0292
1097.0,0.0287
1096.0,0.0283
1095.0,0.028
1094.0,0.0277
1093.0,0.0274
1092.0,0.0273
1091.0,0.0271
1090.0,0.0269
1089.0,0.0267
1088.0,0.0265
1087.0,0.0264
1086.0,0.0263
1085.0,0.0262
1084.0,0.0262
1083.0,0.0262
1082.0,0.0262
1081.0,0.0261
1080.0,0.0261
1079.0,0.0261
1078.0,0.0261
1077.0,0.0261
1076.0,0.026
1075.0,0.0258
1074.0,0.0257
1073.0,0.0256
1072.0,0.0256
1071.0,0.0256
1070.0,0.0256
1069.0,0.0256
1068.0,0.0256
1067.0,0.0257
1066.0,0.0257
1065.0,0.0257
1064.0,0.0257
1063.0,0.0257
1062.0,0.0256
1061.0,0.0255
1060.0,0.0255
1059.0,0.0255
1058.0,0.0255
1057.0,0.0255
1056.0,0.0255
1055.0,0.0255
1054.0,0.0254
1053.0,0.0254
1052.0,0.0254
1051.0,0.0254
1050.0,0.0255
1049.0,0.0257
1048.0,0.0258
1047.0,0.026
1046.0,0.026
1045.0,0.026
1044.0,0.0259
1043.0,0.0257
1042.0,0.0254
1041.0,0.0252
1040.0,0.025
1039.0,0.0248
1038.0,0.0247
1037.0,0.0246
1036.0,0.0245
1035.0,0.0244
1034.0,0.0243
1033.0,0.0242
1032.0,0.0241
1031.0,0.024
1030.0,0.0239
1029.0,0.0238
1028.0,0.0237
1027.0,0.0236
1026.0,0.0235
1025.0,0.0234
1024.0,0.0233
1023.0,0.0233
1022.0,0.0233
1021.0,0.0233
1020.0,0.0233
1019.0,0.0233
1018.0,0.0232
1017.0,0.0232
1016.0,0.0232
1015.0,0.0232
1014.0,0.0233
1013.0,0.0234
1012.0,0.0235
1011.0,0.0237
1010.0,0.0238
1009.0,0.024
1008.0,0.0243
1007.0,0.0248
1006.0,0.0253
1005.0,0.026
1004.0,0.027
1003.0,0.0284
1002.0,0.0303
1001.0,0.0327
1000.0,0.0353
999.0,0.0375
998.0,0.0387
997.0,0.0385
996.0,0.037
995.0,0.0348
994.0,0.0325
993.0,0.0304
992.0,0.0286
991.0,0.0272
990.0,0.0262
989.0,0.0255
988.0,0.0251
987.0,0.0248
986.0,0.0246
985.0,0.0246
984.0,0.0247
983.0,0.025
982.0,0.0257
981.0,0.0269
980.0,0.0286
979.0,0.0309
978.0,0.0338
977.0,0.0372
976.0,0.0407
975.0,0.0439
974.0,0.046
973.0,0.0466
972.0,0.0455
971.0,0.043
970.0,0.0398
969.0,0.0366
968.0,0.0339
967.0,0.0319
966.0,0.0303
965.0,0.0292
964.0,0.0283
963.0,0.0275
962.0,0.0268
961.0,0.0263
960.0,0.0258
959.0,0.0255
958.0,0.0252
957.0,0.0249
956.0,0.0246
955.0,0.0244
954.0,0.0242
953.0,0.024
952.0,0.0239
951.0,0.0238
950.0,0.0236
949.0,0.0235
948.0,0.0235
947.0,0.0236
946.0,0.0237
945.0,0.0239
944.0,0.0241
943.0,0.0245
942.0,0.0248
941.0,0.0251
940.0,0.0252
939.0,0.025
938.0,0.0247
937.0,0.0242
936.0,0.0237
935.0,0.0233
934.0,0.023
933.0,0.0227
932.0,0.0225
931.0,0.0223
930.0,0.0222
929.0,0.0221
928.0,0.022
927.0,0.022
926.0,0.022
925.0,0.022
924.0,0.022
923.0,0.022
922.0,0.022
921.0,0.022
920.0,0.0219
919.0,0.0219
918.0,0.0219
917.0,0.0219
916.0,0.022
915.0,0.022
914.0,0.022
913.0,0.022
912.0,0.0221
911.0,0.0222
910.0,0.0223
909.0,0.0224
908.0,0.0226
907.0,0.0229
906.0,0.0235
905.0,0.0244
904.0,0.0257
903.0,0.0273
902.0,0.0293
901.0,0.0313
900.0,0.0327
899.0,0.0334
898.0,0.033
897.0,0.0319
896.0,0.0304
895.0,0.0288
894.0,0.0275
893.0,0.0264
892.0,0.0258
891.0,0.0253
890.0,0.0248
889.0,0.0245
888.0,0.0242
887.0,0.024
886.0,0.0239
885.0,0.0238
884.0,0.0237
883.0,0.0236
882.0,0.0235
881.0,0.0234
880.0,0.0233
879.0,0.0232
878.0,0.0232
877.0,0.0233
876.0,0.0235
875.0,0.0236
874.0,0.0236
873.0,0.0236
872.0,0.0235
871.0,0.0234
870.0,0.0234
869.0,0.0234
868.0,0.0233
867.0,0.0233
866.0,0.0234
865.0,0.0234
864.0,0.0234
863.0,0.0234
862.0,0.0233
861.0,0.0233
860.0,0.0234
859.0,0.0235
858.0,0.0237
857.0,0.0239
856.0,0.0241
855.0,0.0243
854.0,0.0244
853.0,0.0245
852.0,0.0245
851.0,0.0247
850.0,0.0249
849.0,0.0252
848.0,0.0257
847.0,0.0264
846.0,0.0276
845.0,0.0295
844.0,0.0323
843.0,0.0354
842.0,0.0379
841.0,0.0386
840.0,0.0372
839.0,0.0346
838.0,0.0319
837.0,0.0298
836.0,0.0284
835.0,0.0275
834.0,0.0269
833.0,0.0263
832.0,0.0259
831.0,0.0256
830.0,0.0254
829.0,0.0252
828.0,0.0251
827.0,0.025
826.0,0.0249
825.0,0.0247
824.0,0.0246
823.0,0.0245
822.0,0.0245
821.0,0.0246
820.0,0.0248
819.0,0.0248
818.0,0.025
817.0,0.0254
816.0,0.026
815.0,0.0271
814.0,0.0285
813.0,0.0301
812.0,0.0319
811.0,0.0337
810.0,0.0352
809.0,0.0362
808.0,0.0364
807.0,0.0358
806.0,0.0346
805.0,0.033
804.0,0.0314
803.0,0.0301
802.0,0.029
801.0,0.0283
800.0,0.0278
799.0,0.0274
798.0,0.0271
797.0,0.0267
796.0,0.0264
795.0,0.0261
794.0,0.0258
793.0,0.0255
792.0,0.0253
791.0,0.025
790.0,0.0248
789.0,0.0246
788.0,0.0245
787.0,0.0244
786.0,0.0242
785.0,0.0241
784.0,0.0239
783.0,0.0237
782.0,0.0234
781.0,0.0232
780.0,0.023
779.0,0.0229
778.0,0.0228
777.0,0.0228
776.0,0.0227
775.0,0.0227
774.0,0.0227
773.0,0.0226
772.0,0.0225
771.0,0.0225
770.0,0.0225
769.0,0.0226
768.0,0.0227
767.0,0.0227
766.0,0.0227
765.0,0.0227
764.0,0.0227
763.0,0.0225
762.0,0.0224
761.0,0.0224
760.0,0.0224
759.0,0.0224
758.0,0.0225
757.0,0.0227
756.0,0.0228
755.0,0.0228
754.0,0.0226
753.0,0.0223
752.0,0.022
751.0,0.0221
750.0,0.0223
749.0,0.0225
748.0,0.0226
747.0,0.0225
746.0,0.0225
745.0,0.0224
744.0,0.0224
743.0,0.0224
742.0,0.0224
741.0,0.0224
740.0,0.0225
739.0,0.0225
738.0,0.0224
737.0,0.0223
736.0,0.0222
735.0,0.0221
734.0,0.022
733.0,0.022
732.0,0.022
731.0,0.0222
730.0,0.0223
729.0,0.0223
728.0,0.0222
727.0,0.0221
726.0,0.0221
725.0,0.0222
724.0,0.0225
723.0,0.0225
722.0,0.0223
721.0,0.0219
720.0,0.0217
719.0,0.022
718.0,0.0224
717.0,0.0227
716.0,0.0227
715.0,0.0225
714.0,0.0223
713.0,0.0222
712.0,0.0222
711.0,0.0223
710.0,0.0225
709.0,0.0226
708.0,0.0227
707.0,0.0227
706.0,0.0227
705.0,0.0227
704.0,0.0226
703.0,0.0225
702.0,0.0225
701.0,0.0222
700.0,0.0218
699.0,0.0214
698.0,0.0212
697.0,0.0212
696.0,0.0215
695.0,0.022
694.0,0.0224
693.0,0.0225
692.0,0.0219
691.0,0.0208
690.0,0.0194
689.0,0.0181
688.0,0.017
687.0,0.0164
686.0,0.0164
685.0,0.0171
684.0,0.0179
683.0,0.0208
682.0,0.022
681.0,0.0223
680.0,0.0227
679.0,0.023
678.0,0.0235
677.0,0.0238
676.0,0.0238
675.0,0.0235
674.0,0.0231
673.0,0.0226
672.0,0.0221
671.0,0.0217
670.0,0.0216
669.0,0.022
668.0,0.0226
667.0,0.0225
666.0,0.0223
665.0,0.0224
664.0,0.0228
663.0,0.0233
662.0,0.0235
661.0,0.0233
660.0,0.0228
659.0,0.0225
658.0,0.0226
657.0,0.0226
656.0,0.0224
655.0,0.0223
654.0,0.0207
653.0,0.0207
652.0,0.0209
651.0,0.0203
650.0,0.0194
649.0,0.0187
648.0,0.0188
647.0,0.0194
646.0,0.0201
645.0,0.0208
644.0,0.0213
643.0,0.0218
642.0,0.022
641.0,0.0221
640.0,0.022
639.0,0.0222
638.0,0.0228
637.0,0.0236
636.0,0.0244
635.0,0.025
634.0,0.0253
633.0,0.0253
632.0,0.025
631.0,0.0244
630.0,0.0238
629.0,0.0235
628.0,0.0234
627.0,0.0234
626.0,0.0235
625.0,0.0236
624.0,0.0236
623.0,0.0235
622.0,0.0234
621.0,0.0233
620.0,0.0232
619.0,0.023
618.0,0.0232
617.0,0.0237
616.0,0.0242
615.0,0.0244
614.0,0.0246
613.0,0.0249
612.0,0.0252
611.0,0.0252
610.0,0.0249
609.0,0.0249
608.0,0.0251
607.0,0.0253
606.0,0.0254
605.0,0.0256
604.0,0.0261
603.0,0.0268
602.0,0.0277
601.0,0.0284
600.0,0.0283
