cm-1,A
4000.0,0.0009
3999.0,0.0008
3998.0,0.0008
3997.0,0.0007
3996.0,0.0007
3995.0,0.0007
3994.0,0.0008
3993.0,0.0008
3992.0,0.0008
3991.0,0.0008
3990.0,0.0008
3989.0,0.0008
3988.0,0.0008
3987.0,0.0008
3986.0,0.0008
3985.0,0.0008
3984.0,0.0008
3983.0,0.0008
3982.0,0.0008
3981.0,0.0007
3980.0,0.0008
3979.0,0.0008
3978.0,0.0009
3977.0,0.0009
3976.0,0.0009
3975.0,0.0008
3974.0,0.0007
3973.0,0.0006
3972.0,0.0006
3971.0,0.0006
3970.0,0.0006
3969.0,0.0006
3968.0,0.0006
3967.0,0.0006
3966.0,0.0007
3965.0,0.0007
3964.0,0.0007
3963.0,0.0008
3962.0,0.0008
3961.0,0.0007
3960.0,0.0008
3959.0,0.0008
3958.0,0.0008
3957.0,0.0008
3956.0,0.0008
3955.0,0.0007
3954.0,0.0007
3953.0,0.0006
3952.0,0.0007
3951.0,0.0007
3950.0,0.0006
3949.0,0.0007
3948.0,0.0007
3947.0,0.0007
3946.0,0.0007
3945.0,0.0007
3944.0,0.0007
3943.0,0.0007
3942.0,0.0007
3941.0,0.0006
3940.0,0.0006
3939.0,0.0005
3938.0,0.0005
3937.0,0.0005
3936.0,0.0005
3935.0,0.0006
3934.0,0.0006
3933.0,0.0006
3932.0,0.0007
3931.0,0.0007
3930.0,0.0008
3929.0,0.0008
3928.0,0.0008
3927.0,0.0007
3926.0,0.0007
3925.0,0.0007
3924.0,0.0007
3923.0,0.0007
3922.0,0.0007
3921.0,0.0007
3920.0,0.0007
3919.0,0.0007
3918.0,0.0008
3917.0,0.0008
3916.0,0.0008
3915.0,0.0007
3914.0,0.0006
3913.0,0.0005
3912.0,0.0005
3911.0,0.0005
3910.0,0.0005
3909.0,0.0006
3908.0,0.0006
3907.0,0.0006
3906.0,0.0006
3905.0,0.0006
3904.0,0.0006
3903.0,0.0006
3902.0,0.0006
3901.0,0.0005
3900.0,0.0006
3899.0,0.0007
3898.0,0.0008
3897.0,0.0008
3896.0,0.0008
3895.0,0.0007
3894.0,0.0006
3893.0,0.0005
3892.0,0.0005
3891.0,0.0007
3890.0,0.0008
3889.0,0.0008
3888.0,0.0008
3887.0,0.0008
3886.0,0.0009
3885.0,0.0008
3884.0,0.0007
3883.0,0.0004
3882.0,0.0003
3881.0,0.0003
3880.0,0.0005
3879.0,0.0007
3878.0,0.0007
3877.0,0.0007
3876.0,0.0007
3875.0,0.0008
3874.0,0.0008
3873.0,0.0007
3872.0,0.0006
3871.0,0.0006
3870.0,0.0006
3869.0,0.0006
3868.0,0.0006
3867.0,0.0005
3866.0,0.0004
3865.0,0.0004
3864.0,0.0004
3863.0,0.0005
3862.0,0.0006
3861.0,0.0007
3860.0,0.0009
3859.0,0.001
3858.0,0.001
3857.0,0.001
3856.0,0.0009
3855.0,0.0008
3854.0,0.0008
3853.0,0.0009
3852.0,0.0009
3851.0,0.0008
3850.0,0.0008
3849.0,0.0008
3848.0,0.0008
3847.0,0.0008
3846.0,0.0008
3845.0,0.0008
3844.0,0.0007
3843.0,0.0007
3842.0,0.0007
3841.0,0.0006
3840.0,0.0006
3839.0,0.0007
3838.0,0.0007
3837.0,0.0007
3836.0,0.0007
3835.0,0.0007
3834.0,0.0007
3833.0,0.0007
3832.0,0.0008
3831.0,0.0008
3830.0,0.0007
3829.0,0.0007
3828.0,0.0006
3827.0,0.0006
3826.0,0.0006
3825.0,0.0007
3824.0,0.0006
3823.0,0.0006
3822.0,0.0007
3821.0,0.0007
3820.0,0.0008
3819.0,0.0008
3818.0,0.0008
3817.0,0.0008
3816.0,0.0009
3815.0,0.0009
3814.0,0.0008
3813.0,0.0007
3812.0,0.0007
3811.0,0.0007
3810.0,0.0007
3809.0,0.0007
3808.0,0.0008
3807.0,0.0008
3806.0,0.0009
3805.0,0.0008
3804.0,0.0006
3803.0,0.0005
3802.0,0.0005
3801.0,0.0005
3800.0,0.0005
3799.0,0.0004
3798.0,0.0004
3797.0,0.0005
3796.0,0.0006
3795.0,0.0006
3794.0,0.0006
3793.0,0.0005
3792.0,0.0005
3791.0,0.0006
3790.0,0.0006
3789.0,0.0006
3788.0,0.0005
3787.0,0.0005
3786.0,0.0005
3785.0,0.0005
3784.0,0.0005
3783.0,0.0004
3782.0,0.0004
3781.0,0.0004
3780.0,0.0005
3779.0,0.0006
3778.0,0.0007
3777.0,0.0007
3776.0,0.0006
3775.0,0.0006
3774.0,0.0005
3773.0,0.0004
3772.0,0.0003
3771.0,0.0003
3770.0,0.0004
3769.0,0.0005
3768.0,0.0006
3767.0,0.0006
3766.0,0.0006
3765.0,0.0005
3764.0,0.0005
3763.0,0.0004
3762.0,0.0004
3761.0,0.0004
3760.0,0.0006
3759.0,0.0007
3758.0,0.0007
3757.0,0.0008
3756.0,0.0008
3755.0,0.0008
3754.0,0.0008
3753.0,0.0007
3752.0,0.0006
3751.0,0.0006
3750.0,0.0006
3749.0,0.0006
3748.0,0.0006
3747.0,0.0006
3746.0,0.0006
3745.0,0.0008
3744.0,0.001
3743.0,0.001
3742.0,0.001
3741.0,0.0009
3740.0,0.0009
3739.0,0.0008
3738.0,0.0007
3737.0,0.0006
3736.0,0.0006
3735.0,0.0005
3734.0,0.0005
3733.0,0.0005
3732.0,0.0005
3731.0,0.0004
3730.0,0.0004
3729.0,0.0003
3728.0,0.0004
3727.0,0.0005
3726.0,0.0006
3725.0,0.0006
3724.0,0.0005
3723.0,0.0004
3722.0,0.0004
3721.0,0.0004
3720.0,0.0005
3719.0,0.0005
3718.0,0.0006
3717.0,0.0007
3716.0,0.0007
3715.0,0.0007
3714.0,0.0005
3713.0,0.0003
3712.0,0.0002
3711.0,0.0001
3710.0,0.0001
3709.0,0.0002
3708.0,0.0003
3707.0,0.0003
3706.0,0.0004
3705.0,0.0004
3704.0,0.0003
3703.0,0.0003
3702.0,0.0002
3701.0,0.0002
3700.0,0.0002
3699.0,0.0002
3698.0,0.0001
3697.0,0.0002
3696.0,0.0003
3695.0,0.0004
3694.0,0.0005
3693.0,0.0006
3692.0,0.0006
3691.0,0.0007
3690.0,0.0007
3689.0,0.0007
3688.0,0.0007
3687.0,0.0007
3686.0,0.0006
3685.0,0.0006
3684.0,0.0006
3683.0,0.0006
3682.0,0.0006
3681.0,0.0007
3680.0,0.0007
3679.0,0.0007
3678.0,0.0007
3677.0,0.0008
3676.0,0.0009
3675.0,0.001
3674.0,0.0009
3673.0,0.0007
3672.0,0.0005
3671.0,0.0003
3670.0,0.0004
3669.0,0.0005
3668.0,0.0005
3667.0,0.0006
3666.0,0.0005
3665.0,0.0005
3664.0,0.0004
3663.0,0.0004
3662.0,0.0005
3661.0,0.0005
3660.0,0.0005
3659.0,0.0004
3658.0,0.0004
3657.0,0.0004
3656.0,0.0005
3655.0,0.0006
3654.0,0.0007
3653.0,0.0008
3652.0,0.0008
3651.0,0.0009
3650.0,0.0008
3649.0,0.0008
3648.0,0.0007
3647.0,0.0006
3646.0,0.0005
3645.0,0.0004
3644.0,0.0004
3643.0,0.0004
3642.0,0.0004
3641.0,0.0005
3640.0,0.0006
3639.0,0.0006
3638.0,0.0006
3637.0,0.0006
3636.0,0.0006
3635.0,0.0007
3634.0,0.0008
3633.0,0.0008
3632.0,0.0008
3631.0,0.0008
3630.0,0.0008
3629.0,0.0007
3628.0,0.0005
3627.0,0.0003
3626.0,0.0002
3625.0,0.0002
3624.0,0.0003
3623.0,0.0003
3622.0,0.0004
3621.0,0.0004
3620.0,0.0005
3619.0,0.0005
3618.0,0.0006
3617.0,0.0005
3616.0,0.0005
3615.0,0.0006
3614.0,0.0006
3613.0,0.0008
3612.0,0.0008
3611.0,0.0008
3610.0,0.0007
3609.0,0.0005
3608.0,0.0004
3607.0,0.0005
3606.0,0.0005
3605.0,0.0005
3604.0,0.0005
3603.0,0.0004
3602.0,0.0003
3601.0,0.0003
3600.0,0.0003
3599.0,0.0004
3598.0,0.0005
3597.0,0.0006
3596.0,0.0007
3595.0,0.0007
3594.0,0.0006
3593.0,0.0006
3592.0,0.0005
3591.0,0.0005
3590.0,0.0006
3589.0,0.0007
3588.0,0.0008
3587.0,0.0009
3586.0,0.0009
3585.0,0.0008
3584.0,0.0008
3583.0,0.0007
3582.0,0.0007
3581.0,0.0007
3580.0,0.0008
3579.0,0.0009
3578.0,0.0009
3577.0,0.0009
3576.0,0.0008
3575.0,0.0007
3574.0,0.0007
3573.0,0.0007
3572.0,0.0008
3571.0,0.0009
3570.0,0.001
3569.0,0.0009
3568.0,0.0008
3567.0,0.0007
3566.0,0.0006
3565.0,0.0005
3564.0,0.0005
3563.0,0.0006
3562.0,0.0007
3561.0,0.0008
3560.0,0.0009
3559.0,0.0008
3558.0,0.0007
3557.0,0.0006
3556.0,0.0005
3555.0,0.0005
3554.0,0.0005
3553.0,0.0006
3552.0,0.0006
3551.0,0.0007
3550.0,0.0006
3549.0,0.0005
3548.0,0.0005
3547.0,0.0005
3546.0,0.0006
3545.0,0.0008
3544.0,0.0008
3543.0,0.0008
3542.0,0.0008
3541.0,0.0007
3540.0,0.0007
3539.0,0.0008
3538.0,0.0009
3537.0,0.0009
3536.0,0.0009
3535.0,0.0008
3534.0,0.0007
3533.0,0.0007
3532.0,0.0007
3531.0,0.0008
3530.0,0.0008
3529.0,0.0008
3528.0,0.0008
3527.0,0.0007
3526.0,0.0007
3525.0,0.0007
3524.0,0.0008
3523.0,0.0008
3522.0,0.0008
3521.0,0.0008
3520.0,0.0007
3519.0,0.0006
3518.0,0.0006
3517.0,0.0006
3516.0,0.0007
3515.0,0.0007
3514.0,0.0007
3513.0,0.0007
3512.0,0.0005
3511.0,0.0004
3510.0,0.0004
3509.0,0.0004
3508.0,0.0005
3507.0,0.0006
3506.0,0.0007
3505.0,0.0007
3504.0,0.0007
3503.0,0.0007
3502.0,0.0006
3501.0,0.0006
3500.0,0.0005
3499.0,0.0005
3498.0,0.0006
3497.0,0.0007
3496.0,0.0007
3495.0,0.0007
3494.0,0.0007
3493.0,0.0007
3492.0,0.0008
3491.0,0.0009
3490.0,0.0009
3489.0,0.0009
3488.0,0.0008
3487.0,0.0008
3486.0,0.0007
3485.0,0.0006
3484.0,0.0005
3483.0,0.0005
3482.0,0.0006
3481.0,0.0006
3480.0,0.0006
3479.0,0.0006
3478.0,0.0006
3477.0,0.0006
3476.0,0.0006
3475.0,0.0007
3474.0,0.0007
3473.0,0.0007
3472.0,0.0007
3471.0,0.0007
3470.0,0.0007
3469.0,0.0007
3468.0,0.0008
3467.0,0.0009
3466.0,0.0009
3465.0,0.0008
3464.0,0.0007
3463.0,0.0006
3462.0,0.0006
3461.0,0.0005
3460.0,0.0005
3459.0,0.0005
3458.0,0.0005
3457.0,0.0006
3456.0,0.0007
3455.0,0.0007
3454.0,0.0008
3453.0,0.0008
3452.0,0.0008
3451.0,0.0007
3450.0,0.0008
3449.0,0.0008
3448.0,0.0008
3447.0,0.0009
3446.0,0.0009
3445.0,0.0008
3444.0,0.0008
3443.0,0.0008
3442.0,0.0008
3441.0,0.0008
3440.0,0.0009
3439.0,0.0008
3438.0,0.0008
3437.0,0.0007
3436.0,0.0007
3435.0,0.0007
3434.0,0.0007
3433.0,0.0007
3432.0,0.0007
3431.0,0.0007
3430.0,0.0007
3429.0,0.0006
3428.0,0.0006
3427.0,0.0006
3426.0,0.0007
3425.0,0.0007
3424.0,0.0008
3423.0,0.0009
3422.0,0.0009
3421.0,0.0008
3420.0,0.0008
3419.0,0.0008
3418.0,0.0008
3417.0,0.0008
3416.0,0.0009
3415.0,0.0009
3414.0,0.001
3413.0,0.001
3412.0,0.001
3411.0,0.0009
3410.0,0.0008
3409.0,0.0008
3408.0,0.0008
3407.0,0.0008
3406.0,0.0007
3405.0,0.0006
3404.0,0.0005
3403.0,0.0005
3402.0,0.0005
3401.0,0.0005
3400.0,0.0006
3399.0,0.0006
3398.0,0.0007
3397.0,0.0007
3396.0,0.0007
3395.0,0.0007
3394.0,0.0007
3393.0,0.0007
3392.0,0.0007
3391.0,0.0007
3390.0,0.0007
3389.0,0.0006
3388.0,0.0006
3387.0,0.0006
3386.0,0.0006
3385.0,0.0006
3384.0,0.0007
3383.0,0.0007
3382.0,0.0007
3381.0,0.0008
3380.0,0.0008
3379.0,0.0007
3378.0,0.0006
3377.0,0.0005
3376.0,0.0004
3375.0,0.0003
3374.0,0.0004
3373.0,0.0004
3372.0,0.0005
3371.0,0.0006
3370.0,0.0007
3369.0,0.0007
3368.0,0.0007
3367.0,0.0007
3366.0,0.0007
3365.0,0.0007
3364.0,0.0007
3363.0,0.0007
3362.0,0.0008
3361.0,0.0008
3360.0,0.0008
3359.0,0.0008
3358.0,0.0007
3357.0,0.0006
3356.0,0.0006
3355.0,0.0006
3354.0,0.0006
3353.0,0.0007
3352.0,0.0007
3351.0,0.0007
3350.0,0.0006
3349.0,0.0006
3348.0,0.0006
3347.0,0.0007
3346.0,0.0007
3345.0,0.0008
3344.0,0.0008
3343.0,0.0008
3342.0,0.0007
3341.0,0.0006
3340.0,0.0006
3339.0,0.0006
3338.0,0.0007
3337.0,0.0008
3336.0,0.0008
3335.0,0.0009
3334.0,0.0009
3333.0,0.0009
3332.0,0.0009
3331.0,0.0008
3330.0,0.0007
3329.0,0.0006
3328.0,0.0006
3327.0,0.0006
3326.0,0.0007
3325.0,0.0007
3324.0,0.0007
3323.0,0.0007
3322.0,0.0006
3321.0,0.0006
3320.0,0.0006
3319.0,0.0006
3318.0,0.0007
3317.0,0.0007
3316.0,0.0007
3315.0,0.0007
3314.0,0.0007
3313.0,0.0006
3312.0,0.0006
3311.0,0.0007
3310.0,0.0007
3309.0,0.0007
3308.0,0.0008
3307.0,0.0008
3306.0,0.0009
3305.0,0.0009
3304.0,0.0009
3303.0,0.0008
3302.0,0.0008
3301.0,0.0008
3300.0,0.0008
3299.0,0.0008
3298.0,0.0009
3297.0,0.0009
3296.0,0.0008
3295.0,0.0007
3294.0,0.0007
3293.0,0.0007
3292.0,0.0007
3291.0,0.0008
3290.0,0.0008
3289.0,0.0007
3288.0,0.0006
3287.0,0.0006
3286.0,0.0005
3285.0,0.0005
3284.0,0.0006
3283.0,0.0006
3282.0,0.0005
3281.0,0.0005
3280.0,0.0005
3279.0,0.0005
3278.0,0.0006
3277.0,0.0006
3276.0,0.0007
3275.0,0.0007
3274.0,0.0006
3273.0,0.0006
3272.0,0.0006
3271.0,0.0005
3270.0,0.0005
3269.0,0.0005
3268.0,0.0005
3267.0,0.0006
3266.0,0.0006
3265.0,0.0007
3264.0,0.0007
3263.0,0.0008
3262.0,0.0007
3261.0,0.0007
3260.0,0.0007
3259.0,0.0007
3258.0,0.0007
3257.0,0.0007
3256.0,0.0007
3255.0,0.0007
3254.0,0.0007
3253.0,0.0006
3252.0,0.0006
3251.0,0.0005
3250.0,0.0005
3249.0,0.0005
3248.0,0.0006
3247.0,0.0007
3246.0,0.0008
3245.0,0.0008
3244.0,0.0007
3243.0,0.0007
3242.0,0.0006
3241.0,0.0006
3240.0,0.0007
3239.0,0.0007
3238.0,0.0007
3237.0,0.0007
3236.0,0.0007
3235.0,0.0007
3234.0,0.0007
3233.0,0.0007
3232.0,0.0007
3231.0,0.0007
3230.0,0.0006
3229.0,0.0006
3228.0,0.0006
3227.0,0.0006
3226.0,0.0006
3225.0,0.0006
3224.0,0.0007
3223.0,0.0007
3222.0,0.0008
3221.0,0.0009
3220.0,0.0009
3219.0,0.0009
3218.0,0.0008
3217.0,0.0007
3216.0,0.0006
3215.0,0.0006
3214.0,0.0006
3213.0,0.0006
3212.0,0.0007
3211.0,0.0007
3210.0,0.0007
3209.0,0.0006
3208.0,0.0005
3207.0,0.0004
3206.0,0.0004
3205.0,0.0004
3204.0,0.0005
3203.0,0.0005
3202.0,0.0006
3201.0,0.0007
3200.0,0.0007
3199.0,0.0007
3198.0,0.0007
3197.0,0.0006
3196.0,0.0005
3195.0,0.0005
3194.0,0.0005
3193.0,0.0006
3192.0,0.0006
3191.0,0.0006
3190.0,0.0006
3189.0,0.0006
3188.0,0.0006
3187.0,0.0007
3186.0,0.0007
3185.0,0.0007
3184.0,0.0007
3183.0,0.0007
3182.0,0.0007
3181.0,0.0007
3180.0,0.0006
3179.0,0.0006
3178.0,0.0006
3177.0,0.0006
3176.0,0.0007
3175.0,0.0007
3174.0,0.0007
3173.0,0.0007
3172.0,0.0006
3171.0,0.0006
3170.0,0.0006
3169.0,0.0006
3168.0,0.0007
3167.0,0.0007
3166.0,0.0008
3165.0,0.0008
3164.0,0.0008
3163.0,0.0008
3162.0,0.0008
3161.0,0.0007
3160.0,0.0006
3159.0,0.0006
3158.0,0.0005
3157.0,0.0006
3156.0,0.0006
3155.0,0.0006
3154.0,0.0006
3153.0,0.0006
3152.0,0.0005
3151.0,0.0005
3150.0,0.0005
3149.0,0.0005
3148.0,0.0006
3147.0,0.0006
3146.0,0.0006
3145.0,0.0005
3144.0,0.0006
3143.0,0.0006
3142.0,0.0007
3141.0,0.0007
3140.0,0.0007
3139.0,0.0006
3138.0,0.0006
3137.0,0.0005
3136.0,0.0005
3135.0,0.0005
3134.0,0.0005
3133.0,0.0006
3132.0,0.0007
3131.0,0.0007
3130.0,0.0007
3129.0,0.0006
3128.0,0.0006
3127.0,0.0005
3126.0,0.0005
3125.0,0.0004
3124.0,0.0005
3123.0,0.0005
3122.0,0.0006
3121.0,0.0006
3120.0,0.0007
3119.0,0.0007
3118.0,0.0006
3117.0,0.0006
3116.0,0.0006
3115.0,0.0006
3114.0,0.0005
3113.0,0.0005
3112.0,0.0006
3111.0,0.0007
3110.0,0.0008
3109.0,0.0008
3108.0,0.0007
3107.0,0.0007
3106.0,0.0006
3105.0,0.0006
3104.0,0.0005
3103.0,0.0004
3102.0,0.0004
3101.0,0.0004
3100.0,0.0004
3099.0,0.0005
3098.0,0.0006
3097.0,0.0006
3096.0,0.0005
3095.0,0.0005
3094.0,0.0006
3093.0,0.0006
3092.0,0.0006
3091.0,0.0006
3090.0,0.0006
3089.0,0.0006
3088.0,0.0006
3087.0,0.0006
3086.0,0.0006
3085.0,0.0005
3084.0,0.0005
3083.0,0.0005
3082.0,0.0006
3081.0,0.0006
3080.0,0.0007
3079.0,0.0007
3078.0,0.0007
3077.0,0.0007
3076.0,0.0006
3075.0,0.0006
3074.0,0.0006
3073.0,0.0005
3072.0,0.0006
3071.0,0.0006
3070.0,0.0006
3069.0,0.0006
3068.0,0.0006
3067.0,0.0006
3066.0,0.0006
3065.0,0.0006
3064.0,0.0006
3063.0,0.0006
3062.0,0.0006
3061.0,0.0007
3060.0,0.0006
3059.0,0.0006
3058.0,0.0006
3057.0,0.0006
3056.0,0.0006
3055.0,0.0006
3054.0,0.0006
3053.0,0.0007
3052.0,0.0007
3051.0,0.0006
3050.0,0.0005
3049.0,0.0004
3048.0,0.0004
3047.0,0.0005
3046.0,0.0005
3045.0,0.0005
3044.0,0.0005
3043.0,0.0005
3042.0,0.0005
3041.0,0.0006
3040.0,0.0006
3039.0,0.0006
3038.0,0.0006
3037.0,0.0005
3036.0,0.0004
3035.0,0.0004
3034.0,0.0005
3033.0,0.0005
3032.0,0.0005
3031.0,0.0005
3030.0,0.0005
3029.0,0.0006
3028.0,0.0006
3027.0,0.0006
3026.0,0.0005
3025.0,0.0005
3024.0,0.0005
3023.0,0.0005
3022.0,0.0005
3021.0,0.0005
3020.0,0.0005
3019.0,0.0005
3018.0,0.0004
3017.0,0.0004
3016.0,0.0004
3015.0,0.0004
3014.0,0.0005
3013.0,0.0005
3012.0,0.0004
3011.0,0.0004
3010.0,0.0004
3009.0,0.0004
3008.0,0.0004
3007.0,0.0004
3006.0,0.0004
3005.0,0.0004
3004.0,0.0004
3003.0,0.0004
3002.0,0.0004
3001.0,0.0003
3000.0,0.0003
2999.0,0.0003
2998.0,0.0003
2997.0,0.0003
2996.0,0.0004
2995.0,0.0004
2994.0,0.0004
2993.0,0.0003
2992.0,0.0003
2991.0,0.0002
2990.0,0.0002
2989.0,0.0002
2988.0,0.0002
2987.0,0.0002
2986.0,0.0002
2985.0,0.0003
2984.0,0.0003
2983.0,0.0002
2982.0,0.0002
2981.0,0.0002
2980.0,0.0002
2979.0,0.0002
2978.0,0.0002
2977.0,0.0002
2976.0,0.0002
2975.0,0.0002
2974.0,0.0001
2973.0,0.0002
2972.0,0.0002
2971.0,0.0003
2970.0,0.0003
2969.0,0.0003
2968.0,0.0003
2967.0,0.0003
2966.0,0.0002
2965.0,0.0002
2964.0,0.0002
2963.0,0.0002
2962.0,0.0002
2961.0,0.0002
2960.0,0.0002
2959.0,0.0002
2958.0,0.0002
2957.0,0.0003
2956.0,0.0003
2955.0,0.0002
2954.0,0.0002
2953.0,0.0002
2952.0,0.0002
2951.0,0.0002
2950.0,0.0002
2949.0,0.0003
2948.0,0.0003
2947.0,0.0003
2946.0,0.0003
2945.0,0.0003
2944.0,0.0002
2943.0,0.0002
2942.0,0.0002
2941.0,0.0003
2940.0,0.0004
2939.0,0.0004
2938.0,0.0004
2937.0,0.0004
2936.0,0.0004
2935.0,0.0004
2934.0,0.0003
2933.0,0.0003
2932.0,0.0003
2931.0,0.0003
2930.0,0.0003
2929.0,0.0003
2928.0,0.0002
2927.0,0.0002
2926.0,0.0002
2925.0,0.0003
2924.0,0.0003
2923.0,0.0003
2922.0,0.0003
2921.0,0.0002
2920.0,0.0002
2919.0,0.0002
2918.0,0.0002
2917.0,0.0002
2916.0,0.0002
2915.0,0.0002
2914.0,0.0002
2913.0,0.0002
2912.0,0.0002
2911.0,0.0003
2910.0,0.0004
2909.0,0.0004
2908.0,0.0003
2907.0,0.0003
2906.0,0.0003
2905.0,0.0002
2904.0,0.0002
2903.0,0.0002
2902.0,0.0001
2901.0,0.0001
2900.0,0.0002
2899.0,0.0002
2898.0,0.0003
2897.0,0.0003
2896.0,0.0003
2895.0,0.0002
2894.0,0.0002
2893.0,0.0003
2892.0,0.0003
2891.0,0.0002
2890.0,0.0002
2889.0,0.0002
2888.0,0.0003
2887.0,0.0003
2886.0,0.0003
2885.0,0.0003
2884.0,0.0003
2883.0,0.0002
2882.0,0.0002
2881.0,0.0002
2880.0,0.0003
2879.0,0.0003
2878.0,0.0003
2877.0,0.0003
2876.0,0.0002
2875.0,0.0002
2874.0,0.0003
2873.0,0.0003
2872.0,0.0004
2871.0,0.0004
2870.0,0.0004
2869.0,0.0004
2868.0,0.0004
2867.0,0.0003
2866.0,0.0004
2865.0,0.0004
2864.0,0.0004
2863.0,0.0004
2862.0,0.0004
2861.0,0.0003
2860.0,0.0003
2859.0,0.0002
2858.0,0.0002
2857.0,0.0002
2856.0,0.0003
2855.0,0.0003
2854.0,0.0003
2853.0,0.0003
2852.0,0.0004
2851.0,0.0004
2850.0,0.0004
2849.0,0.0005
2848.0,0.0005
2847.0,0.0005
2846.0,0.0006
2845.0,0.0006
2844.0,0.0005
2843.0,0.0005
2842.0,0.0004
2841.0,0.0004
2840.0,0.0004
2839.0,0.0004
2838.0,0.0004
2837.0,0.0004
2836.0,0.0005
2835.0,0.0005
2834.0,0.0005
2833.0,0.0005
2832.0,0.0005
2831.0,0.0005
2830.0,0.0005
2829.0,0.0006
2828.0,0.0006
2827.0,0.0006
2826.0,0.0006
2825.0,0.0006
2824.0,0.0006
2823.0,0.0006
2822.0,0.0006
2821.0,0.0006
2820.0,0.0006
2819.0,0.0006
2818.0,0.0005
2817.0,0.0005
2816.0,0.0005
2815.0,0.0005
2814.0,0.0005
2813.0,0.0006
2812.0,0.0006
2811.0,0.0006
2810.0,0.0006
2809.0,0.0006
2808.0,0.0006
2807.0,0.0006
2806.0,0.0006
2805.0,0.0006
2804.0,0.0006
2803.0,0.0006
2802.0,0.0006
2801.0,0.0006
2800.0,0.0006
2799.0,0.0006
2798.0,0.0005
2797.0,0.0005
2796.0,0.0005
2795.0,0.0004
2794.0,0.0004
2793.0,0.0004
2792.0,0.0005
2791.0,0.0005
2790.0,0.0004
2789.0,0.0004
2788.0,0.0004
2787.0,0.0004
2786.0,0.0005
2785.0,0.0005
2784.0,0.0006
2783.0,0.0005
2782.0,0.0005
2781.0,0.0005
2780.0,0.0004
2779.0,0.0004
2778.0,0.0004
2777.0,0.0004
2776.0,0.0004
2775.0,0.0004
2774.0,0.0005
2773.0,0.0005
2772.0,0.0005
2771.0,0.0005
2770.0,0.0005
2769.0,0.0005
2768.0,0.0004
2767.0,0.0004
2766.0,0.0004
2765.0,0.0003
2764.0,0.0003
2763.0,0.0003
2762.0,0.0003
2761.0,0.0003
2760.0,0.0004
2759.0,0.0005
2758.0,0.0005
2757.0,0.0005
2756.0,0.0005
2755.0,0.0005
2754.0,0.0005
2753.0,0.0005
2752.0,0.0006
2751.0,0.0006
2750.0,0.0006
2749.0,0.0005
2748.0,0.0005
2747.0,0.0005
2746.0,0.0005
2745.0,0.0006
2744.0,0.0006
2743.0,0.0006
2742.0,0.0006
2741.0,0.0005
2740.0,0.0005
2739.0,0.0005
2738.0,0.0006
2737.0,0.0006
2736.0,0.0006
2735.0,0.0006
2734.0,0.0006
2733.0,0.0006
2732.0,0.0006
2731.0,0.0006
2730.0,0.0006
2729.0,0.0006
2728.0,0.0006
2727.0,0.0006
2726.0,0.0005
2725.0,0.0005
2724.0,0.0005
2723.0,0.0005
2722.0,0.0005
2721.0,0.0005
2720.0,0.0005
2719.0,0.0005
2718.0,0.0005
2717.0,0.0006
2716.0,0.0006
2715.0,0.0006
2714.0,0.0005
2713.0,0.0005
2712.0,0.0005
2711.0,0.0004
2710.0,0.0004
2709.0,0.0004
2708.0,0.0004
2707.0,0.0004
2706.0,0.0004
2705.0,0.0004
2704.0,0.0005
2703.0,0.0005
2702.0,0.0005
2701.0,0.0005
2700.0,0.0004
2699.0,0.0004
2698.0,0.0004
2697.0,0.0005
2696.0,0.0005
2695.0,0.0005
2694.0,0.0005
2693.0,0.0006
2692.0,0.0006
2691.0,0.0007
2690.0,0.0006
2689.0,0.0006
2688.0,0.0005
2687.0,0.0005
2686.0,0.0005
2685.0,0.0005
2684.0,0.0005
2683.0,0.0004
2682.0,0.0004
2681.0,0.0005
2680.0,0.0005
2679.0,0.0006
2678.0,0.0007
2677.0,0.0007
2676.0,0.0006
2675.0,0.0006
2674.0,0.0006
2673.0,0.0006
2672.0,0.0006
2671.0,0.0006
2670.0,0.0005
2669.0,0.0005
2668.0,0.0005
2667.0,0.0005
2666.0,0.0005
2665.0,0.0005
2664.0,0.0005
2663.0,0.0005
2662.0,0.0006
2661.0,0.0006
2660.0,0.0006
2659.0,0.0006
2658.0,0.0007
2657.0,0.0007
2656.0,0.0007
2655.0,0.0007
2654.0,0.0007
2653.0,0.0006
2652.0,0.0006
2651.0,0.0006
2650.0,0.0006
2649.0,0.0006
2648.0,0.0006
2647.0,0.0006
2646.0,0.0006
2645.0,0.0006
2644.0,0.0006
2643.0,0.0006
2642.0,0.0006
2641.0,0.0005
2640.0,0.0005
2639.0,0.0004
2638.0,0.0004
2637.0,0.0003
2636.0,0.0004
2635.0,0.0004
2634.0,0.0004
2633.0,0.0004
2632.0,0.0005
2631.0,0.0005
2630.0,0.0005
2629.0,0.0006
2628.0,0.0006
2627.0,0.0005
2626.0,0.0005
2625.0,0.0005
2624.0,0.0005
2623.0,0.0005
2622.0,0.0005
2621.0,0.0005
2620.0,0.0006
2619.0,0.0006
2618.0,0.0006
2617.0,0.0006
2616.0,0.0006
2615.0,0.0006
2614.0,0.0006
2613.0,0.0006
2612.0,0.0006
2611.0,0.0006
2610.0,0.0006
2609.0,0.0006
2608.0,0.0006
2607.0,0.0006
2606.0,0.0006
2605.0,0.0006
2604.0,0.0006
2603.0,0.0005
2602.0,0.0005
2601.0,0.0005
2600.0,0.0005
2599.0,0.0005
2598.0,0.0006
2597.0,0.0006
2596.0,0.0006
2595.0,0.0005
2594.0,0.0005
2593.0,0.0006
2592.0,0.0006
2591.0,0.0005
2590.0,0.0005
2589.0,0.0005
2588.0,0.0005
2587.0,0.0005
2586.0,0.0005
2585.0,0.0005
2584.0,0.0006
2583.0,0.0006
2582.0,0.0006
2581.0,0.0006
2580.0,0.0006
2579.0,0.0006
2578.0,0.0006
2577.0,0.0006
2576.0,0.0006
2575.0,0.0006
2574.0,0.0006
2573.0,0.0006
2572.0,0.0006
2571.0,0.0006
2570.0,0.0006
2569.0,0.0006
2568.0,0.0005
2567.0,0.0005
2566.0,0.0005
2565.0,0.0004
2564.0,0.0004
2563.0,0.0004
2562.0,0.0004
2561.0,0.0005
2560.0,0.0005
2559.0,0.0005
2558.0,0.0005
2557.0,0.0005
2556.0,0.0006
2555.0,0.0006
2554.0,0.0006
2553.0,0.0005
2552.0,0.0005
2551.0,0.0005
2550.0,0.0005
2549.0,0.0005
2548.0,0.0005
2547.0,0.0005
2546.0,0.0006
2545.0,0.0005
2544.0,0.0005
2543.0,0.0005
2542.0,0.0005
2541.0,0.0005
2540.0,0.0005
2539.0,0.0004
2538.0,0.0004
2537.0,0.0004
2536.0,0.0005
2535.0,0.0006
2534.0,0.0006
2533.0,0.0006
2532.0,0.0006
2531.0,0.0006
2530.0,0.0006
2529.0,0.0005
2528.0,0.0005
2527.0,0.0005
2526.0,0.0006
2525.0,0.0006
2524.0,0.0007
2523.0,0.0007
2522.0,0.0006
2521.0,0.0005
2520.0,0.0005
2519.0,0.0005
2518.0,0.0005
2517.0,0.0005
2516.0,0.0005
2515.0,0.0005
2514.0,0.0004
2513.0,0.0004
2512.0,0.0004
2511.0,0.0005
2510.0,0.0005
2509.0,0.0006
2508.0,0.0006
2507.0,0.0006
2506.0,0.0006
2505.0,0.0005
2504.0,0.0005
2503.0,0.0005
2502.0,0.0005
2501.0,0.0006
2500.0,0.0007
2499.0,0.0006
2498.0,0.0006
2497.0,0.0005
2496.0,0.0005
2495.0,0.0005
2494.0,0.0005
2493.0,0.0005
2492.0,0.0006
2491.0,0.0006
2490.0,0.0006
2489.0,0.0006
2488.0,0.0006
2487.0,0.0005
2486.0,0.0005
2485.0,0.0005
2484.0,0.0005
2483.0,0.0005
2482.0,0.0006
2481.0,0.0006
2480.0,0.0006
2479.0,0.0006
2478.0,0.0006
2477.0,0.0006
2476.0,0.0005
2475.0,0.0004
2474.0,0.0004
2473.0,0.0004
2472.0,0.0005
2471.0,0.0005
2470.0,0.0005
2469.0,0.0005
2468.0,0.0005
2467.0,0.0005
2466.0,0.0005
2465.0,0.0006
2464.0,0.0006
2463.0,0.0006
2462.0,0.0006
2461.0,0.0006
2460.0,0.0005
2459.0,0.0005
2458.0,0.0005
2457.0,0.0005
2456.0,0.0005
2455.0,0.0005
2454.0,0.0006
2453.0,0.0006
2452.0,0.0006
2451.0,0.0006
2450.0,0.0005
2449.0,0.0005
2448.0,0.0005
2447.0,0.0006
2446.0,0.0006
2445.0,0.0006
2444.0,0.0006
2443.0,0.0006
2442.0,0.0006
2441.0,0.0006
2440.0,0.0006
2439.0,0.0006
2438.0,0.0006
2437.0,0.0005
2436.0,0.0005
2435.0,0.0005
2434.0,0.0005
2433.0,0.0005
2432.0,0.0005
2431.0,0.0005
2430.0,0.0005
2429.0,0.0005
2428.0,0.0006
2427.0,0.0006
2426.0,0.0006
2425.0,0.0005
2424.0,0.0005
2423.0,0.0005
2422.0,0.0005
2421.0,0.0005
2420.0,0.0005
2419.0,0.0005
2418.0,0.0005
2417.0,0.0006
2416.0,0.0005
2415.0,0.0005
2414.0,0.0005
2413.0,0.0005
2412.0,0.0005
2411.0,0.0006
2410.0,0.0006
2409.0,0.0006
2408.0,0.0006
2407.0,0.0005
2406.0,0.0005
2405.0,0.0005
2404.0,0.0005
2403.0,0.0005
2402.0,0.0005
2401.0,0.0005
2400.0,0.0005
2399.0,0.0006
2398.0,0.0006
2397.0,0.0007
2396.0,0.0006
2395.0,0.0006
2394.0,0.0006
2393.0,0.0006
2392.0,0.0007
2391.0,0.0007
2390.0,0.0007
2389.0,0.0008
2388.0,0.0008
2387.0,0.0009
2386.0,0.0009
2385.0,0.0008
2384.0,0.0008
2383.0,0.0007
2382.0,0.0006
2381.0,0.0006
2380.0,0.0006
2379.0,0.0006
2378.0,0.0006
2377.0,0.0005
2376.0,0.0005
2375.0,0.0004
2374.0,0.0005
2373.0,0.0006
2372.0,0.0008
2371.0,0.001
2370.0,0.0011
2369.0,0.0008
2368.0,0.0004
2367.0,0.0002
2366.0,0.0001
2365.0,-0.0003
2364.0,-0.0006
2363.0,-0.0002
2362.0,0.0007
2361.0,0.0008
2360.0,0.0003
2359.0,0.0004
2358.0,0.0014
2357.0,0.0022
2356.0,0.002
2355.0,0.0014
2354.0,0.0006
2353.0,-0.0003
2352.0,-0.001
2351.0,-0.001
2350.0,-0.0005
2349.0,-0.0001
2348.0,0.0
2347.0,-0.0002
2346.0,-0.0005
2345.0,-0.0006
2344.0,-0.0007
2343.0,-0.001
2342.0,-0.0015
2341.0,-0.0017
2340.0,-0.0015
2339.0,-0.0009
2338.0,-0.0004
2337.0,-0.0001
2336.0,0.0
2335.0,0.0001
2334.0,0.0003
2333.0,0.0004
2332.0,0.0003
2331.0,0.0001
2330.0,-0.0002
2329.0,-0.0004
2328.0,-0.0003
2327.0,0.0
2326.0,0.0004
2325.0,0.0006
2324.0,0.0005
2323.0,0.0002
2322.0,0.0001
2321.0,0.0002
2320.0,0.0005
2319.0,0.0008
2318.0,0.0009
2317.0,0.0008
2316.0,0.0007
2315.0,0.0006
2314.0,0.0006
2313.0,0.0006
2312.0,0.0007
2311.0,0.0008
2310.0,0.0009
2309.0,0.0009
2308.0,0.0008
2307.0,0.0007
2306.0,0.0006
2305.0,0.0006
2304.0,0.0006
2303.0,0.0007
2302.0,0.0007
2301.0,0.0007
2300.0,0.0007
2299.0,0.0007
2298.0,0.0007
2297.0,0.0007
2296.0,0.0007
2295.0,0.0006
2294.0,0.0005
2293.0,0.0005
2292.0,0.0005
2291.0,0.0005
2290.0,0.0005
2289.0,0.0006
2288.0,0.0006
2287.0,0.0007
2286.0,0.0007
2285.0,0.0007
2284.0,0.0006
2283.0,0.0006
2282.0,0.0006
2281.0,0.0005
2280.0,0.0005
2279.0,0.0004
2278.0,0.0004
2277.0,0.0004
2276.0,0.0004
2275.0,0.0004
2274.0,0.0004
2273.0,0.0004
2272.0,0.0004
2271.0,0.0004
2270.0,0.0004
2269.0,0.0004
2268.0,0.0004
2267.0,0.0005
2266.0,0.0005
2265.0,0.0005
2264.0,0.0005
2263.0,0.0005
2262.0,0.0004
2261.0,0.0004
2260.0,0.0005
2259.0,0.0005
2258.0,0.0005
2257.0,0.0005
2256.0,0.0004
2255.0,0.0004
2254.0,0.0004
2253.0,0.0004
2252.0,0.0005
2251.0,0.0005
2250.0,0.0004
2249.0,0.0004
2248.0,0.0004
2247.0,0.0004
2246.0,0.0005
2245.0,0.0005
2244.0,0.0005
2243.0,0.0005
2242.0,0.0005
2241.0,0.0005
2240.0,0.0005
2239.0,0.0005
2238.0,0.0005
2237.0,0.0005
2236.0,0.0005
2235.0,0.0005
2234.0,0.0005
2233.0,0.0005
2232.0,0.0006
2231.0,0.0006
2230.0,0.0006
2229.0,0.0006
2228.0,0.0006
2227.0,0.0006
2226.0,0.0005
2225.0,0.0005
2224.0,0.0005
2223.0,0.0005
2222.0,0.0006
2221.0,0.0006
2220.0,0.0006
2219.0,0.0005
2218.0,0.0005
2217.0,0.0005
2216.0,0.0006
2215.0,0.0006
2214.0,0.0006
2213.0,0.0005
2212.0,0.0005
2211.0,0.0004
2210.0,0.0004
2209.0,0.0004
2208.0,0.0004
2207.0,0.0004
2206.0,0.0005
2205.0,0.0006
2204.0,0.0006
2203.0,0.0006
2202.0,0.0006
2201.0,0.0006
2200.0,0.0006
2199.0,0.0006
2198.0,0.0006
2197.0,0.0006
2196.0,0.0006
2195.0,0.0006
2194.0,0.0005
2193.0,0.0005
2192.0,0.0005
2191.0,0.0006
2190.0,0.0006
2189.0,0.0006
2188.0,0.0006
2187.0,0.0006
2186.0,0.0005
2185.0,0.0005
2184.0,0.0005
2183.0,0.0005
2182.0,0.0006
2181.0,0.0006
2180.0,0.0005
2179.0,0.0005
2178.0,0.0005
2177.0,0.0005
2176.0,0.0005
2175.0,0.0005
2174.0,0.0005
2173.0,0.0005
2172.0,0.0005
2171.0,0.0005
2170.0,0.0005
2169.0,0.0005
2168.0,0.0005
2167.0,0.0005
2166.0,0.0005
2165.0,0.0006
2164.0,0.0006
2163.0,0.0006
2162.0,0.0006
2161.0,0.0005
2160.0,0.0005
2159.0,0.0005
2158.0,0.0005
2157.0,0.0005
2156.0,0.0005
2155.0,0.0005
2154.0,0.0005
2153.0,0.0005
2152.0,0.0004
2151.0,0.0004
2150.0,0.0004
2149.0,0.0004
2148.0,0.0005
2147.0,0.0005
2146.0,0.0005
2145.0,0.0005
2144.0,0.0006
2143.0,0.0006
2142.0,0.0006
2141.0,0.0006
2140.0,0.0006
2139.0,0.0006
2138.0,0.0005
2137.0,0.0005
2136.0,0.0005
2135.0,0.0006
2134.0,0.0006
2133.0,0.0006
2132.0,0.0006
2131.0,0.0006
2130.0,0.0005
2129.0,0.0005
2128.0,0.0005
2127.0,0.0006
2126.0,0.0006
2125.0,0.0006
2124.0,0.0005
2123.0,0.0005
2122.0,0.0005
2121.0,0.0004
2120.0,0.0004
2119.0,0.0004
2118.0,0.0004
2117.0,0.0004
2116.0,0.0005
2115.0,0.0005
2114.0,0.0006
2113.0,0.0006
2112.0,0.0006
2111.0,0.0006
2110.0,0.0005
2109.0,0.0005
2108.0,0.0005
2107.0,0.0004
2106.0,0.0004
2105.0,0.0004
2104.0,0.0004
2103.0,0.0004
2102.0,0.0004
2101.0,0.0004
2100.0,0.0004
2099.0,0.0005
2098.0,0.0005
2097.0,0.0005
2096.0,0.0006
2095.0,0.0005
2094.0,0.0005
2093.0,0.0005
2092.0,0.0005
2091.0,0.0005
2090.0,0.0005
2089.0,0.0005
2088.0,0.0005
2087.0,0.0005
2086.0,0.0005
2085.0,0.0005
2084.0,0.0004
2083.0,0.0004
2082.0,0.0005
2081.0,0.0005
2080.0,0.0005
2079.0,0.0005
2078.0,0.0005
2077.0,0.0005
2076.0,0.0004
2075.0,0.0004
2074.0,0.0004
2073.0,0.0004
2072.0,0.0004
2071.0,0.0005
2070.0,0.0004
2069.0,0.0004
2068.0,0.0004
2067.0,0.0005
2066.0,0.0005
2065.0,0.0006
2064.0,0.0006
2063.0,0.0006
2062.0,0.0005
2061.0,0.0005
2060.0,0.0005
2059.0,0.0005
2058.0,0.0005
2057.0,0.0004
2056.0,0.0004
2055.0,0.0004
2054.0,0.0004
2053.0,0.0004
2052.0,0.0005
2051.0,0.0005
2050.0,0.0005
2049.0,0.0005
2048.0,0.0005
2047.0,0.0005
2046.0,0.0005
2045.0,0.0005
2044.0,0.0005
2043.0,0.0005
2042.0,0.0004
2041.0,0.0004
2040.0,0.0003
2039.0,0.0003
2038.0,0.0004
2037.0,0.0004
2036.0,0.0004
2035.0,0.0005
2034.0,0.0005
2033.0,0.0004
2032.0,0.0004
2031.0,0.0004
2030.0,0.0004
2029.0,0.0004
2028.0,0.0004
2027.0,0.0004
2026.0,0.0004
2025.0,0.0004
2024.0,0.0004
2023.0,0.0005
2022.0,0.0005
2021.0,0.0005
2020.0,0.0005
2019.0,0.0005
2018.0,0.0004
2017.0,0.0004
2016.0,0.0004
2015.0,0.0004
2014.0,0.0004
2013.0,0.0004
2012.0,0.0005
2011.0,0.0006
2010.0,0.0006
2009.0,0.0006
2008.0,0.0006
2007.0,0.0005
2006.0,0.0005
2005.0,0.0005
2004.0,0.0005
2003.0,0.0004
2002.0,0.0004
2001.0,0.0004
2000.0,0.0004
1999.0,0.0004
1998.0,0.0004
1997.0,0.0004
1996.0,0.0004
1995.0,0.0004
1994.0,0.0004
1993.0,0.0004
1992.0,0.0004
1991.0,0.0005
1990.0,0.0005
1989.0,0.0005
1988.0,0.0005
1987.0,0.0005
1986.0,0.0005
1985.0,0.0005
1984.0,0.0005
1983.0,0.0005
1982.0,0.0005
1981.0,0.0005
1980.0,0.0005
1979.0,0.0005
1978.0,0.0004
1977.0,0.0004
1976.0,0.0004
1975.0,0.0004
1974.0,0.0005
1973.0,0.0005
1972.0,0.0005
1971.0,0.0006
1970.0,0.0006
1969.0,0.0006
1968.0,0.0006
1967.0,0.0005
1966.0,0.0006
1965.0,0.0006
1964.0,0.0006
1963.0,0.0005
1962.0,0.0005
1961.0,0.0005
1960.0,0.0005
1959.0,0.0005
1958.0,0.0005
1957.0,0.0005
1956.0,0.0005
1955.0,0.0005
1954.0,0.0004
1953.0,0.0004
1952.0,0.0004
1951.0,0.0004
1950.0,0.0004
1949.0,0.0004
1948.0,0.0004
1947.0,0.0004
1946.0,0.0004
1945.0,0.0005
1944.0,0.0005
1943.0,0.0005
1942.0,0.0004
1941.0,0.0004
1940.0,0.0004
1939.0,0.0004
1938.0,0.0005
1937.0,0.0005
1936.0,0.0005
1935.0,0.0005
1934.0,0.0005
1933.0,0.0005
1932.0,0.0005
1931.0,0.0005
1930.0,0.0005
1929.0,0.0005
1928.0,0.0005
1927.0,0.0004
1926.0,0.0004
1925.0,0.0005
1924.0,0.0005
1923.0,0.0006
1922.0,0.0006
1921.0,0.0005
1920.0,0.0005
1919.0,0.0004
1918.0,0.0004
1917.0,0.0004
1916.0,0.0004
1915.0,0.0004
1914.0,0.0004
1913.0,0.0004
1912.0,0.0004
1911.0,0.0005
1910.0,0.0005
1909.0,0.0005
1908.0,0.0005
1907.0,0.0005
1906.0,0.0005
1905.0,0.0005
1904.0,0.0006
1903.0,0.0006
1902.0,0.0006
1901.0,0.0006
1900.0,0.0006
1899.0,0.0006
1898.0,0.0005
1897.0,0.0005
1896.0,0.0005
1895.0,0.0004
1894.0,0.0005
1893.0,0.0005
1892.0,0.0005
1891.0,0.0005
1890.0,0.0005
1889.0,0.0005
1888.0,0.0005
1887.0,0.0004
1886.0,0.0004
1885.0,0.0004
1884.0,0.0004
1883.0,0.0004
1882.0,0.0004
1881.0,0.0004
1880.0,0.0004
1879.0,0.0005
1878.0,0.0005
1877.0,0.0005
1876.0,0.0005
1875.0,0.0005
1874.0,0.0004
1873.0,0.0004
1872.0,0.0004
1871.0,0.0003
1870.0,0.0003
1869.0,0.0003
1868.0,0.0003
1867.0,0.0004
1866.0,0.0005
1865.0,0.0005
1864.0,0.0005
1863.0,0.0004
1862.0,0.0004
1861.0,0.0004
1860.0,0.0004
1859.0,0.0004
1858.0,0.0004
1857.0,0.0004
1856.0,0.0004
1855.0,0.0005
1854.0,0.0005
1853.0,0.0005
1852.0,0.0004
1851.0,0.0004
1850.0,0.0004
1849.0,0.0004
1848.0,0.0004
1847.0,0.0004
1846.0,0.0003
1845.0,0.0003
1844.0,0.0003
1843.0,0.0003
1842.0,0.0004
1841.0,0.0004
1840.0,0.0004
1839.0,0.0004
1838.0,0.0004
1837.0,0.0004
1836.0,0.0004
1835.0,0.0004
1834.0,0.0004
1833.0,0.0004
1832.0,0.0004
1831.0,0.0005
1830.0,0.0005
1829.0,0.0005
1828.0,0.0005
1827.0,0.0005
1826.0,0.0005
1825.0,0.0005
1824.0,0.0004
1823.0,0.0004
1822.0,0.0004
1821.0,0.0003
1820.0,0.0003
1819.0,0.0003
1818.0,0.0003
1817.0,0.0004
1816.0,0.0004
1815.0,0.0005
1814.0,0.0005
1813.0,0.0005
1812.0,0.0005
1811.0,0.0005
1810.0,0.0005
1809.0,0.0004
1808.0,0.0004
1807.0,0.0004
1806.0,0.0004
1805.0,0.0004
1804.0,0.0003
1803.0,0.0003
1802.0,0.0003
1801.0,0.0003
1800.0,0.0003
1799.0,0.0003
1798.0,0.0003
1797.0,0.0003
1796.0,0.0003
1795.0,0.0003
1794.0,0.0003
1793.0,0.0004
1792.0,0.0004
1791.0,0.0004
1790.0,0.0005
1789.0,0.0005
1788.0,0.0004
1787.0,0.0004
1786.0,0.0003
1785.0,0.0003
1784.0,0.0004
1783.0,0.0004
1782.0,0.0004
1781.0,0.0004
1780.0,0.0004
1779.0,0.0004
1778.0,0.0004
1777.0,0.0004
1776.0,0.0004
1775.0,0.0003
1774.0,0.0003
1773.0,0.0002
1772.0,0.0003
1771.0,0.0004
1770.0,0.0004
1769.0,0.0004
1768.0,0.0004
1767.0,0.0004
1766.0,0.0004
1765.0,0.0004
1764.0,0.0004
1763.0,0.0004
1762.0,0.0004
1761.0,0.0004
1760.0,0.0004
1759.0,0.0003
1758.0,0.0003
1757.0,0.0003
1756.0,0.0004
1755.0,0.0004
1754.0,0.0004
1753.0,0.0004
1752.0,0.0004
1751.0,0.0004
1750.0,0.0004
1749.0,0.0004
1748.0,0.0004
1747.0,0.0005
1746.0,0.0005
1745.0,0.0006
1744.0,0.0006
1743.0,0.0007
1742.0,0.0008
1741.0,0.0009
1740.0,0.001
1739.0,0.001
1738.0,0.0011
1737.0,0.0011
1736.0,0.0011
1735.0,0.0011
1734.0,0.0012
1733.0,0.0013
1732.0,0.0014
1731.0,0.0015
1730.0,0.0015
1729.0,0.0015
1728.0,0.0015
1727.0,0.0015
1726.0,0.0015
1725.0,0.0015
1724.0,0.0016
1723.0,0.0016
1722.0,0.0017
1721.0,0.0017
1720.0,0.0016
1719.0,0.0016
1718.0,0.0016
1717.0,0.0016
1716.0,0.0016
1715.0,0.0016
1714.0,0.0016
1713.0,0.0015
1712.0,0.0014
1711.0,0.0013
1710.0,0.0012
1709.0,0.0012
1708.0,0.0011
1707.0,0.001
1706.0,0.001
1705.0,0.0009
1704.0,0.0009
1703.0,0.0009
1702.0,0.0009
1701.0,0.0008
1700.0,0.0007
1699.0,0.0006
1698.0,0.0006
1697.0,0.0006
1696.0,0.0007
1695.0,0.0007
1694.0,0.0007
1693.0,0.0007
1692.0,0.0007
1691.0,0.0007
1690.0,0.0007
1689.0,0.0007
1688.0,0.0007
1687.0,0.0006
1686.0,0.0006
1685.0,0.0006
1684.0,0.0006
1683.0,0.0007
1682.0,0.0007
1681.0,0.0007
1680.0,0.0006
1679.0,0.0006
1678.0,0.0005
1677.0,0.0005
1676.0,0.0005
1675.0,0.0005
1674.0,0.0005
1673.0,0.0005
1672.0,0.0004
1671.0,0.0004
1670.0,0.0004
1669.0,0.0004
1668.0,0.0004
1667.0,0.0004
1666.0,0.0005
1665.0,0.0005
1664.0,0.0004
1663.0,0.0004
1662.0,0.0004
1661.0,0.0004
1660.0,0.0005
1659.0,0.0005
1658.0,0.0006
1657.0,0.0006
1656.0,0.0006
1655.0,0.0006
1654.0,0.0007
1653.0,0.0006
1652.0,0.0005
1651.0,0.0004
1650.0,0.0004
1649.0,0.0004
1648.0,0.0004
1647.0,0.0005
1646.0,0.0005
1645.0,0.0004
1644.0,0.0004
1643.0,0.0005
1642.0,0.0005
1641.0,0.0005
1640.0,0.0005
1639.0,0.0005
1638.0,0.0005
1637.0,0.0005
1636.0,0.0005
1635.0,0.0005
1634.0,0.0005
1633.0,0.0005
1632.0,0.0005
1631.0,0.0006
1630.0,0.0006
1629.0,0.0005
1628.0,0.0005
1627.0,0.0006
1626.0,0.0006
1625.0,0.0006
1624.0,0.0006
1623.0,0.0006
1622.0,0.0005
1621.0,0.0005
1620.0,0.0004
1619.0,0.0004
1618.0,0.0004
1617.0,0.0004
1616.0,0.0005
1615.0,0.0005
1614.0,0.0005
1613.0,0.0006
1612.0,0.0006
1611.0,0.0006
1610.0,0.0006
1609.0,0.0006
1608.0,0.0005
1607.0,0.0004
1606.0,0.0003
1605.0,0.0003
1604.0,0.0003
1603.0,0.0004
1602.0,0.0004
1601.0,0.0004
1600.0,0.0004
1599.0,0.0005
1598.0,0.0005
1597.0,0.0005
1596.0,0.0005
1595.0,0.0005
1594.0,0.0004
1593.0,0.0004
1592.0,0.0004
1591.0,0.0004
1590.0,0.0004
1589.0,0.0004
1588.0,0.0004
1587.0,0.0004
1586.0,0.0005
1585.0,0.0005
1584.0,0.0005
1583.0,0.0005
1582.0,0.0005
1581.0,0.0005
1580.0,0.0005
1579.0,0.0005
1578.0,0.0005
1577.0,0.0005
1576.0,0.0005
1575.0,0.0004
1574.0,0.0004
1573.0,0.0004
1572.0,0.0004
1571.0,0.0004
1570.0,0.0004
1569.0,0.0004
1568.0,0.0004
1567.0,0.0004
1566.0,0.0004
1565.0,0.0004
1564.0,0.0003
1563.0,0.0003
1562.0,0.0004
1561.0,0.0004
1560.0,0.0004
1559.0,0.0003
1558.0,0.0003
1557.0,0.0003
1556.0,0.0003
1555.0,0.0003
1554.0,0.0003
1553.0,0.0003
1552.0,0.0004
1551.0,0.0004
1550.0,0.0003
1549.0,0.0004
1548.0,0.0004
1547.0,0.0004
1546.0,0.0004
1545.0,0.0004
1544.0,0.0004
1543.0,0.0003
1542.0,0.0003
1541.0,0.0003
1540.0,0.0003
1539.0,0.0002
1538.0,0.0002
1537.0,0.0003
1536.0,0.0003
1535.0,0.0004
1534.0,0.0004
1533.0,0.0005
1532.0,0.0004
1531.0,0.0004
1530.0,0.0004
1529.0,0.0003
1528.0,0.0003
1527.0,0.0003
1526.0,0.0002
1525.0,0.0002
1524.0,0.0002
1523.0,0.0003
1522.0,0.0005
1521.0,0.0006
1520.0,0.0005
1519.0,0.0005
1518.0,0.0004
1517.0,0.0004
1516.0,0.0003
1515.0,0.0003
1514.0,0.0003
1513.0,0.0003
1512.0,0.0003
1511.0,0.0003
1510.0,0.0004
1509.0,0.0004
1508.0,0.0005
1507.0,0.0005
1506.0,0.0005
1505.0,0.0005
1504.0,0.0004
1503.0,0.0005
1502.0,0.0005
1501.0,0.0005
1500.0,0.0004
1499.0,0.0003
1498.0,0.0003
1497.0,0.0003
1496.0,0.0003
1495.0,0.0004
1494.0,0.0004
1493.0,0.0004
1492.0,0.0003
1491.0,0.0003
1490.0,0.0003
1489.0,0.0002
1488.0,0.0003
1487.0,0.0003
1486.0,0.0003
1485.0,0.0003
1484.0,0.0003
1483.0,0.0003
1482.0,0.0003
1481.0,0.0004
1480.0,0.0004
1479.0,0.0004
1478.0,0.0003
1477.0,0.0003
1476.0,0.0003
1475.0,0.0003
1474.0,0.0004
1473.0,0.0004
1472.0,0.0004
1471.0,0.0004
1470.0,0.0004
1469.0,0.0004
1468.0,0.0004
1467.0,0.0003
1466.0,0.0003
1465.0,0.0003
1464.0,0.0003
1463.0,0.0003
1462.0,0.0003
1461.0,0.0004
1460.0,0.0004
1459.0,0.0005
1458.0,0.0005
1457.0,0.0005
1456.0,0.0005
1455.0,0.0004
1454.0,0.0004
1453.0,0.0004
1452.0,0.0004
1451.0,0.0005
1450.0,0.0005
1449.0,0.0005
1448.0,0.0005
1447.0,0.0005
1446.0,0.0005
1445.0,0.0005
1444.0,0.0005
1443.0,0.0004
1442.0,0.0004
1441.0,0.0004
1440.0,0.0004
1439.0,0.0004
1438.0,0.0004
1437.0,0.0004
1436.0,0.0004
1435.0,0.0004
1434.0,0.0004
1433.0,0.0003
1432.0,0.0003
1431.0,0.0003
1430.0,0.0003
1429.0,0.0003
1428.0,0.0003
1427.0,0.0003
1426.0,0.0003
1425.0,0.0003
1424.0,0.0003
1423.0,0.0003
1422.0,0.0003
1421.0,0.0003
1420.0,0.0002
1419.0,0.0002
1418.0,0.0002
1417.0,0.0003
1416.0,0.0004
1415.0,0.0004
1414.0,0.0005
1413.0,0.0005
1412.0,0.0006
1411.0,0.0006
1410.0,0.0007
1409.0,0.0007
1408.0,0.0007
1407.0,0.0007
1406.0,0.0007
1405.0,0.0006
1404.0,0.0006
1403.0,0.0005
1402.0,0.0005
1401.0,0.0005
1400.0,0.0005
1399.0,0.0004
1398.0,0.0004
1397.0,0.0003
1396.0,0.0002
1395.0,0.0002
1394.0,0.0002
1393.0,0.0002
1392.0,0.0003
1391.0,0.0003
1390.0,0.0003
1389.0,0.0002
1388.0,0.0002
1387.0,0.0002
1386.0,0.0002
1385.0,0.0002
1384.0,0.0002
1383.0,0.0002
1382.0,0.0002
1381.0,0.0002
1380.0,0.0003
1379.0,0.0003
1378.0,0.0003
1377.0,0.0004
1376.0,0.0004
1375.0,0.0004
1374.0,0.0005
1373.0,0.0005
1372.0,0.0005
1371.0,0.0004
1370.0,0.0004
1369.0,0.0003
1368.0,0.0003
1367.0,0.0003
1366.0,0.0003
1365.0,0.0003
1364.0,0.0003
1363.0,0.0002
1362.0,0.0002
1361.0,0.0002
1360.0,0.0003
1359.0,0.0003
1358.0,0.0003
1357.0,0.0003
1356.0,0.0003
1355.0,0.0003
1354.0,0.0003
1353.0,0.0003
1352.0,0.0003
1351.0,0.0004
1350.0,0.0004
1349.0,0.0005
1348.0,0.0005
1347.0,0.0006
1346.0,0.0006
1345.0,0.0006
1344.0,0.0007
1343.0,0.0007
1342.0,0.0007
1341.0,0.0007
1340.0,0.0007
1339.0,0.0008
1338.0,0.0009
1337.0,0.0008
1336.0,0.0008
1335.0,0.0007
1334.0,0.0006
1333.0,0.0005
1332.0,0.0004
1331.0,0.0004
1330.0,0.0003
1329.0,0.0003
1328.0,0.0003
1327.0,0.0003
1326.0,0.0003
1325.0,0.0004
1324.0,0.0004
1323.0,0.0004
1322.0,0.0005
1321.0,0.0005
1320.0,0.0004
1319.0,0.0004
1318.0,0.0004
1317.0,0.0005
1316.0,0.0005
1315.0,0.0005
1314.0,0.0005
1313.0,0.0006
1312.0,0.0006
1311.0,0.0007
1310.0,0.0007
1309.0,0.0007
1308.0,0.0007
1307.0,0.0007
1306.0,0.0007
1305.0,0.0007
1304.0,0.0008
1303.0,0.0009
1302.0,0.0009
1301.0,0.001
1300.0,0.001
1299.0,0.0011
1298.0,0.0011
1297.0,0.0012
1296.0,0.0012
1295.0,0.0013
1294.0,0.0013
1293.0,0.0013
1292.0,0.0014
1291.0,0.0014
1290.0,0.0015
1289.0,0.0015
1288.0,0.0015
1287.0,0.0015
1286.0,0.0016
1285.0,0.0016
1284.0,0.0016
1283.0,0.0016
1282.0,0.0016
1281.0,0.0017
1280.0,0.0017
1279.0,0.0017
1278.0,0.0018
1277.0,0.0018
1276.0,0.0018
1275.0,0.0018
1274.0,0.0019
1273.0,0.0019
1272.0,0.002
1271.0,0.002
1270.0,0.0021
1269.0,0.0022
1268.0,0.0022
1267.0,0.0023
1266.0,0.0023
1265.0,0.0024
1264.0,0.0024
1263.0,0.0024
1262.0,0.0024
1261.0,0.0024
1260.0,0.0024
1259.0,0.0024
1258.0,0.0025
1257.0,0.0025
1256.0,0.0025
1255.0,0.0024
1254.0,0.0024
1253.0,0.0024
1252.0,0.0024
1251.0,0.0024
1250.0,0.0025
1249.0,0.0025
1248.0,0.0025
1247.0,0.0026
1246.0,0.0026
1245.0,0.0027
1244.0,0.0027
1243.0,0.0027
1242.0,0.0027
1241.0,0.0027
1240.0,0.0027
1239.0,0.0027
1238.0,0.0027
1237.0,0.0027
1236.0,0.0026
1235.0,0.0025
1234.0,0.0025
1233.0,0.0025
1232.0,0.0024
1231.0,0.0024
1230.0,0.0023
1229.0,0.0023
1228.0,0.0022
1227.0,0.0022
1226.0,0.0022
1225.0,0.0021
1224.0,0.002
1223.0,0.002
1222.0,0.0019
1221.0,0.0018
1220.0,0.0018
1219.0,0.0018
1218.0,0.0019
1217.0,0.0019
1216.0,0.0019
1215.0,0.0018
1214.0,0.0017
1213.0,0.0016
1212.0,0.0016
1211.0,0.0016
1210.0,0.0016
1209.0,0.0016
1208.0,0.0015
1207.0,0.0015
1206.0,0.0016
1205.0,0.0016
1204.0,0.0016
1203.0,0.0015
1202.0,0.0015
1201.0,0.0014
1200.0,0.0013
1199.0,0.0013
1198.0,0.0013
1197.0,0.0013
1196.0,0.0013
1195.0,0.0013
1194.0,0.0013
1193.0,0.0012
1192.0,0.0012
1191.0,0.0012
1190.0,0.0012
1189.0,0.0012
1188.0,0.0012
1187.0,0.0012
1186.0,0.0012
1185.0,0.0012
1184.0,0.0011
1183.0,0.0011
1182.0,0.0012
1181.0,0.0012
1180.0,0.0012
1179.0,0.0012
1178.0,0.0012
1177.0,0.0012
1176.0,0.0012
1175.0,0.0012
1174.0,0.0011
1173.0,0.0011
1172.0,0.0011
1171.0,0.0011
1170.0,0.0011
1169.0,0.0011
1168.0,0.001
1167.0,0.001
1166.0,0.0009
1165.0,0.0009
1164.0,0.0009
1163.0,0.0009
1162.0,0.001
1161.0,0.001
1160.0,0.001
1159.0,0.001
1158.0,0.001
1157.0,0.001
1156.0,0.0009
1155.0,0.0009
1154.0,0.0009
1153.0,0.0009
1152.0,0.0009
1151.0,0.0008
1150.0,0.0009
1149.0,0.0009
1148.0,0.001
1147.0,0.0011
1146.0,0.0012
1145.0,0.0012
1144.0,0.0013
1143.0,0.0013
1142.0,0.0014
1141.0,0.0014
1140.0,0.0015
1139.0,0.0015
1138.0,0.0015
1137.0,0.0015
1136.0,0.0016
1135.0,0.0017
1134.0,0.0018
1133.0,0.0018
1132.0,0.0019
1131.0,0.0019
1130.0,0.002
1129.0,0.002
1128.0,0.002
1127.0,0.0021
1126.0,0.0021
1125.0,0.0022
1124.0,0.0024
1123.0,0.0025
1122.0,0.0026
1121.0,0.0027
1120.0,0.0027
1119.0,0.0027
1118.0,0.0027
1117.0,0.0027
1116.0,0.0027
1115.0,0.0026
1114.0,0.0026
1113.0,0.0026
1112.0,0.0027
1111.0,0.0027
1110.0,0.0028
1109.0,0.0028
1108.0,0.0029
1107.0,0.0029
1106.0,0.003
1105.0,0.0031
1104.0,0.0032
1103.0,0.0033
1102.0,0.0033
1101.0,0.0034
1100.0,0.0034
1099.0,0.0035
1098.0,0.0035
1097.0,0.0035
1096.0,0.0036
1095.0,0.0037
1094.0,0.0038
1093.0,0.0038
1092.0,0.0037
1091.0,0.0036
1090.0,0.0035
1089.0,0.0036
1088.0,0.0036
1087.0,0.0035
1086.0,0.0034
1085.0,0.0033
1084.0,0.0032
1083.0,0.0031
1082.0,0.003
1081.0,0.0029
1080.0,0.0028
1079.0,0.0028
1078.0,0.0027
1077.0,0.0026
1076.0,0.0025
1075.0,0.0026
1074.0,0.0026
1073.0,0.0026
1072.0,0.0025
1071.0,0.0024
1070.0,0.0023
1069.0,0.0021
1068.0,0.002
1067.0,0.0019
1066.0,0.0019
1065.0,0.002
1064.0,0.0021
1063.0,0.0021
1062.0,0.0021
1061.0,0.002
1060.0,0.0019
1059.0,0.0019
1058.0,0.0019
1057.0,0.0018
1056.0,0.0018
1055.0,0.0018
1054.0,0.0018
1053.0,0.0018
1052.0,0.0019
1051.0,0.0019
1050.0,0.0019
1049.0,0.002
1048.0,0.002
1047.0,0.002
1046.0,0.002
1045.0,0.002
1044.0,0.002
1043.0,0.0021
1042.0,0.002
1041.0,0.002
1040.0,0.0019
1039.0,0.0019
1038.0,0.0018
1037.0,0.0017
1036.0,0.0017
1035.0,0.0018
1034.0,0.0018
1033.0,0.0018
1032.0,0.0018
1031.0,0.0018
1030.0,0.0018
1029.0,0.0017
1028.0,0.0017
1027.0,0.0017
1026.0,0.0018
1025.0,0.0019
1024.0,0.002
1023.0,0.0022
1022.0,0.0023
1021.0,0.0025
1020.0,0.0027
1019.0,0.003
1018.0,0.0031
1017.0,0.0032
1016.0,0.0033
1015.0,0.0033
1014.0,0.0032
1013.0,0.0032
1012.0,0.0031
1011.0,0.003
1010.0,0.0029
1009.0,0.0028
1008.0,0.0027
1007.0,0.0026
1006.0,0.0025
1005.0,0.0025
1004.0,0.0025
1003.0,0.0025
1002.0,0.0025
1001.0,0.0025
1000.0,0.0025
999.0,0.0025
998.0,0.0025
997.0,0.0025
996.0,0.0025
995.0,0.0025
994.0,0.0025
993.0,0.0024
992.0,0.0024
991.0,0.0024
990.0,0.0024
989.0,0.0024
988.0,0.0024
987.0,0.0025
986.0,0.0025
985.0,0.0025
984.0,0.0025
983.0,0.0024
982.0,0.0024
981.0,0.0024
980.0,0.0024
979.0,0.0023
978.0,0.0023
977.0,0.0024
976.0,0.0024
975.0,0.0026
974.0,0.0027
973.0,0.0027
972.0,0.0027
971.0,0.0026
970.0,0.0026
969.0,0.0025
968.0,0.0025
967.0,0.0026
966.0,0.0026
965.0,0.0025
964.0,0.0025
963.0,0.0025
962.0,0.0026
961.0,0.0026
960.0,0.0026
959.0,0.0026
958.0,0.0025
957.0,0.0025
956.0,0.0024
955.0,0.0024
954.0,0.0023
953.0,0.0023
952.0,0.0023
951.0,0.0023
950.0,0.0024
949.0,0.0024
948.0,0.0025
947.0,0.0025
946.0,0.0025
945.0,0.0024
944.0,0.0023
943.0,0.0022
942.0,0.0022
941.0,0.0022
940.0,0.0023
939.0,0.0023
938.0,0.0023
937.0,0.0023
936.0,0.0024
935.0,0.0024
934.0,0.0025
933.0,0.0025
932.0,0.0025
931.0,0.0025
930.0,0.0024
929.0,0.0023
928.0,0.0023
927.0,0.0023
926.0,0.0024
925.0,0.0024
924.0,0.0024
923.0,0.0024
922.0,0.0025
921.0,0.0025
920.0,0.0024
919.0,0.0023
918.0,0.0022
917.0,0.0022
916.0,0.0022
915.0,0.0022
914.0,0.0022
913.0,0.0022
912.0,0.0022
911.0,0.0022
910.0,0.0022
909.0,0.0021
908.0,0.0021
907.0,0.0021
906.0,0.0021
905.0,0.0021
904.0,0.0022
903.0,0.0024
902.0,0.0024
901.0,0.0025
900.0,0.0025
899.0,0.0024
898.0,0.0024
897.0,0.0024
896.0,0.0024
895.0,0.0025
894.0,0.0025
893.0,0.0024
892.0,0.0024
891.0,0.0023
890.0,0.0023
889.0,0.0022
888.0,0.0023
887.0,0.0024
886.0,0.0025
885.0,0.0026
884.0,0.0026
883.0,0.0026
882.0,0.0026
881.0,0.0026
880.0,0.0028
879.0,0.0029
878.0,0.0031
877.0,0.0032
876.0,0.0034
875.0,0.0036
874.0,0.0037
873.0,0.0038
872.0,0.0039
871.0,0.0038
870.0,0.0037
869.0,0.0035
868.0,0.0033
867.0,0.0033
866.0,0.0032
865.0,0.0031
864.0,0.003
863.0,0.0029
862.0,0.0029
861.0,0.003
860.0,0.0032
859.0,0.0032
858.0,0.0032
857.0,0.0032
856.0,0.003
855.0,0.003
854.0,0.003
853.0,0.0031
852.0,0.0032
851.0,0.0033
850.0,0.0033
849.0,0.0033
848.0,0.0032
847.0,0.0032
846.0,0.0032
845.0,0.0033
844.0,0.0033
843.0,0.0033
842.0,0.0033
841.0,0.0032
840.0,0.0032
839.0,0.0033
838.0,0.0034
837.0,0.0035
836.0,0.0034
835.0,0.0033
834.0,0.0032
833.0,0.0031
832.0,0.0031
831.0,0.0031
830.0,0.0031
829.0,0.0031
828.0,0.003
827.0,0.0029
826.0,0.0029
825.0,0.003
824.0,0.0032
823.0,0.0035
822.0,0.0036
821.0,0.0036
820.0,0.0034
819.0,0.0033
818.0,0.0033
817.0,0.0033
816.0,0.0033
815.0,0.0032
814.0,0.0031
813.0,0.0031
812.0,0.0031
811.0,0.0031
810.0,0.003
809.0,0.0029
808.0,0.0028
807.0,0.0029
806.0,0.0029
805.0,0.003
804.0,0.003
803.0,0.0031
802.0,0.0031
801.0,0.003
800.0,0.0029
799.0,0.0028
798.0,0.0029
797.0,0.003
796.0,0.0032
795.0,0.0033
794.0,0.0033
793.0,0.0033
792.0,0.0033
791.0,0.0034
790.0,0.0035
789.0,0.0035
788.0,0.0034
787.0,0.0033
786.0,0.0033
785.0,0.0031
784.0,0.0029
783.0,0.0028
782.0,0.0027
781.0,0.0028
780.0,0.0029
779.0,0.0029
778.0,0.0029
777.0,0.0029
776.0,0.0029
775.0,0.003
774.0,0.003
773.0,0.003
772.0,0.0029
771.0,0.0028
770.0,0.0027
769.0,0.0026
768.0,0.0025
767.0,0.0025
766.0,0.0027
765.0,0.0027
764.0,0.0026
763.0,0.0025
762.0,0.0024
761.0,0.0023
760.0,0.0023
759.0,0.0023
758.0,0.0023
757.0,0.0023
756.0,0.0022
755.0,0.0022
754.0,0.0023
753.0,0.0025
752.0,0.0027
751.0,0.0028
750.0,0.0026
749.0,0.0023
748.0,0.002
747.0,0.0016
746.0,0.0014
745.0,0.0013
744.0,0.0014
743.0,0.0016
742.0,0.002
741.0,0.0024
740.0,0.003
739.0,0.0035
738.0,0.0042
737.0,0.0048
736.0,0.0055
735.0,0.0063
734.0,0.0073
733.0,0.0083
732.0,0.0093
731.0,0.0101
730.0,0.0107
729.0,0.0114
728.0,0.0121
727.0,0.0128
726.0,0.0134
725.0,0.014
724.0,0.0143
723.0,0.0143
722.0,0.0141
721.0,0.0136
720.0,0.013
719.0,0.0122
718.0,0.0114
717.0,0.0106
716.0,0.0098
715.0,0.0092
714.0,0.0088
713.0,0.0086
712.0,0.0087
711.0,0.0087
710.0,0.0087
709.0,0.0086
708.0,0.0084
707.0,0.0083
706.0,0.0083
705.0,0.0084
704.0,0.0086
703.0,0.0086
702.0,0.0081
701.0,0.0075
700.0,0.007
699.0,0.0069
698.0,0.0069
697.0,0.007
696.0,0.0072
695.0,0.0075
694.0,0.0078
693.0,0.008
692.0,0.008
691.0,0.0079
690.0,0.0077
689.0,0.0076
688.0,0.0073
687.0,0.0067
686.0,0.0058
685.0,0.0049
684.0,0.0044
683.0,0.0047
682.0,0.0056
681.0,0.0066
680.0,0.0072
679.0,0.0071
678.0,0.007
677.0,0.0071
676.0,0.0075
675.0,0.0078
674.0,0.0076
673.0,0.007
672.0,0.0065
671.0,0.0062
670.0,0.006
669.0,0.0053
668.0,0.0047
667.0,0.0055
666.0,0.0064
665.0,0.0066
664.0,0.0064
663.0,0.0063
662.0,0.0066
661.0,0.007
660.0,0.0073
659.0,0.0072
658.0,0.0067
657.0,0.006
656.0,0.0053
655.0,0.0051
654.0,0.0051
653.0,0.0052
652.0,0.0055
651.0,0.0058
650.0,0.0061
649.0,0.0062
648.0,0.006
647.0,0.0057
646.0,0.0056
645.0,0.0057
644.0,0.0059
643.0,0.0061
642.0,0.0062
641.0,0.0064
640.0,0.0066
639.0,0.0066
638.0,0.0061
637.0,0.0053
636.0,0.0048
635.0,0.0052
634.0,0.0062
633.0,0.007
632.0,0.0071
631.0,0.0069
630.0,0.0067
629.0,0.0065
628.0,0.0062
627.0,0.0056
626.0,0.0049
625.0,0.0044
624.0,0.0044
623.0,0.0051
622.0,0.006
621.0,0.0067
620.0,0.007
619.0,0.0068
618.0,0.0066
617.0,0.0066
616.0,0.0071
615.0,0.0076
614.0,0.0078
613.0,0.0076
612.0,0.0073
611.0,0.0072
610.0,0.0069
609.0,0.0065
608.0,0.0061
607.0,0.006
606.0,0.0063
605.0,0.0068
604.0,0.0076
603.0,0.0087
602.0,0.0097
601.0,0.0104
600.0,0.0111
