cm-1,A
4000.0,0.0092
3999.0,0.0092
3998.0,0.0091
3997.0,0.0091
3996.0,0.0091
3995.0,0.0091
3994.0,0.0091
3993.0,0.0091
3992.0,0.0091
3991.0,0.0091
3990.0,0.0091
3989.0,0.0091
3988.0,0.0091
3987.0,0.0091
3986.0,0.009
3985.0,0.009
3984.0,0.009
3983.0,0.0091
3982.0,0.0092
3981.0,0.0092
3980.0,0.0093
3979.0,0.0093
3978.0,0.0093
3977.0,0.0093
3976.0,0.0092
3975.0,0.0092
3974.0,0.0093
3973.0,0.0093
3972.0,0.0093
3971.0,0.0093
3970.0,0.0093
3969.0,0.0093
3968.0,0.0093
3967.0,0.0092
3966.0,0.0092
3965.0,0.0092
3964.0,0.0092
3963.0,0.0091
3962.0,0.009
3961.0,0.009
3960.0,0.009
3959.0,0.009
3958.0,0.009
3957.0,0.0091
3956.0,0.0091
3955.0,0.0092
3954.0,0.0092
3953.0,0.0092
3952.0,0.0092
3951.0,0.0092
3950.0,0.0091
3949.0,0.009
3948.0,0.0089
3947.0,0.0088
3946.0,0.0088
3945.0,0.0088
3944.0,0.0089
3943.0,0.0089
3942.0,0.0089
3941.0,0.0089
3940.0,0.009
3939.0,0.0091
3938.0,0.0092
3937.0,0.0092
3936.0,0.0092
3935.0,0.0092
3934.0,0.0092
3933.0,0.0092
3932.0,0.0091
3931.0,0.009
3930.0,0.0089
3929.0,0.009
3928.0,0.0091
3927.0,0.0093
3926.0,0.0094
3925.0,0.0094
3924.0,0.0093
3923.0,0.0092
3922.0,0.0092
3921.0,0.0093
3920.0,0.0093
3919.0,0.0093
3918.0,0.0093
3917.0,0.0093
3916.0,0.0093
3915.0,0.0094
3914.0,0.0096
3913.0,0.0097
3912.0,0.0097
3911.0,0.0096
3910.0,0.0095
3909.0,0.0093
3908.0,0.0092
3907.0,0.0091
3906.0,0.009
3905.0,0.0089
3904.0,0.0088
3903.0,0.0087
3902.0,0.0088
3901.0,0.0089
3900.0,0.0091
3899.0,0.0092
3898.0,0.0093
3897.0,0.0093
3896.0,0.0093
3895.0,0.0094
3894.0,0.0094
3893.0,0.0095
3892.0,0.0096
3891.0,0.0095
3890.0,0.0093
3889.0,0.0092
3888.0,0.0091
3887.0,0.0091
3886.0,0.0091
3885.0,0.0091
3884.0,0.0091
3883.0,0.0091
3882.0,0.0091
3881.0,0.0091
3880.0,0.0091
3879.0,0.0091
3878.0,0.0092
3877.0,0.0092
3876.0,0.0092
3875.0,0.0091
3874.0,0.009
3873.0,0.0089
3872.0,0.0089
3871.0,0.009
3870.0,0.009
3869.0,0.009
3868.0,0.009
3867.0,0.0091
3866.0,0.0092
3865.0,0.0093
3864.0,0.0093
3863.0,0.0092
3862.0,0.0091
3861.0,0.0091
3860.0,0.009
3859.0,0.009
3858.0,0.0089
3857.0,0.0088
3856.0,0.0087
3855.0,0.0089
3854.0,0.0091
3853.0,0.0091
3852.0,0.0091
3851.0,0.0093
3850.0,0.0096
3849.0,0.0097
3848.0,0.0097
3847.0,0.0096
3846.0,0.0096
3845.0,0.0095
3844.0,0.0094
3843.0,0.0092
3842.0,0.0089
3841.0,0.0087
3840.0,0.0087
3839.0,0.0088
3838.0,0.0088
3837.0,0.0089
3836.0,0.0089
3835.0,0.0091
3834.0,0.0092
3833.0,0.0093
3832.0,0.0093
3831.0,0.0093
3830.0,0.0094
3829.0,0.0095
3828.0,0.0096
3827.0,0.0097
3826.0,0.0096
3825.0,0.0094
3824.0,0.0093
3823.0,0.0092
3822.0,0.0092
3821.0,0.0093
3820.0,0.0093
3819.0,0.0094
3818.0,0.0096
3817.0,0.0097
3816.0,0.0097
3815.0,0.0097
3814.0,0.0098
3813.0,0.0099
3812.0,0.01
3811.0,0.0099
3810.0,0.0099
3809.0,0.0099
3808.0,0.0098
3807.0,0.0096
3806.0,0.0094
3805.0,0.0093
3804.0,0.0094
3803.0,0.0096
3802.0,0.0097
3801.0,0.0096
3800.0,0.0094
3799.0,0.0095
3798.0,0.0097
3797.0,0.0099
3796.0,0.01
3795.0,0.01
3794.0,0.0101
3793.0,0.0101
3792.0,0.01
3791.0,0.0099
3790.0,0.0098
3789.0,0.0098
3788.0,0.0098
3787.0,0.0099
3786.0,0.0099
3785.0,0.0099
3784.0,0.0098
3783.0,0.0098
3782.0,0.0097
3781.0,0.0097
3780.0,0.0097
3779.0,0.0097
3778.0,0.0098
3777.0,0.0099
3776.0,0.0099
3775.0,0.0099
3774.0,0.0099
3773.0,0.0098
3772.0,0.0098
3771.0,0.0098
3770.0,0.0099
3769.0,0.0099
3768.0,0.0099
3767.0,0.01
3766.0,0.0099
3765.0,0.0098
3764.0,0.0097
3763.0,0.0096
3762.0,0.0096
3761.0,0.0096
3760.0,0.0097
3759.0,0.0098
3758.0,0.0097
3757.0,0.0096
3756.0,0.0095
3755.0,0.0095
3754.0,0.0095
3753.0,0.0096
3752.0,0.0096
3751.0,0.0097
3750.0,0.0095
3749.0,0.0094
3748.0,0.0094
3747.0,0.0096
3746.0,0.0098
3745.0,0.0101
3744.0,0.0101
3743.0,0.01
3742.0,0.01
3741.0,0.0099
3740.0,0.0097
3739.0,0.0095
3738.0,0.0094
3737.0,0.0094
3736.0,0.0096
3735.0,0.0097
3734.0,0.0098
3733.0,0.0099
3732.0,0.0101
3731.0,0.0103
3730.0,0.0105
3729.0,0.0105
3728.0,0.0105
3727.0,0.0104
3726.0,0.0102
3725.0,0.0101
3724.0,0.0101
3723.0,0.0102
3722.0,0.0102
3721.0,0.0102
3720.0,0.0102
3719.0,0.0102
3718.0,0.0102
3717.0,0.0101
3716.0,0.0101
3715.0,0.0101
3714.0,0.0101
3713.0,0.0102
3712.0,0.0104
3711.0,0.0106
3710.0,0.0107
3709.0,0.0107
3708.0,0.0107
3707.0,0.0107
3706.0,0.0106
3705.0,0.0105
3704.0,0.0105
3703.0,0.0105
3702.0,0.0104
3701.0,0.0104
3700.0,0.0104
3699.0,0.0105
3698.0,0.0105
3697.0,0.0105
3696.0,0.0104
3695.0,0.0104
3694.0,0.0104
3693.0,0.0103
3692.0,0.0103
3691.0,0.0102
3690.0,0.0101
3689.0,0.0101
3688.0,0.0101
3687.0,0.0102
3686.0,0.0103
3685.0,0.0105
3684.0,0.0106
3683.0,0.0107
3682.0,0.0107
3681.0,0.0107
3680.0,0.0107
3679.0,0.0105
3678.0,0.0104
3677.0,0.0102
3676.0,0.01
3675.0,0.0097
3674.0,0.0096
3673.0,0.0098
3672.0,0.0101
3671.0,0.0104
3670.0,0.0106
3669.0,0.0106
3668.0,0.0106
3667.0,0.0107
3666.0,0.0108
3665.0,0.0108
3664.0,0.0108
3663.0,0.0108
3662.0,0.0107
3661.0,0.0106
3660.0,0.0104
3659.0,0.0102
3658.0,0.0102
3657.0,0.0103
3656.0,0.0104
3655.0,0.0105
3654.0,0.0104
3653.0,0.0103
3652.0,0.01
3651.0,0.0098
3650.0,0.0098
3649.0,0.0101
3648.0,0.0102
3647.0,0.0105
3646.0,0.0107
3645.0,0.0109
3644.0,0.011
3643.0,0.011
3642.0,0.011
3641.0,0.011
3640.0,0.011
3639.0,0.0111
3638.0,0.0111
3637.0,0.0112
3636.0,0.0113
3635.0,0.0114
3634.0,0.0113
3633.0,0.0112
3632.0,0.0111
3631.0,0.011
3630.0,0.0111
3629.0,0.0112
3628.0,0.0111
3627.0,0.0111
3626.0,0.0112
3625.0,0.0112
3624.0,0.0112
3623.0,0.0111
3622.0,0.0109
3621.0,0.0107
3620.0,0.0107
3619.0,0.0108
3618.0,0.011
3617.0,0.0113
3616.0,0.0114
3615.0,0.0113
3614.0,0.0112
3613.0,0.0111
3612.0,0.0112
3611.0,0.0114
3610.0,0.0118
3609.0,0.0122
3608.0,0.0124
3607.0,0.0124
3606.0,0.0123
3605.0,0.0123
3604.0,0.0123
3603.0,0.0123
3602.0,0.0124
3601.0,0.0125
3600.0,0.0125
3599.0,0.0124
3598.0,0.0124
3597.0,0.0123
3596.0,0.0123
3595.0,0.0122
3594.0,0.0121
3593.0,0.012
3592.0,0.0119
3591.0,0.0119
3590.0,0.0119
3589.0,0.012
3588.0,0.0122
3587.0,0.0123
3586.0,0.0123
3585.0,0.0124
3584.0,0.0124
3583.0,0.0125
3582.0,0.0125
3581.0,0.0125
3580.0,0.0124
3579.0,0.0124
3578.0,0.0124
3577.0,0.0124
3576.0,0.0125
3575.0,0.0126
3574.0,0.0127
3573.0,0.0127
3572.0,0.0127
3571.0,0.0127
3570.0,0.0126
3569.0,0.0125
3568.0,0.0124
3567.0,0.0125
3566.0,0.0125
3565.0,0.0126
3564.0,0.0127
3563.0,0.0127
3562.0,0.0127
3561.0,0.0127
3560.0,0.0127
3559.0,0.0129
3558.0,0.0131
3557.0,0.0132
3556.0,0.0133
3555.0,0.0133
3554.0,0.0133
3553.0,0.0133
3552.0,0.0133
3551.0,0.0133
3550.0,0.0133
3549.0,0.0133
3548.0,0.0133
3547.0,0.0133
3546.0,0.0134
3545.0,0.0134
3544.0,0.0134
3543.0,0.0135
3542.0,0.0135
3541.0,0.0136
3540.0,0.0135
3539.0,0.0136
3538.0,0.0136
3537.0,0.0137
3536.0,0.0138
3535.0,0.0138
3534.0,0.0138
3533.0,0.0138
3532.0,0.0139
3531.0,0.014
3530.0,0.0141
3529.0,0.0142
3528.0,0.0141
3527.0,0.0141
3526.0,0.014
3525.0,0.0139
3524.0,0.0139
3523.0,0.0139
3522.0,0.0139
3521.0,0.0139
3520.0,0.014
3519.0,0.0142
3518.0,0.0143
3517.0,0.0144
3516.0,0.0144
3515.0,0.0144
3514.0,0.0144
3513.0,0.0145
3512.0,0.0146
3511.0,0.0147
3510.0,0.0147
3509.0,0.0147
3508.0,0.0147
3507.0,0.0146
3506.0,0.0145
3505.0,0.0144
3504.0,0.0144
3503.0,0.0144
3502.0,0.0145
3501.0,0.0146
3500.0,0.0147
3499.0,0.0148
3498.0,0.0149
3497.0,0.0149
3496.0,0.015
3495.0,0.0152
3494.0,0.0153
3493.0,0.0153
3492.0,0.0152
3491.0,0.0151
3490.0,0.0151
3489.0,0.015
3488.0,0.015
3487.0,0.015
3486.0,0.015
3485.0,0.015
3484.0,0.0151
3483.0,0.0152
3482.0,0.0153
3481.0,0.0152
3480.0,0.0152
3479.0,0.0153
3478.0,0.0154
3477.0,0.0154
3476.0,0.0155
3475.0,0.0155
3474.0,0.0156
3473.0,0.0157
3472.0,0.0157
3471.0,0.0156
3470.0,0.0156
3469.0,0.0156
3468.0,0.0157
3467.0,0.0159
3466.0,0.016
3465.0,0.0161
3464.0,0.016
3463.0,0.0159
3462.0,0.0157
3461.0,0.0157
3460.0,0.0157
3459.0,0.0157
3458.0,0.0159
3457.0,0.0161
3456.0,0.0163
3455.0,0.0163
3454.0,0.0163
3453.0,0.0163
3452.0,0.0162
3451.0,0.0161
3450.0,0.0159
3449.0,0.0158
3448.0,0.0159
3447.0,0.016
3446.0,0.0161
3445.0,0.016
3444.0,0.0159
3443.0,0.0158
3442.0,0.0158
3441.0,0.016
3440.0,0.0161
3439.0,0.0162
3438.0,0.0163
3437.0,0.0163
3436.0,0.0164
3435.0,0.0164
3434.0,0.0165
3433.0,0.0165
3432.0,0.0166
3431.0,0.0166
3430.0,0.0165
3429.0,0.0165
3428.0,0.0164
3427.0,0.0164
3426.0,0.0165
3425.0,0.0166
3424.0,0.0167
3423.0,0.0167
3422.0,0.0167
3421.0,0.0167
3420.0,0.0166
3419.0,0.0166
3418.0,0.0166
3417.0,0.0167
3416.0,0.0169
3415.0,0.017
3414.0,0.017
3413.0,0.017
3412.0,0.0169
3411.0,0.0168
3410.0,0.0166
3409.0,0.0165
3408.0,0.0165
3407.0,0.0166
3406.0,0.0167
3405.0,0.0168
3404.0,0.0169
3403.0,0.0169
3402.0,0.0169
3401.0,0.0169
3400.0,0.0169
3399.0,0.0169
3398.0,0.0169
3397.0,0.0168
3396.0,0.0168
3395.0,0.0167
3394.0,0.0166
3393.0,0.0167
3392.0,0.0168
3391.0,0.0169
3390.0,0.017
3389.0,0.0171
3388.0,0.0171
3387.0,0.0171
3386.0,0.017
3385.0,0.0169
3384.0,0.0169
3383.0,0.0169
3382.0,0.017
3381.0,0.0171
3380.0,0.0171
3379.0,0.017
3378.0,0.017
3377.0,0.017
3376.0,0.017
3375.0,0.017
3374.0,0.0169
3373.0,0.0169
3372.0,0.0169
3371.0,0.0169
3370.0,0.0169
3369.0,0.017
3368.0,0.017
3367.0,0.017
3366.0,0.017
3365.0,0.017
3364.0,0.0169
3363.0,0.0169
3362.0,0.0169
3361.0,0.0168
3360.0,0.0168
3359.0,0.0169
3358.0,0.0169
3357.0,0.0169
3356.0,0.0169
3355.0,0.0168
3354.0,0.0168
3353.0,0.0168
3352.0,0.0168
3351.0,0.0168
3350.0,0.0167
3349.0,0.0166
3348.0,0.0166
3347.0,0.0165
3346.0,0.0166
3345.0,0.0167
3344.0,0.0168
3343.0,0.0169
3342.0,0.0169
3341.0,0.0168
3340.0,0.0167
3339.0,0.0165
3338.0,0.0164
3337.0,0.0164
3336.0,0.0164
3335.0,0.0165
3334.0,0.0166
3333.0,0.0166
3332.0,0.0166
3331.0,0.0165
3330.0,0.0164
3329.0,0.0163
3328.0,0.0162
3327.0,0.0161
3326.0,0.0162
3325.0,0.0163
3324.0,0.0164
3323.0,0.0166
3322.0,0.0167
3321.0,0.0167
3320.0,0.0166
3319.0,0.0165
3318.0,0.0163
3317.0,0.0162
3316.0,0.0161
3315.0,0.016
3314.0,0.0159
3313.0,0.0159
3312.0,0.0159
3311.0,0.0158
3310.0,0.0158
3309.0,0.0157
3308.0,0.0156
3307.0,0.0156
3306.0,0.0156
3305.0,0.0156
3304.0,0.0157
3303.0,0.0157
3302.0,0.0157
3301.0,0.0158
3300.0,0.0157
3299.0,0.0157
3298.0,0.0156
3297.0,0.0156
3296.0,0.0157
3295.0,0.0158
3294.0,0.0158
3293.0,0.0158
3292.0,0.0156
3291.0,0.0155
3290.0,0.0155
3289.0,0.0156
3288.0,0.0156
3287.0,0.0156
3286.0,0.0155
3285.0,0.0154
3284.0,0.0155
3283.0,0.0156
3282.0,0.0157
3281.0,0.0157
3280.0,0.0156
3279.0,0.0155
3278.0,0.0154
3277.0,0.0154
3276.0,0.0154
3275.0,0.0154
3274.0,0.0154
3273.0,0.0154
3272.0,0.0154
3271.0,0.0154
3270.0,0.0154
3269.0,0.0153
3268.0,0.0152
3267.0,0.0151
3266.0,0.0151
3265.0,0.015
3264.0,0.015
3263.0,0.015
3262.0,0.015
3261.0,0.015
3260.0,0.015
3259.0,0.0151
3258.0,0.0152
3257.0,0.0152
3256.0,0.0151
3255.0,0.0149
3254.0,0.0147
3253.0,0.0147
3252.0,0.0147
3251.0,0.0147
3250.0,0.0146
3249.0,0.0145
3248.0,0.0144
3247.0,0.0144
3246.0,0.0144
3245.0,0.0144
3244.0,0.0145
3243.0,0.0146
3242.0,0.0146
3241.0,0.0147
3240.0,0.0146
3239.0,0.0145
3238.0,0.0144
3237.0,0.0144
3236.0,0.0144
3235.0,0.0144
3234.0,0.0144
3233.0,0.0144
3232.0,0.0144
3231.0,0.0143
3230.0,0.0143
3229.0,0.0144
3228.0,0.0144
3227.0,0.0144
3226.0,0.0144
3225.0,0.0143
3224.0,0.0143
3223.0,0.0143
3222.0,0.0143
3221.0,0.0143
3220.0,0.0143
3219.0,0.0143
3218.0,0.0143
3217.0,0.0142
3216.0,0.0141
3215.0,0.0141
3214.0,0.0141
3213.0,0.0141
3212.0,0.0141
3211.0,0.0141
3210.0,0.0141
3209.0,0.014
3208.0,0.014
3207.0,0.0139
3206.0,0.0139
3205.0,0.0138
3204.0,0.0137
3203.0,0.0136
3202.0,0.0136
3201.0,0.0136
3200.0,0.0136
3199.0,0.0136
3198.0,0.0135
3197.0,0.0134
3196.0,0.0133
3195.0,0.0132
3194.0,0.0132
3193.0,0.0131
3192.0,0.0131
3191.0,0.0131
3190.0,0.0132
3189.0,0.0132
3188.0,0.0132
3187.0,0.0131
3186.0,0.0129
3185.0,0.0128
3184.0,0.0128
3183.0,0.0128
3182.0,0.0128
3181.0,0.0127
3180.0,0.0127
3179.0,0.0127
3178.0,0.0128
3177.0,0.0129
3176.0,0.0129
3175.0,0.0129
3174.0,0.0127
3173.0,0.0126
3172.0,0.0126
3171.0,0.0125
3170.0,0.0125
3169.0,0.0124
3168.0,0.0125
3167.0,0.0125
3166.0,0.0126
3165.0,0.0126
3164.0,0.0126
3163.0,0.0125
3162.0,0.0124
3161.0,0.0123
3160.0,0.0122
3159.0,0.0122
3158.0,0.0123
3157.0,0.0123
3156.0,0.0124
3155.0,0.0123
3154.0,0.0123
3153.0,0.0122
3152.0,0.0121
3151.0,0.012
3150.0,0.012
3149.0,0.012
3148.0,0.012
3147.0,0.0119
3146.0,0.0119
3145.0,0.0117
3144.0,0.0116
3143.0,0.0116
3142.0,0.0115
3141.0,0.0115
3140.0,0.0115
3139.0,0.0115
3138.0,0.0115
3137.0,0.0114
3136.0,0.0113
3135.0,0.0112
3134.0,0.0112
3133.0,0.0113
3132.0,0.0113
3131.0,0.0113
3130.0,0.0113
3129.0,0.0112
3128.0,0.0112
3127.0,0.0112
3126.0,0.0112
3125.0,0.0113
3124.0,0.0113
3123.0,0.0113
3122.0,0.0113
3121.0,0.0112
3120.0,0.0112
3119.0,0.0111
3118.0,0.011
3117.0,0.011
3116.0,0.011
3115.0,0.0109
3114.0,0.0109
3113.0,0.0109
3112.0,0.0108
3111.0,0.0107
3110.0,0.0107
3109.0,0.0107
3108.0,0.0108
3107.0,0.0108
3106.0,0.0107
3105.0,0.0107
3104.0,0.0107
3103.0,0.0106
3102.0,0.0106
3101.0,0.0107
3100.0,0.0107
3099.0,0.0108
3098.0,0.0108
3097.0,0.0108
3096.0,0.0108
3095.0,0.0108
3094.0,0.0107
3093.0,0.0106
3092.0,0.0106
3091.0,0.0106
3090.0,0.0106
3089.0,0.0105
3088.0,0.0105
3087.0,0.0104
3086.0,0.0105
3085.0,0.0105
3084.0,0.0106
3083.0,0.0106
3082.0,0.0106
3081.0,0.0105
3080.0,0.0104
3079.0,0.0103
3078.0,0.0103
3077.0,0.0103
3076.0,0.0102
3075.0,0.0102
3074.0,0.0102
3073.0,0.0102
3072.0,0.0101
3071.0,0.01
3070.0,0.0099
3069.0,0.0097
3068.0,0.0096
3067.0,0.0096
3066.0,0.0097
3065.0,0.0098
3064.0,0.0098
3063.0,0.0098
3062.0,0.0098
3061.0,0.0098
3060.0,0.0098
3059.0,0.0097
3058.0,0.0097
3057.0,0.0096
3056.0,0.0096
3055.0,0.0096
3054.0,0.0096
3053.0,0.0095
3052.0,0.0095
3051.0,0.0094
3050.0,0.0094
3049.0,0.0093
3048.0,0.0093
3047.0,0.0093
3046.0,0.0094
3045.0,0.0095
3044.0,0.0095
3043.0,0.0096
3042.0,0.0096
3041.0,0.0096
3040.0,0.0095
3039.0,0.0095
3038.0,0.0094
3037.0,0.0093
3036.0,0.0093
3035.0,0.0092
3034.0,0.0092
3033.0,0.0092
3032.0,0.0092
3031.0,0.0092
3030.0,0.0091
3029.0,0.0091
3028.0,0.009
3027.0,0.0089
3026.0,0.0089
3025.0,0.0089
3024.0,0.0088
3023.0,0.0087
3022.0,0.0086
3021.0,0.0085
3020.0,0.0084
3019.0,0.0084
3018.0,0.0084
3017.0,0.0085
3016.0,0.0085
3015.0,0.0085
3014.0,0.0084
3013.0,0.0083
3012.0,0.0083
3011.0,0.0082
3010.0,0.0082
3009.0,0.0082
3008.0,0.0082
3007.0,0.0081
3006.0,0.008
3005.0,0.0079
3004.0,0.0079
3003.0,0.0079
3002.0,0.0079
3001.0,0.0079
3000.0,0.0078
2999.0,0.0078
2998.0,0.0078
2997.0,0.0077
2996.0,0.0077
2995.0,0.0076
2994.0,0.0075
2993.0,0.0074
2992.0,0.0074
2991.0,0.0073
2990.0,0.0072
2989.0,0.0072
2988.0,0.0072
2987.0,0.0072
2986.0,0.0072
2985.0,0.0072
2984.0,0.0072
2983.0,0.0072
2982.0,0.0073
2981.0,0.0073
2980.0,0.0073
2979.0,0.0074
2978.0,0.0075
2977.0,0.0076
2976.0,0.0078
2975.0,0.0079
2974.0,0.008
2973.0,0.0082
2972.0,0.0084
2971.0,0.0086
2970.0,0.0089
2969.0,0.0092
2968.0,0.0095
2967.0,0.0097
2966.0,0.01
2965.0,0.0102
2964.0,0.0105
2963.0,0.0109
2962.0,0.0112
2961.0,0.0116
2960.0,0.0119
2959.0,0.0123
2958.0,0.0126
2957.0,0.0128
2956.0,0.0131
2955.0,0.0134
2954.0,0.0137
2953.0,0.0139
2952.0,0.0142
2951.0,0.0145
2950.0,0.0149
2949.0,0.0156
2948.0,0.0165
2947.0,0.0177
2946.0,0.0191
2945.0,0.0206
2944.0,0.0225
2943.0,0.0245
2942.0,0.0269
2941.0,0.0295
2940.0,0.0324
2939.0,0.0357
2938.0,0.0393
2937.0,0.0432
2936.0,0.0475
2935.0,0.0521
2934.0,0.0571
2933.0,0.0626
2932.0,0.0685
2931.0,0.075
2930.0,0.0821
2929.0,0.0898
2928.0,0.0983
2927.0,0.1076
2926.0,0.1177
2925.0,0.1287
2924.0,0.1408
2923.0,0.1537
2922.0,0.1673
2921.0,0.1811
2920.0,0.1943
2919.0,0.2061
2918.0,0.215
2917.0,0.22
2916.0,0.2203
2915.0,0.216
2914.0,0.208
2913.0,0.1976
2912.0,0.1863
2911.0,0.1752
2910.0,0.165
2909.0,0.1558
2908.0,0.1479
2907.0,0.141
2906.0,0.1352
2905.0,0.1301
2904.0,0.1257
2903.0,0.1218
2902.0,0.1184
2901.0,0.1154
2900.0,0.1127
2899.0,0.1101
2898.0,0.1075
2897.0,0.105
2896.0,0.1026
2895.0,0.1001
2894.0,0.0977
2893.0,0.0953
2892.0,0.0928
2891.0,0.0903
2890.0,0.0877
2889.0,0.0851
2888.0,0.0824
2887.0,0.0796
2886.0,0.0769
2885.0,0.0742
2884.0,0.0716
2883.0,0.069
2882.0,0.0664
2881.0,0.0638
2880.0,0.0613
2879.0,0.0589
2878.0,0.0565
2877.0,0.0543
2876.0,0.0523
2875.0,0.0505
2874.0,0.0489
2873.0,0.0474
2872.0,0.0463
2871.0,0.0453
2870.0,0.0445
2869.0,0.044
2868.0,0.0437
2867.0,0.0437
2866.0,0.0441
2865.0,0.045
2864.0,0.0464
2863.0,0.0485
2862.0,0.0514
2861.0,0.0551
2860.0,0.06
2859.0,0.0662
2858.0,0.0739
2857.0,0.0834
2856.0,0.0949
2855.0,0.1088
2854.0,0.125
2853.0,0.1432
2852.0,0.1624
2851.0,0.1802
2850.0,0.1937
2849.0,0.2001
2848.0,0.198
2847.0,0.1884
2846.0,0.1739
2845.0,0.1574
2844.0,0.1411
2843.0,0.1262
2842.0,0.1134
2841.0,0.1026
2840.0,0.0938
2839.0,0.0865
2838.0,0.0804
2837.0,0.0753
2836.0,0.0708
2835.0,0.067
2834.0,0.0637
2833.0,0.061
2832.0,0.0585
2831.0,0.0564
2830.0,0.0544
2829.0,0.0527
2828.0,0.0511
2827.0,0.0497
2826.0,0.0484
2825.0,0.0472
2824.0,0.0461
2823.0,0.0451
2822.0,0.044
2821.0,0.0431
2820.0,0.0422
2819.0,0.0414
2818.0,0.0407
2817.0,0.04
2816.0,0.0395
2815.0,0.039
2814.0,0.0386
2813.0,0.038
2812.0,0.0375
2811.0,0.037
2810.0,0.0366
2809.0,0.0363
2808.0,0.0359
2807.0,0.0354
2806.0,0.0349
2805.0,0.0345
2804.0,0.0341
2803.0,0.0337
2802.0,0.0333
2801.0,0.0329
2800.0,0.0325
2799.0,0.0321
2798.0,0.0318
2797.0,0.0316
2796.0,0.0314
2795.0,0.0312
2794.0,0.0309
2793.0,0.0306
2792.0,0.0303
2791.0,0.0299
2790.0,0.0296
2789.0,0.0292
2788.0,0.029
2787.0,0.0289
2786.0,0.0287
2785.0,0.0286
2784.0,0.0284
2783.0,0.0282
2782.0,0.028
2781.0,0.0278
2780.0,0.0276
2779.0,0.0275
2778.0,0.0273
2777.0,0.027
2776.0,0.0268
2775.0,0.0266
2774.0,0.0264
2773.0,0.0262
2772.0,0.026
2771.0,0.0259
2770.0,0.0257
2769.0,0.0256
2768.0,0.0256
2767.0,0.0255
2766.0,0.0253
2765.0,0.0252
2764.0,0.025
2763.0,0.0248
2762.0,0.0246
2761.0,0.0245
2760.0,0.0244
2759.0,0.0244
2758.0,0.0244
2757.0,0.0244
2756.0,0.0243
2755.0,0.0241
2754.0,0.024
2753.0,0.0239
2752.0,0.0239
2751.0,0.0238
2750.0,0.0238
2749.0,0.0237
2748.0,0.0237
2747.0,0.0236
2746.0,0.0235
2745.0,0.0235
2744.0,0.0234
2743.0,0.0233
2742.0,0.0232
2741.0,0.0232
2740.0,0.0232
2739.0,0.0232
2738.0,0.0231
2737.0,0.023
2736.0,0.0229
2735.0,0.0228
2734.0,0.0227
2733.0,0.0227
2732.0,0.0227
2731.0,0.0227
2730.0,0.0226
2729.0,0.0225
2728.0,0.0224
2727.0,0.0224
2726.0,0.0223
2725.0,0.0223
2724.0,0.0222
2723.0,0.0221
2722.0,0.0221
2721.0,0.022
2720.0,0.0219
2719.0,0.0218
2718.0,0.0218
2717.0,0.0217
2716.0,0.0217
2715.0,0.0217
2714.0,0.0217
2713.0,0.0216
2712.0,0.0216
2711.0,0.0215
2710.0,0.0214
2709.0,0.0214
2708.0,0.0214
2707.0,0.0214
2706.0,0.0213
2705.0,0.0212
2704.0,0.0211
2703.0,0.0211
2702.0,0.021
2701.0,0.021
2700.0,0.021
2699.0,0.021
2698.0,0.021
2697.0,0.021
2696.0,0.0209
2695.0,0.0209
2694.0,0.0208
2693.0,0.0208
2692.0,0.0208
2691.0,0.0207
2690.0,0.0207
2689.0,0.0206
2688.0,0.0206
2687.0,0.0205
2686.0,0.0205
2685.0,0.0205
2684.0,0.0205
2683.0,0.0205
2682.0,0.0205
2681.0,0.0204
2680.0,0.0204
2679.0,0.0205
2678.0,0.0205
2677.0,0.0206
2676.0,0.0206
2675.0,0.0205
2674.0,0.0205
2673.0,0.0205
2672.0,0.0206
2671.0,0.0206
2670.0,0.0206
2669.0,0.0205
2668.0,0.0205
2667.0,0.0204
2666.0,0.0204
2665.0,0.0204
2664.0,0.0204
2663.0,0.0204
2662.0,0.0204
2661.0,0.0205
2660.0,0.0205
2659.0,0.0206
2658.0,0.0205
2657.0,0.0204
2656.0,0.0203
2655.0,0.0202
2654.0,0.0201
2653.0,0.0201
2652.0,0.02
2651.0,0.02
2650.0,0.0201
2649.0,0.0201
2648.0,0.0202
2647.0,0.0202
2646.0,0.0202
2645.0,0.0202
2644.0,0.0202
2643.0,0.0203
2642.0,0.0203
2641.0,0.0202
2640.0,0.0202
2639.0,0.0201
2638.0,0.0201
2637.0,0.0201
2636.0,0.0201
2635.0,0.0201
2634.0,0.02
2633.0,0.02
2632.0,0.02
2631.0,0.02
2630.0,0.02
2629.0,0.02
2628.0,0.0199
2627.0,0.0198
2626.0,0.0197
2625.0,0.0196
2624.0,0.0195
2623.0,0.0194
2622.0,0.0194
2621.0,0.0194
2620.0,0.0194
2619.0,0.0195
2618.0,0.0196
2617.0,0.0196
2616.0,0.0195
2615.0,0.0194
2614.0,0.0193
2613.0,0.0192
2612.0,0.0191
2611.0,0.019
2610.0,0.019
2609.0,0.0191
2608.0,0.0191
2607.0,0.0191
2606.0,0.0191
2605.0,0.019
2604.0,0.0189
2603.0,0.0189
2602.0,0.0189
2601.0,0.0189
2600.0,0.0189
2599.0,0.0188
2598.0,0.0187
2597.0,0.0187
2596.0,0.0186
2595.0,0.0186
2594.0,0.0185
2593.0,0.0185
2592.0,0.0185
2591.0,0.0184
2590.0,0.0184
2589.0,0.0183
2588.0,0.0183
2587.0,0.0183
2586.0,0.0183
2585.0,0.0183
2584.0,0.0182
2583.0,0.0182
2582.0,0.0181
2581.0,0.0181
2580.0,0.018
2579.0,0.018
2578.0,0.018
2577.0,0.018
2576.0,0.018
2575.0,0.0179
2574.0,0.0179
2573.0,0.0178
2572.0,0.0178
2571.0,0.0178
2570.0,0.0178
2569.0,0.0178
2568.0,0.0177
2567.0,0.0177
2566.0,0.0176
2565.0,0.0176
2564.0,0.0176
2563.0,0.0177
2562.0,0.0177
2561.0,0.0177
2560.0,0.0176
2559.0,0.0176
2558.0,0.0176
2557.0,0.0176
2556.0,0.0176
2555.0,0.0176
2554.0,0.0176
2553.0,0.0176
2552.0,0.0176
2551.0,0.0175
2550.0,0.0175
2549.0,0.0175
2548.0,0.0175
2547.0,0.0175
2546.0,0.0174
2545.0,0.0174
2544.0,0.0174
2543.0,0.0174
2542.0,0.0174
2541.0,0.0174
2540.0,0.0174
2539.0,0.0173
2538.0,0.0173
2537.0,0.0172
2536.0,0.0172
2535.0,0.0172
2534.0,0.0172
2533.0,0.0171
2532.0,0.017
2531.0,0.0171
2530.0,0.0171
2529.0,0.0172
2528.0,0.0172
2527.0,0.0172
2526.0,0.0172
2525.0,0.0172
2524.0,0.0172
2523.0,0.0171
2522.0,0.0171
2521.0,0.017
2520.0,0.017
2519.0,0.0169
2518.0,0.0169
2517.0,0.0168
2516.0,0.0168
2515.0,0.0168
2514.0,0.0168
2513.0,0.0169
2512.0,0.0169
2511.0,0.017
2510.0,0.0169
2509.0,0.0169
2508.0,0.0168
2507.0,0.0167
2506.0,0.0167
2505.0,0.0166
2504.0,0.0167
2503.0,0.0168
2502.0,0.0168
2501.0,0.0169
2500.0,0.0169
2499.0,0.0169
2498.0,0.0169
2497.0,0.0168
2496.0,0.0167
2495.0,0.0166
2494.0,0.0166
2493.0,0.0166
2492.0,0.0166
2491.0,0.0166
2490.0,0.0166
2489.0,0.0166
2488.0,0.0166
2487.0,0.0165
2486.0,0.0165
2485.0,0.0165
2484.0,0.0166
2483.0,0.0166
2482.0,0.0167
2481.0,0.0167
2480.0,0.0167
2479.0,0.0167
2478.0,0.0166
2477.0,0.0166
2476.0,0.0167
2475.0,0.0167
2474.0,0.0167
2473.0,0.0167
2472.0,0.0167
2471.0,0.0167
2470.0,0.0166
2469.0,0.0165
2468.0,0.0165
2467.0,0.0164
2466.0,0.0164
2465.0,0.0165
2464.0,0.0165
2463.0,0.0165
2462.0,0.0164
2461.0,0.0163
2460.0,0.0163
2459.0,0.0162
2458.0,0.0162
2457.0,0.0162
2456.0,0.0162
2455.0,0.0163
2454.0,0.0163
2453.0,0.0163
2452.0,0.0163
2451.0,0.0162
2450.0,0.0162
2449.0,0.0161
2448.0,0.0161
2447.0,0.0162
2446.0,0.0162
2445.0,0.0163
2444.0,0.0163
2443.0,0.0163
2442.0,0.0163
2441.0,0.0163
2440.0,0.0163
2439.0,0.0163
2438.0,0.0163
2437.0,0.0162
2436.0,0.0163
2435.0,0.0163
2434.0,0.0163
2433.0,0.0163
2432.0,0.0163
2431.0,0.0163
2430.0,0.0163
2429.0,0.0163
2428.0,0.0163
2427.0,0.0163
2426.0,0.0163
2425.0,0.0163
2424.0,0.0163
2423.0,0.0163
2422.0,0.0162
2421.0,0.0162
2420.0,0.0162
2419.0,0.0163
2418.0,0.0163
2417.0,0.0164
2416.0,0.0164
2415.0,0.0164
2414.0,0.0163
2413.0,0.0163
2412.0,0.0163
2411.0,0.0163
2410.0,0.0164
2409.0,0.0165
2408.0,0.0165
2407.0,0.0165
2406.0,0.0164
2405.0,0.0163
2404.0,0.0162
2403.0,0.0161
2402.0,0.0161
2401.0,0.0161
2400.0,0.0161
2399.0,0.0161
2398.0,0.0161
2397.0,0.0161
2396.0,0.0161
2395.0,0.0162
2394.0,0.0162
2393.0,0.0163
2392.0,0.0163
2391.0,0.0163
2390.0,0.0163
2389.0,0.0163
2388.0,0.0163
2387.0,0.0164
2386.0,0.0166
2385.0,0.0167
2384.0,0.0168
2383.0,0.0168
2382.0,0.0167
2381.0,0.0164
2380.0,0.0161
2379.0,0.0159
2378.0,0.0156
2377.0,0.0155
2376.0,0.0155
2375.0,0.0155
2374.0,0.0157
2373.0,0.0159
2372.0,0.0162
2371.0,0.0165
2370.0,0.0168
2369.0,0.0171
2368.0,0.0173
2367.0,0.0172
2366.0,0.017
2365.0,0.0167
2364.0,0.0164
2363.0,0.0162
2362.0,0.016
2361.0,0.0161
2360.0,0.0165
2359.0,0.0168
2358.0,0.0167
2357.0,0.0164
2356.0,0.0161
2355.0,0.0161
2354.0,0.0163
2353.0,0.0163
2352.0,0.0163
2351.0,0.0163
2350.0,0.0164
2349.0,0.0164
2348.0,0.0164
2347.0,0.0163
2346.0,0.0164
2345.0,0.0168
2344.0,0.0172
2343.0,0.0176
2342.0,0.0175
2341.0,0.0169
2340.0,0.0162
2339.0,0.0158
2338.0,0.0158
2337.0,0.0159
2336.0,0.016
2335.0,0.0159
2334.0,0.0156
2333.0,0.0154
2332.0,0.0155
2331.0,0.016
2330.0,0.0165
2329.0,0.0167
2328.0,0.0168
2327.0,0.0169
2326.0,0.0171
2325.0,0.0172
2324.0,0.0172
2323.0,0.017
2322.0,0.0169
2321.0,0.0169
2320.0,0.017
2319.0,0.0172
2318.0,0.0173
2317.0,0.0173
2316.0,0.0171
2315.0,0.017
2314.0,0.0171
2313.0,0.0175
2312.0,0.0179
2311.0,0.0182
2310.0,0.0183
2309.0,0.0184
2308.0,0.0183
2307.0,0.0183
2306.0,0.0182
2305.0,0.0181
2304.0,0.018
2303.0,0.0179
2302.0,0.0179
2301.0,0.0179
2300.0,0.0179
2299.0,0.0179
2298.0,0.0179
2297.0,0.0179
2296.0,0.0179
2295.0,0.0179
2294.0,0.0178
2293.0,0.0177
2292.0,0.0175
2291.0,0.0174
2290.0,0.0173
2289.0,0.0173
2288.0,0.0173
2287.0,0.0172
2286.0,0.0171
2285.0,0.0169
2284.0,0.0169
2283.0,0.0169
2282.0,0.0169
2281.0,0.017
2280.0,0.017
2279.0,0.017
2278.0,0.017
2277.0,0.017
2276.0,0.0169
2275.0,0.0168
2274.0,0.0168
2273.0,0.0168
2272.0,0.0168
2271.0,0.0168
2270.0,0.0167
2269.0,0.0167
2268.0,0.0167
2267.0,0.0167
2266.0,0.0167
2265.0,0.0168
2264.0,0.0168
2263.0,0.0168
2262.0,0.0168
2261.0,0.0167
2260.0,0.0167
2259.0,0.0167
2258.0,0.0167
2257.0,0.0166
2256.0,0.0166
2255.0,0.0165
2254.0,0.0165
2253.0,0.0165
2252.0,0.0165
2251.0,0.0165
2250.0,0.0165
2249.0,0.0165
2248.0,0.0165
2247.0,0.0166
2246.0,0.0166
2245.0,0.0166
2244.0,0.0166
2243.0,0.0165
2242.0,0.0164
2241.0,0.0164
2240.0,0.0164
2239.0,0.0164
2238.0,0.0165
2237.0,0.0165
2236.0,0.0166
2235.0,0.0166
2234.0,0.0166
2233.0,0.0165
2232.0,0.0165
2231.0,0.0164
2230.0,0.0163
2229.0,0.0162
2228.0,0.0162
2227.0,0.0162
2226.0,0.0163
2225.0,0.0163
2224.0,0.0164
2223.0,0.0164
2222.0,0.0164
2221.0,0.0164
2220.0,0.0164
2219.0,0.0164
2218.0,0.0164
2217.0,0.0164
2216.0,0.0164
2215.0,0.0164
2214.0,0.0163
2213.0,0.0163
2212.0,0.0163
2211.0,0.0163
2210.0,0.0163
2209.0,0.0163
2208.0,0.0163
2207.0,0.0163
2206.0,0.0163
2205.0,0.0163
2204.0,0.0163
2203.0,0.0164
2202.0,0.0165
2201.0,0.0165
2200.0,0.0164
2199.0,0.0164
2198.0,0.0164
2197.0,0.0164
2196.0,0.0165
2195.0,0.0165
2194.0,0.0165
2193.0,0.0165
2192.0,0.0165
2191.0,0.0164
2190.0,0.0164
2189.0,0.0165
2188.0,0.0165
2187.0,0.0165
2186.0,0.0165
2185.0,0.0165
2184.0,0.0165
2183.0,0.0165
2182.0,0.0164
2181.0,0.0164
2180.0,0.0164
2179.0,0.0163
2178.0,0.0163
2177.0,0.0163
2176.0,0.0164
2175.0,0.0165
2174.0,0.0166
2173.0,0.0166
2172.0,0.0165
2171.0,0.0165
2170.0,0.0165
2169.0,0.0165
2168.0,0.0165
2167.0,0.0165
2166.0,0.0164
2165.0,0.0164
2164.0,0.0165
2163.0,0.0165
2162.0,0.0166
2161.0,0.0166
2160.0,0.0166
2159.0,0.0165
2158.0,0.0165
2157.0,0.0164
2156.0,0.0164
2155.0,0.0165
2154.0,0.0165
2153.0,0.0166
2152.0,0.0166
2151.0,0.0167
2150.0,0.0166
2149.0,0.0166
2148.0,0.0165
2147.0,0.0165
2146.0,0.0165
2145.0,0.0166
2144.0,0.0166
2143.0,0.0165
2142.0,0.0165
2141.0,0.0166
2140.0,0.0166
2139.0,0.0167
2138.0,0.0168
2137.0,0.0168
2136.0,0.0167
2135.0,0.0167
2134.0,0.0166
2133.0,0.0166
2132.0,0.0165
2131.0,0.0165
2130.0,0.0165
2129.0,0.0166
2128.0,0.0166
2127.0,0.0167
2126.0,0.0167
2125.0,0.0167
2124.0,0.0166
2123.0,0.0166
2122.0,0.0165
2121.0,0.0165
2120.0,0.0165
2119.0,0.0166
2118.0,0.0166
2117.0,0.0166
2116.0,0.0166
2115.0,0.0166
2114.0,0.0166
2113.0,0.0166
2112.0,0.0167
2111.0,0.0168
2110.0,0.0168
2109.0,0.0168
2108.0,0.0167
2107.0,0.0167
2106.0,0.0166
2105.0,0.0165
2104.0,0.0165
2103.0,0.0165
2102.0,0.0165
2101.0,0.0166
2100.0,0.0166
2099.0,0.0167
2098.0,0.0167
2097.0,0.0166
2096.0,0.0166
2095.0,0.0165
2094.0,0.0165
2093.0,0.0165
2092.0,0.0165
2091.0,0.0166
2090.0,0.0166
2089.0,0.0166
2088.0,0.0166
2087.0,0.0166
2086.0,0.0166
2085.0,0.0166
2084.0,0.0166
2083.0,0.0166
2082.0,0.0166
2081.0,0.0166
2080.0,0.0167
2079.0,0.0167
2078.0,0.0167
2077.0,0.0168
2076.0,0.0168
2075.0,0.0168
2074.0,0.0168
2073.0,0.0167
2072.0,0.0167
2071.0,0.0167
2070.0,0.0167
2069.0,0.0167
2068.0,0.0168
2067.0,0.0169
2066.0,0.0169
2065.0,0.0169
2064.0,0.0168
2063.0,0.0168
2062.0,0.0168
2061.0,0.0169
2060.0,0.0169
2059.0,0.0169
2058.0,0.0169
2057.0,0.0169
2056.0,0.017
2055.0,0.0171
2054.0,0.0171
2053.0,0.0171
2052.0,0.017
2051.0,0.0169
2050.0,0.0169
2049.0,0.0169
2048.0,0.0169
2047.0,0.0169
2046.0,0.017
2045.0,0.017
2044.0,0.017
2043.0,0.0169
2042.0,0.0169
2041.0,0.017
2040.0,0.0171
2039.0,0.0171
2038.0,0.0171
2037.0,0.0171
2036.0,0.0172
2035.0,0.0172
2034.0,0.0172
2033.0,0.0172
2032.0,0.0172
2031.0,0.0172
2030.0,0.0171
2029.0,0.0171
2028.0,0.0171
2027.0,0.0172
2026.0,0.0172
2025.0,0.0173
2024.0,0.0173
2023.0,0.0174
2022.0,0.0174
2021.0,0.0175
2020.0,0.0175
2019.0,0.0175
2018.0,0.0175
2017.0,0.0175
2016.0,0.0175
2015.0,0.0175
2014.0,0.0175
2013.0,0.0175
2012.0,0.0175
2011.0,0.0174
2010.0,0.0174
2009.0,0.0173
2008.0,0.0173
2007.0,0.0173
2006.0,0.0172
2005.0,0.0172
2004.0,0.0172
2003.0,0.0171
2002.0,0.0171
2001.0,0.0171
2000.0,0.0172
1999.0,0.0172
1998.0,0.0172
1997.0,0.0172
1996.0,0.0172
1995.0,0.0172
1994.0,0.0172
1993.0,0.0172
1992.0,0.0172
1991.0,0.0172
1990.0,0.0172
1989.0,0.0172
1988.0,0.0173
1987.0,0.0173
1986.0,0.0173
1985.0,0.0173
1984.0,0.0173
1983.0,0.0172
1982.0,0.0172
1981.0,0.0171
1980.0,0.0171
1979.0,0.0171
1978.0,0.0171
1977.0,0.0171
1976.0,0.0172
1975.0,0.0172
1974.0,0.0172
1973.0,0.0172
1972.0,0.0172
1971.0,0.0172
1970.0,0.0172
1969.0,0.0172
1968.0,0.0173
1967.0,0.0173
1966.0,0.0173
1965.0,0.0174
1964.0,0.0174
1963.0,0.0174
1962.0,0.0174
1961.0,0.0174
1960.0,0.0174
1959.0,0.0174
1958.0,0.0174
1957.0,0.0174
1956.0,0.0175
1955.0,0.0175
1954.0,0.0175
1953.0,0.0175
1952.0,0.0175
1951.0,0.0174
1950.0,0.0174
1949.0,0.0174
1948.0,0.0174
1947.0,0.0175
1946.0,0.0175
1945.0,0.0175
1944.0,0.0175
1943.0,0.0175
1942.0,0.0176
1941.0,0.0177
1940.0,0.0178
1939.0,0.0178
1938.0,0.0177
1937.0,0.0177
1936.0,0.0177
1935.0,0.0177
1934.0,0.0178
1933.0,0.0178
1932.0,0.0178
1931.0,0.0178
1930.0,0.0177
1929.0,0.0177
1928.0,0.0178
1927.0,0.0178
1926.0,0.0178
1925.0,0.0177
1924.0,0.0177
1923.0,0.0177
1922.0,0.0177
1921.0,0.0177
1920.0,0.0177
1919.0,0.0178
1918.0,0.0179
1917.0,0.018
1916.0,0.0181
1915.0,0.0181
1914.0,0.0181
1913.0,0.018
1912.0,0.0179
1911.0,0.0179
1910.0,0.0178
1909.0,0.0179
1908.0,0.0179
1907.0,0.0179
1906.0,0.018
1905.0,0.0181
1904.0,0.0181
1903.0,0.0181
1902.0,0.0181
1901.0,0.0182
1900.0,0.0183
1899.0,0.0183
1898.0,0.0183
1897.0,0.0183
1896.0,0.0183
1895.0,0.0182
1894.0,0.0182
1893.0,0.0181
1892.0,0.0181
1891.0,0.018
1890.0,0.018
1889.0,0.018
1888.0,0.018
1887.0,0.0181
1886.0,0.0181
1885.0,0.0181
1884.0,0.018
1883.0,0.018
1882.0,0.018
1881.0,0.0181
1880.0,0.0181
1879.0,0.0181
1878.0,0.0181
1877.0,0.0181
1876.0,0.0181
1875.0,0.018
1874.0,0.018
1873.0,0.018
1872.0,0.018
1871.0,0.018
1870.0,0.018
1869.0,0.018
1868.0,0.018
1867.0,0.018
1866.0,0.018
1865.0,0.018
1864.0,0.0181
1863.0,0.0181
1862.0,0.0181
1861.0,0.0181
1860.0,0.0181
1859.0,0.0181
1858.0,0.0181
1857.0,0.0181
1856.0,0.0181
1855.0,0.0181
1854.0,0.0181
1853.0,0.0181
1852.0,0.0181
1851.0,0.0181
1850.0,0.0181
1849.0,0.018
1848.0,0.018
1847.0,0.018
1846.0,0.0181
1845.0,0.0181
1844.0,0.0181
1843.0,0.0181
1842.0,0.0181
1841.0,0.0181
1840.0,0.0181
1839.0,0.0181
1838.0,0.0181
1837.0,0.0181
1836.0,0.0181
1835.0,0.018
1834.0,0.018
1833.0,0.0179
1832.0,0.0179
1831.0,0.0178
1830.0,0.0178
1829.0,0.0179
1828.0,0.018
1827.0,0.0182
1826.0,0.0182
1825.0,0.0183
1824.0,0.0182
1823.0,0.0182
1822.0,0.0183
1821.0,0.0183
1820.0,0.0184
1819.0,0.0184
1818.0,0.0184
1817.0,0.0184
1816.0,0.0184
1815.0,0.0184
1814.0,0.0184
1813.0,0.0184
1812.0,0.0183
1811.0,0.0183
1810.0,0.0184
1809.0,0.0184
1808.0,0.0185
1807.0,0.0185
1806.0,0.0184
1805.0,0.0184
1804.0,0.0184
1803.0,0.0184
1802.0,0.0184
1801.0,0.0184
1800.0,0.0184
1799.0,0.0184
1798.0,0.0184
1797.0,0.0185
1796.0,0.0185
1795.0,0.0185
1794.0,0.0185
1793.0,0.0185
1792.0,0.0186
1791.0,0.0186
1790.0,0.0186
1789.0,0.0186
1788.0,0.0186
1787.0,0.0186
1786.0,0.0185
1785.0,0.0185
1784.0,0.0185
1783.0,0.0185
1782.0,0.0185
1781.0,0.0185
1780.0,0.0186
1779.0,0.0187
1778.0,0.0188
1777.0,0.0188
1776.0,0.0187
1775.0,0.0186
1774.0,0.0185
1773.0,0.0185
1772.0,0.0185
1771.0,0.0185
1770.0,0.0186
1769.0,0.0188
1768.0,0.0189
1767.0,0.0188
1766.0,0.0188
1765.0,0.0188
1764.0,0.0188
1763.0,0.0189
1762.0,0.0189
1761.0,0.0189
1760.0,0.019
1759.0,0.0192
1758.0,0.0193
1757.0,0.0194
1756.0,0.0195
1755.0,0.0196
1754.0,0.0197
1753.0,0.0199
1752.0,0.02
1751.0,0.0202
1750.0,0.0202
1749.0,0.0202
1748.0,0.0203
1747.0,0.0204
1746.0,0.0205
1745.0,0.0205
1744.0,0.0205
1743.0,0.0206
1742.0,0.0206
1741.0,0.0206
1740.0,0.0207
1739.0,0.0208
1738.0,0.0208
1737.0,0.0208
1736.0,0.0207
1735.0,0.0206
1734.0,0.0204
1733.0,0.0203
1732.0,0.0203
1731.0,0.0203
1730.0,0.0203
1729.0,0.0203
1728.0,0.0203
1727.0,0.0203
1726.0,0.0203
1725.0,0.0203
1724.0,0.0203
1723.0,0.0203
1722.0,0.0203
1721.0,0.0203
1720.0,0.0203
1719.0,0.0204
1718.0,0.0204
1717.0,0.0204
1716.0,0.0204
1715.0,0.0204
1714.0,0.0206
1713.0,0.0207
1712.0,0.0207
1711.0,0.0207
1710.0,0.0206
1709.0,0.0205
1708.0,0.0205
1707.0,0.0204
1706.0,0.0203
1705.0,0.0203
1704.0,0.0204
1703.0,0.0205
1702.0,0.0205
1701.0,0.0204
1700.0,0.0203
1699.0,0.0202
1698.0,0.0204
1697.0,0.0208
1696.0,0.0211
1695.0,0.0211
1694.0,0.021
1693.0,0.0211
1692.0,0.0211
1691.0,0.0211
1690.0,0.0211
1689.0,0.0211
1688.0,0.0212
1687.0,0.0214
1686.0,0.0215
1685.0,0.0217
1684.0,0.022
1683.0,0.0219
1682.0,0.0219
1681.0,0.022
1680.0,0.022
1679.0,0.0221
1678.0,0.0221
1677.0,0.0221
1676.0,0.0222
1675.0,0.0222
1674.0,0.0222
1673.0,0.0222
1672.0,0.0223
1671.0,0.0223
1670.0,0.0224
1669.0,0.0226
1668.0,0.0226
1667.0,0.0227
1666.0,0.0228
1665.0,0.0228
1664.0,0.0228
1663.0,0.0229
1662.0,0.023
1661.0,0.0231
1660.0,0.0231
1659.0,0.0231
1658.0,0.023
1657.0,0.023
1656.0,0.0231
1655.0,0.0232
1654.0,0.0235
1653.0,0.0236
1652.0,0.0233
1651.0,0.0231
1650.0,0.0231
1649.0,0.0231
1648.0,0.0232
1647.0,0.0234
1646.0,0.0235
1645.0,0.0236
1644.0,0.0236
1643.0,0.0235
1642.0,0.0235
1641.0,0.0234
1640.0,0.0234
1639.0,0.0233
1638.0,0.0232
1637.0,0.0232
1636.0,0.0234
1635.0,0.0235
1634.0,0.0235
1633.0,0.0235
1632.0,0.0236
1631.0,0.0236
1630.0,0.0235
1629.0,0.0234
1628.0,0.0233
1627.0,0.0232
1626.0,0.0231
1625.0,0.0231
1624.0,0.0231
1623.0,0.0231
1622.0,0.0231
1621.0,0.0231
1620.0,0.0231
1619.0,0.023
1618.0,0.0229
1617.0,0.023
1616.0,0.0231
1615.0,0.0231
1614.0,0.0232
1613.0,0.0232
1612.0,0.0232
1611.0,0.0231
1610.0,0.0231
1609.0,0.023
1608.0,0.023
1607.0,0.0231
1606.0,0.023
1605.0,0.023
1604.0,0.023
1603.0,0.0231
1602.0,0.0231
1601.0,0.0232
1600.0,0.0233
1599.0,0.0233
1598.0,0.0233
1597.0,0.0233
1596.0,0.0234
1595.0,0.0234
1594.0,0.0234
1593.0,0.0234
1592.0,0.0234
1591.0,0.0234
1590.0,0.0234
1589.0,0.0235
1588.0,0.0236
1587.0,0.0236
1586.0,0.0237
1585.0,0.0238
1584.0,0.0238
1583.0,0.0239
1582.0,0.0239
1581.0,0.024
1580.0,0.024
1579.0,0.024
1578.0,0.024
1577.0,0.024
1576.0,0.0241
1575.0,0.0242
1574.0,0.0241
1573.0,0.0241
1572.0,0.0239
1571.0,0.0237
1570.0,0.0235
1569.0,0.0235
1568.0,0.0236
1567.0,0.0236
1566.0,0.0236
1565.0,0.0235
1564.0,0.0235
1563.0,0.0234
1562.0,0.0233
1561.0,0.0232
1560.0,0.0234
1559.0,0.0238
1558.0,0.0234
1557.0,0.0231
1556.0,0.0231
1555.0,0.0231
1554.0,0.0231
1553.0,0.0231
1552.0,0.0231
1551.0,0.0231
1550.0,0.0231
1549.0,0.0231
1548.0,0.0232
1547.0,0.0232
1546.0,0.0231
1545.0,0.0231
1544.0,0.0231
1543.0,0.0231
1542.0,0.023
1541.0,0.0232
1540.0,0.0233
1539.0,0.023
1538.0,0.0227
1537.0,0.0227
1536.0,0.0227
1535.0,0.0227
1534.0,0.0225
1533.0,0.0224
1532.0,0.0223
1531.0,0.0221
1530.0,0.0219
1529.0,0.0218
1528.0,0.0218
1527.0,0.0217
1526.0,0.0217
1525.0,0.0217
1524.0,0.0218
1523.0,0.0218
1522.0,0.0218
1521.0,0.0219
1520.0,0.0219
1519.0,0.0217
1518.0,0.0215
1517.0,0.0215
1516.0,0.0215
1515.0,0.0215
1514.0,0.0215
1513.0,0.0216
1512.0,0.0217
1511.0,0.0216
1510.0,0.0216
1509.0,0.0217
1508.0,0.0221
1507.0,0.0222
1506.0,0.0217
1505.0,0.0214
1504.0,0.0215
1503.0,0.0214
1502.0,0.0214
1501.0,0.0214
1500.0,0.0214
1499.0,0.0213
1498.0,0.0212
1497.0,0.0212
1496.0,0.0213
1495.0,0.0213
1494.0,0.0211
1493.0,0.0211
1492.0,0.0211
1491.0,0.0211
1490.0,0.021
1489.0,0.0212
1488.0,0.0214
1487.0,0.0215
1486.0,0.0214
1485.0,0.0216
1484.0,0.0218
1483.0,0.0219
1482.0,0.0222
1481.0,0.0229
1480.0,0.0238
1479.0,0.0253
1478.0,0.0284
1477.0,0.0348
1476.0,0.0451
1475.0,0.0585
1474.0,0.074
1473.0,0.0869
1472.0,0.0903
1471.0,0.0863
1470.0,0.0814
1469.0,0.0777
1468.0,0.0751
1467.0,0.0741
1466.0,0.0763
1465.0,0.0826
1464.0,0.0893
1463.0,0.0919
1462.0,0.0895
1461.0,0.0833
1460.0,0.0748
1459.0,0.0656
1458.0,0.0577
1457.0,0.0525
1456.0,0.0496
1455.0,0.0479
1454.0,0.0464
1453.0,0.0448
1452.0,0.0432
1451.0,0.042
1450.0,0.041
1449.0,0.0401
1448.0,0.0394
1447.0,0.0388
1446.0,0.0385
1445.0,0.0381
1444.0,0.0378
1443.0,0.0375
1442.0,0.0372
1441.0,0.0368
1440.0,0.0364
1439.0,0.0361
1438.0,0.0359
1437.0,0.0357
1436.0,0.0355
1435.0,0.0352
1434.0,0.0348
1433.0,0.0343
1432.0,0.0337
1431.0,0.0332
1430.0,0.0327
1429.0,0.0323
1428.0,0.0318
1427.0,0.0314
1426.0,0.0311
1425.0,0.0307
1424.0,0.0304
1423.0,0.0303
1422.0,0.0301
1421.0,0.0298
1420.0,0.0295
1419.0,0.0294
1418.0,0.0294
1417.0,0.0293
1416.0,0.0291
1415.0,0.029
1414.0,0.0289
1413.0,0.0286
1412.0,0.0284
1411.0,0.0282
1410.0,0.028
1409.0,0.0279
1408.0,0.0277
1407.0,0.0275
1406.0,0.0275
1405.0,0.0274
1404.0,0.0273
1403.0,0.0272
1402.0,0.0271
1401.0,0.027
1400.0,0.0268
1399.0,0.0267
1398.0,0.0267
1397.0,0.0266
1396.0,0.0266
1395.0,0.0266
1394.0,0.0266
1393.0,0.0265
1392.0,0.0264
1391.0,0.0264
1390.0,0.0264
1389.0,0.0264
1388.0,0.0264
1387.0,0.0265
1386.0,0.0266
1385.0,0.0266
1384.0,0.0267
1383.0,0.0269
1382.0,0.0271
1381.0,0.0274
1380.0,0.0277
1379.0,0.028
1378.0,0.0281
1377.0,0.0281
1376.0,0.0281
1375.0,0.0281
1374.0,0.0282
1373.0,0.0284
1372.0,0.0286
1371.0,0.0288
1370.0,0.029
1369.0,0.029
1368.0,0.0291
1367.0,0.029
1366.0,0.0289
1365.0,0.0288
1364.0,0.0287
1363.0,0.0286
1362.0,0.0285
1361.0,0.0283
1360.0,0.0282
1359.0,0.0281
1358.0,0.028
1357.0,0.0279
1356.0,0.0279
1355.0,0.028
1354.0,0.0281
1353.0,0.0281
1352.0,0.0281
1351.0,0.0281
1350.0,0.0281
1349.0,0.028
1348.0,0.0279
1347.0,0.0278
1346.0,0.0277
1345.0,0.0276
1344.0,0.0275
1343.0,0.0274
1342.0,0.0273
1341.0,0.0272
1340.0,0.0272
1339.0,0.0272
1338.0,0.0272
1337.0,0.0271
1336.0,0.027
1335.0,0.0269
1334.0,0.0269
1333.0,0.0268
1332.0,0.0267
1331.0,0.0267
1330.0,0.0267
1329.0,0.0267
1328.0,0.0267
1327.0,0.0267
1326.0,0.0268
1325.0,0.0268
1324.0,0.0269
1323.0,0.0269
1322.0,0.0269
1321.0,0.0269
1320.0,0.0269
1319.0,0.0271
1318.0,0.0272
1317.0,0.0272
1316.0,0.0272
1315.0,0.0273
1314.0,0.0273
1313.0,0.0275
1312.0,0.0276
1311.0,0.0277
1310.0,0.0278
1309.0,0.0279
1308.0,0.028
1307.0,0.028
1306.0,0.0281
1305.0,0.0281
1304.0,0.0281
1303.0,0.0281
1302.0,0.0281
1301.0,0.0281
1300.0,0.0281
1299.0,0.0281
1298.0,0.0281
1297.0,0.028
1296.0,0.028
1295.0,0.0279
1294.0,0.0279
1293.0,0.0278
1292.0,0.0278
1291.0,0.0278
1290.0,0.0278
1289.0,0.0277
1288.0,0.0276
1287.0,0.0276
1286.0,0.0275
1285.0,0.0275
1284.0,0.0274
1283.0,0.0275
1282.0,0.0275
1281.0,0.0275
1280.0,0.0275
1279.0,0.0275
1278.0,0.0275
1277.0,0.0275
1276.0,0.0275
1275.0,0.0275
1274.0,0.0275
1273.0,0.0275
1272.0,0.0276
1271.0,0.0276
1270.0,0.0277
1269.0,0.0278
1268.0,0.0278
1267.0,0.0278
1266.0,0.0278
1265.0,0.0278
1264.0,0.0278
1263.0,0.0278
1262.0,0.0278
1261.0,0.0277
1260.0,0.0278
1259.0,0.0278
1258.0,0.0278
1257.0,0.0278
1256.0,0.0278
1255.0,0.0278
1254.0,0.0278
1253.0,0.0278
1252.0,0.0278
1251.0,0.0278
1250.0,0.0278
1249.0,0.0277
1248.0,0.0276
1247.0,0.0276
1246.0,0.0276
1245.0,0.0276
1244.0,0.0276
1243.0,0.0276
1242.0,0.0277
1241.0,0.0276
1240.0,0.0276
1239.0,0.0276
1238.0,0.0277
1237.0,0.0277
1236.0,0.0276
1235.0,0.0276
1234.0,0.0276
1233.0,0.0276
1232.0,0.0275
1231.0,0.0275
1230.0,0.0274
1229.0,0.0274
1228.0,0.0274
1227.0,0.0275
1226.0,0.0275
1225.0,0.0274
1224.0,0.0274
1223.0,0.0274
1222.0,0.0275
1221.0,0.0275
1220.0,0.0275
1219.0,0.0276
1218.0,0.0276
1217.0,0.0277
1216.0,0.0277
1215.0,0.0276
1214.0,0.0276
1213.0,0.0276
1212.0,0.0277
1211.0,0.0277
1210.0,0.0278
1209.0,0.0278
1208.0,0.0278
1207.0,0.0279
1206.0,0.0279
1205.0,0.0279
1204.0,0.0279
1203.0,0.0279
1202.0,0.0279
1201.0,0.0279
1200.0,0.0279
1199.0,0.0279
1198.0,0.028
1197.0,0.028
1196.0,0.028
1195.0,0.0279
1194.0,0.0279
1193.0,0.0279
1192.0,0.0279
1191.0,0.0279
1190.0,0.028
1189.0,0.028
1188.0,0.028
1187.0,0.028
1186.0,0.0281
1185.0,0.0282
1184.0,0.0282
1183.0,0.0283
1182.0,0.0284
1181.0,0.0285
1180.0,0.0286
1179.0,0.0287
1178.0,0.0289
1177.0,0.029
1176.0,0.029
1175.0,0.0291
1174.0,0.0291
1173.0,0.029
1172.0,0.029
1171.0,0.029
1170.0,0.0291
1169.0,0.0291
1168.0,0.0292
1167.0,0.0292
1166.0,0.0292
1165.0,0.0293
1164.0,0.0294
1163.0,0.0294
1162.0,0.0293
1161.0,0.0293
1160.0,0.0292
1159.0,0.0292
1158.0,0.0292
1157.0,0.0292
1156.0,0.0293
1155.0,0.0293
1154.0,0.0293
1153.0,0.0293
1152.0,0.0293
1151.0,0.0294
1150.0,0.0295
1149.0,0.0295
1148.0,0.0295
1147.0,0.0294
1146.0,0.0293
1145.0,0.0293
1144.0,0.0294
1143.0,0.0294
1142.0,0.0294
1141.0,0.0294
1140.0,0.0294
1139.0,0.0294
1138.0,0.0294
1137.0,0.0294
1136.0,0.0294
1135.0,0.0294
1134.0,0.0294
1133.0,0.0294
1132.0,0.0294
1131.0,0.0295
1130.0,0.0296
1129.0,0.0297
1128.0,0.0298
1127.0,0.0298
1126.0,0.0298
1125.0,0.0297
1124.0,0.0297
1123.0,0.0297
1122.0,0.0297
1121.0,0.0298
1120.0,0.0298
1119.0,0.0299
1118.0,0.0299
1117.0,0.0299
1116.0,0.0299
1115.0,0.0299
1114.0,0.0299
1113.0,0.0299
1112.0,0.03
1111.0,0.03
1110.0,0.03
1109.0,0.03
1108.0,0.0301
1107.0,0.0302
1106.0,0.0302
1105.0,0.0302
1104.0,0.0301
1103.0,0.0301
1102.0,0.0301
1101.0,0.0301
1100.0,0.0301
1099.0,0.0302
1098.0,0.0302
1097.0,0.0303
1096.0,0.0303
1095.0,0.0303
1094.0,0.0303
1093.0,0.0303
1092.0,0.0303
1091.0,0.0304
1090.0,0.0305
1089.0,0.0305
1088.0,0.0305
1087.0,0.0305
1086.0,0.0306
1085.0,0.0307
1084.0,0.0307
1083.0,0.0308
1082.0,0.0309
1081.0,0.031
1080.0,0.031
1079.0,0.0308
1078.0,0.0307
1077.0,0.0305
1076.0,0.0305
1075.0,0.0305
1074.0,0.0306
1073.0,0.0307
1072.0,0.0307
1071.0,0.0307
1070.0,0.0306
1069.0,0.0305
1068.0,0.0304
1067.0,0.0304
1066.0,0.0305
1065.0,0.0305
1064.0,0.0306
1063.0,0.0306
1062.0,0.0307
1061.0,0.0306
1060.0,0.0306
1059.0,0.0305
1058.0,0.0305
1057.0,0.0305
1056.0,0.0306
1055.0,0.0306
1054.0,0.0307
1053.0,0.0308
1052.0,0.0309
1051.0,0.031
1050.0,0.031
1049.0,0.031
1048.0,0.031
1047.0,0.031
1046.0,0.0309
1045.0,0.0308
1044.0,0.0308
1043.0,0.0308
1042.0,0.0308
1041.0,0.0308
1040.0,0.0308
1039.0,0.0307
1038.0,0.0307
1037.0,0.0307
1036.0,0.0308
1035.0,0.0307
1034.0,0.0307
1033.0,0.0306
1032.0,0.0306
1031.0,0.0306
1030.0,0.0306
1029.0,0.0306
1028.0,0.0306
1027.0,0.0305
1026.0,0.0305
1025.0,0.0305
1024.0,0.0305
1023.0,0.0305
1022.0,0.0305
1021.0,0.0305
1020.0,0.0305
1019.0,0.0306
1018.0,0.0307
1017.0,0.0307
1016.0,0.0307
1015.0,0.0306
1014.0,0.0306
1013.0,0.0306
1012.0,0.0307
1011.0,0.0307
1010.0,0.0308
1009.0,0.0309
1008.0,0.031
1007.0,0.031
1006.0,0.0309
1005.0,0.0309
1004.0,0.0308
1003.0,0.0307
1002.0,0.0307
1001.0,0.0307
1000.0,0.0307
999.0,0.0308
998.0,0.0308
997.0,0.0308
996.0,0.0308
995.0,0.0308
994.0,0.0309
993.0,0.0309
992.0,0.031
991.0,0.031
990.0,0.0311
989.0,0.0311
988.0,0.0311
987.0,0.0312
986.0,0.0311
985.0,0.0311
984.0,0.0312
983.0,0.0313
982.0,0.0314
981.0,0.0316
980.0,0.0316
979.0,0.0316
978.0,0.0315
977.0,0.0315
976.0,0.0315
975.0,0.0316
974.0,0.0318
973.0,0.0319
972.0,0.032
971.0,0.032
970.0,0.032
969.0,0.0321
968.0,0.0322
967.0,0.0322
966.0,0.0322
965.0,0.0322
964.0,0.0322
963.0,0.0321
962.0,0.0321
961.0,0.0321
960.0,0.032
959.0,0.0321
958.0,0.0321
957.0,0.0322
956.0,0.0323
955.0,0.0324
954.0,0.0324
953.0,0.0324
952.0,0.0324
951.0,0.0324
950.0,0.0324
949.0,0.0325
948.0,0.0325
947.0,0.0326
946.0,0.0327
945.0,0.0327
944.0,0.0326
943.0,0.0327
942.0,0.0328
941.0,0.0329
940.0,0.033
939.0,0.0331
938.0,0.0331
937.0,0.0331
936.0,0.0332
935.0,0.0332
934.0,0.0333
933.0,0.0333
932.0,0.0333
931.0,0.0333
930.0,0.0332
929.0,0.0332
928.0,0.0333
927.0,0.0333
926.0,0.0335
925.0,0.0336
924.0,0.0337
923.0,0.0337
922.0,0.0337
921.0,0.0338
920.0,0.0339
919.0,0.034
918.0,0.034
917.0,0.0341
916.0,0.0341
915.0,0.0343
914.0,0.0344
913.0,0.0344
912.0,0.0344
911.0,0.0345
910.0,0.0347
909.0,0.0349
908.0,0.0351
907.0,0.0351
906.0,0.0351
905.0,0.0351
904.0,0.0351
903.0,0.0351
902.0,0.035
901.0,0.035
900.0,0.035
899.0,0.0351
898.0,0.0351
897.0,0.0352
896.0,0.0352
895.0,0.0353
894.0,0.0354
893.0,0.0356
892.0,0.0358
891.0,0.036
890.0,0.0361
889.0,0.0362
888.0,0.0362
887.0,0.0361
886.0,0.0362
885.0,0.0363
884.0,0.0365
883.0,0.0367
882.0,0.0368
881.0,0.0369
880.0,0.0369
879.0,0.0369
878.0,0.037
877.0,0.0371
876.0,0.0371
875.0,0.0371
874.0,0.037
873.0,0.0369
872.0,0.0367
871.0,0.0366
870.0,0.0366
869.0,0.0368
868.0,0.0369
867.0,0.0369
866.0,0.037
865.0,0.0371
864.0,0.0372
863.0,0.0372
862.0,0.0372
861.0,0.0371
860.0,0.037
859.0,0.037
858.0,0.0371
857.0,0.0371
856.0,0.0372
855.0,0.0372
854.0,0.0373
853.0,0.0373
852.0,0.0373
851.0,0.0373
850.0,0.0373
849.0,0.0373
848.0,0.0374
847.0,0.0373
846.0,0.0373
845.0,0.0373
844.0,0.0373
843.0,0.0373
842.0,0.0373
841.0,0.0372
840.0,0.0372
839.0,0.0373
838.0,0.0375
837.0,0.0377
836.0,0.0379
835.0,0.038
834.0,0.038
833.0,0.0379
832.0,0.0379
831.0,0.0378
830.0,0.0378
829.0,0.0379
828.0,0.038
827.0,0.0381
826.0,0.0381
825.0,0.0379
824.0,0.0378
823.0,0.0377
822.0,0.0379
821.0,0.038
820.0,0.0381
819.0,0.0381
818.0,0.038
817.0,0.038
816.0,0.038
815.0,0.0381
814.0,0.0382
813.0,0.0383
812.0,0.0384
811.0,0.0384
810.0,0.0384
809.0,0.0385
808.0,0.0386
807.0,0.0386
806.0,0.0385
805.0,0.0384
804.0,0.0383
803.0,0.0383
802.0,0.0383
801.0,0.0385
800.0,0.0386
799.0,0.0386
798.0,0.0386
797.0,0.0386
796.0,0.0387
795.0,0.0388
794.0,0.0387
793.0,0.0386
792.0,0.0386
791.0,0.0387
790.0,0.0388
789.0,0.039
788.0,0.0391
787.0,0.0393
786.0,0.0394
785.0,0.0395
784.0,0.0397
783.0,0.0398
782.0,0.0398
781.0,0.0397
780.0,0.0395
779.0,0.0394
778.0,0.0394
777.0,0.0395
776.0,0.0396
775.0,0.0396
774.0,0.0395
773.0,0.0394
772.0,0.0393
771.0,0.0393
770.0,0.0393
769.0,0.0393
768.0,0.0393
767.0,0.0392
766.0,0.0391
765.0,0.0392
764.0,0.0394
763.0,0.0397
762.0,0.0397
761.0,0.0396
760.0,0.0395
759.0,0.0393
758.0,0.0392
757.0,0.0392
756.0,0.0392
755.0,0.0391
754.0,0.039
753.0,0.0391
752.0,0.0392
751.0,0.0392
750.0,0.0391
749.0,0.039
748.0,0.039
747.0,0.039
746.0,0.0391
745.0,0.0391
744.0,0.0392
743.0,0.0393
742.0,0.0394
741.0,0.0395
740.0,0.0394
739.0,0.0394
738.0,0.0396
737.0,0.0403
736.0,0.042
735.0,0.0457
734.0,0.0528
733.0,0.0638
732.0,0.0768
731.0,0.0876
730.0,0.0922
729.0,0.0899
728.0,0.0838
727.0,0.078
726.0,0.0746
725.0,0.0739
724.0,0.0759
723.0,0.0814
722.0,0.091
721.0,0.1037
720.0,0.1153
719.0,0.1207
718.0,0.1186
717.0,0.1114
716.0,0.1021
715.0,0.0928
714.0,0.0846
713.0,0.0778
712.0,0.0724
711.0,0.0681
710.0,0.0649
709.0,0.0626
708.0,0.0609
707.0,0.0597
706.0,0.0586
705.0,0.0575
704.0,0.0567
703.0,0.0561
702.0,0.0554
701.0,0.0547
700.0,0.0541
699.0,0.0539
698.0,0.0539
697.0,0.0538
696.0,0.0529
695.0,0.0513
694.0,0.0498
693.0,0.0494
692.0,0.0503
691.0,0.0517
690.0,0.0528
689.0,0.0531
688.0,0.0527
687.0,0.0518
686.0,0.0509
685.0,0.0501
684.0,0.0496
683.0,0.0493
682.0,0.0489
681.0,0.0486
680.0,0.0485
679.0,0.0487
678.0,0.0489
677.0,0.0486
676.0,0.048
675.0,0.0473
674.0,0.0472
673.0,0.0475
672.0,0.0476
671.0,0.0466
670.0,0.0444
669.0,0.0424
668.0,0.0421
667.0,0.0437
666.0,0.0459
665.0,0.0473
664.0,0.048
663.0,0.0485
662.0,0.049
661.0,0.0492
660.0,0.0489
659.0,0.0482
658.0,0.0473
657.0,0.0469
656.0,0.047
655.0,0.0475
654.0,0.0477
653.0,0.0477
652.0,0.0476
651.0,0.0474
650.0,0.0472
649.0,0.0468
648.0,0.0461
647.0,0.0452
646.0,0.0446
645.0,0.0446
644.0,0.0456
643.0,0.0467
642.0,0.0473
641.0,0.0472
640.0,0.0469
639.0,0.0472
638.0,0.0479
637.0,0.049
636.0,0.0498
635.0,0.0505
634.0,0.0511
633.0,0.052
632.0,0.0528
631.0,0.0526
630.0,0.0511
629.0,0.0494
628.0,0.0484
627.0,0.0483
626.0,0.0486
625.0,0.0489
624.0,0.0492
623.0,0.0496
622.0,0.05
621.0,0.0502
620.0,0.05
619.0,0.0492
618.0,0.0484
617.0,0.048
616.0,0.0481
615.0,0.0483
614.0,0.0482
613.0,0.0482
612.0,0.0489
611.0,0.05
610.0,0.0505
609.0,0.0504
608.0,0.0503
607.0,0.0506
606.0,0.0512
605.0,0.0518
604.0,0.0524
603.0,0.0526
602.0,0.0521
601.0,0.0512
600.0,0.051
