cm-1,A
4000.0,0.0
3999.0,0.0
3998.0,0.0
3997.0,0.0001
3996.0,0.0001
3995.0,0.0001
3994.0,0.0001
3993.0,0.0001
3992.0,0.0001
3991.0,0.0
3990.0,-0.0
3989.0,-0.0
3988.0,-0.0001
3987.0,-0.0002
3986.0,-0.0003
3985.0,-0.0003
3984.0,-0.0004
3983.0,-0.0004
3982.0,-0.0003
3981.0,-0.0003
3980.0,-0.0003
3979.0,-0.0003
3978.0,-0.0003
3977.0,-0.0003
3976.0,-0.0003
3975.0,-0.0003
3974.0,-0.0003
3973.0,-0.0003
3972.0,-0.0002
3971.0,-0.0002
3970.0,-0.0001
3969.0,-0.0
3968.0,-0.0
3967.0,-0.0001
3966.0,-0.0001
3965.0,-0.0002
3964.0,-0.0002
3963.0,-0.0001
3962.0,-0.0001
3961.0,0.0
3960.0,0.0001
3959.0,0.0001
3958.0,0.0
3957.0,0.0
3956.0,-0.0
3955.0,-0.0001
3954.0,-0.0001
3953.0,-0.0002
3952.0,-0.0002
3951.0,-0.0002
3950.0,-0.0003
3949.0,-0.0003
3948.0,-0.0003
3947.0,-0.0003
3946.0,-0.0003
3945.0,-0.0002
3944.0,-0.0002
3943.0,-0.0001
3942.0,-0.0001
3941.0,-0.0
3940.0,0.0
3939.0,0.0
3938.0,0.0
3937.0,-0.0001
3936.0,-0.0001
3935.0,-0.0002
3934.0,-0.0002
3933.0,-0.0002
3932.0,-0.0002
3931.0,-0.0002
3930.0,-0.0002
3929.0,-0.0002
3928.0,-0.0002
3927.0,-0.0002
3926.0,-0.0002
3925.0,-0.0003
3924.0,-0.0003
3923.0,-0.0003
3922.0,-0.0003
3921.0,-0.0002
3920.0,-0.0001
3919.0,-0.0001
3918.0,-0.0001
3917.0,-0.0001
3916.0,-0.0
3915.0,0.0
3914.0,0.0001
3913.0,0.0001
3912.0,0.0
3911.0,-0.0
3910.0,-0.0001
3909.0,-0.0002
3908.0,-0.0003
3907.0,-0.0003
3906.0,-0.0003
3905.0,-0.0003
3904.0,-0.0003
3903.0,-0.0003
3902.0,-0.0003
3901.0,-0.0004
3900.0,-0.0003
3899.0,-0.0002
3898.0,-0.0001
3897.0,-0.0001
3896.0,-0.0002
3895.0,-0.0003
3894.0,-0.0004
3893.0,-0.0005
3892.0,-0.0004
3891.0,-0.0003
3890.0,-0.0001
3889.0,-0.0001
3888.0,-0.0001
3887.0,-0.0001
3886.0,-0.0001
3885.0,-0.0001
3884.0,-0.0001
3883.0,-0.0001
3882.0,-0.0001
3881.0,-0.0001
3880.0,-0.0
3879.0,-0.0001
3878.0,-0.0001
3877.0,-0.0002
3876.0,-0.0003
3875.0,-0.0003
3874.0,-0.0002
3873.0,-0.0002
3872.0,-0.0001
3871.0,-0.0001
3870.0,-0.0001
3869.0,0.0
3868.0,0.0001
3867.0,0.0001
3866.0,0.0001
3865.0,0.0001
3864.0,0.0001
3863.0,0.0001
3862.0,0.0001
3861.0,0.0001
3860.0,0.0001
3859.0,0.0
3858.0,0.0
3857.0,0.0
3856.0,0.0
3855.0,-0.0
3854.0,-0.0
3853.0,0.0
3852.0,-0.0
3851.0,-0.0001
3850.0,-0.0001
3849.0,-0.0002
3848.0,-0.0002
3847.0,-0.0002
3846.0,-0.0002
3845.0,-0.0001
3844.0,-0.0001
3843.0,0.0
3842.0,0.0001
3841.0,0.0
3840.0,-0.0001
3839.0,-0.0002
3838.0,-0.0002
3837.0,-0.0002
3836.0,-0.0001
3835.0,-0.0001
3834.0,-0.0
3833.0,-0.0
3832.0,-0.0001
3831.0,-0.0001
3830.0,-0.0001
3829.0,-0.0002
3828.0,-0.0003
3827.0,-0.0004
3826.0,-0.0004
3825.0,-0.0003
3824.0,-0.0003
3823.0,-0.0002
3822.0,-0.0001
3821.0,-0.0
3820.0,0.0001
3819.0,0.0001
3818.0,-0.0
3817.0,-0.0001
3816.0,-0.0002
3815.0,-0.0001
3814.0,-0.0
3813.0,0.0
3812.0,0.0
3811.0,0.0
3810.0,0.0
3809.0,0.0
3808.0,0.0001
3807.0,0.0001
3806.0,0.0002
3805.0,0.0002
3804.0,0.0002
3803.0,0.0001
3802.0,0.0
3801.0,0.0
3800.0,0.0
3799.0,0.0
3798.0,-0.0
3797.0,-0.0001
3796.0,-0.0001
3795.0,-0.0001
3794.0,-0.0001
3793.0,-0.0001
3792.0,-0.0001
3791.0,-0.0002
3790.0,-0.0002
3789.0,-0.0002
3788.0,-0.0002
3787.0,-0.0003
3786.0,-0.0003
3785.0,-0.0003
3784.0,-0.0002
3783.0,-0.0002
3782.0,-0.0001
3781.0,-0.0001
3780.0,-0.0001
3779.0,-0.0001
3778.0,-0.0
3777.0,0.0
3776.0,0.0
3775.0,-0.0
3774.0,-0.0001
3773.0,-0.0001
3772.0,-0.0001
3771.0,-0.0001
3770.0,-0.0001
3769.0,-0.0001
3768.0,-0.0002
3767.0,-0.0002
3766.0,-0.0002
3765.0,-0.0001
3764.0,-0.0
3763.0,0.0
3762.0,-0.0
3761.0,-0.0001
3760.0,-0.0003
3759.0,-0.0003
3758.0,-0.0003
3757.0,-0.0002
3756.0,-0.0001
3755.0,0.0
3754.0,0.0001
3753.0,0.0001
3752.0,0.0001
3751.0,0.0001
3750.0,0.0001
3749.0,0.0001
3748.0,0.0
3747.0,0.0
3746.0,0.0
3745.0,-0.0001
3744.0,-0.0002
3743.0,-0.0004
3742.0,-0.0005
3741.0,-0.0006
3740.0,-0.0007
3739.0,-0.0007
3738.0,-0.0007
3737.0,-0.0007
3736.0,-0.0009
3735.0,-0.001
3734.0,-0.0011
3733.0,-0.0012
3732.0,-0.0011
3731.0,-0.0011
3730.0,-0.0011
3729.0,-0.0011
3728.0,-0.0011
3727.0,-0.0011
3726.0,-0.001
3725.0,-0.0009
3724.0,-0.0008
3723.0,-0.0008
3722.0,-0.0007
3721.0,-0.0007
3720.0,-0.0007
3719.0,-0.0007
3718.0,-0.0006
3717.0,-0.0005
3716.0,-0.0004
3715.0,-0.0003
3714.0,-0.0002
3713.0,-0.0002
3712.0,-0.0002
3711.0,-0.0002
3710.0,-0.0003
3709.0,-0.0003
3708.0,-0.0004
3707.0,-0.0005
3706.0,-0.0006
3705.0,-0.0007
3704.0,-0.0008
3703.0,-0.0008
3702.0,-0.0007
3701.0,-0.0006
3700.0,-0.0005
3699.0,-0.0005
3698.0,-0.0005
3697.0,-0.0006
3696.0,-0.0006
3695.0,-0.0007
3694.0,-0.0006
3693.0,-0.0006
3692.0,-0.0005
3691.0,-0.0005
3690.0,-0.0004
3689.0,-0.0002
3688.0,-0.0001
3687.0,-0.0
3686.0,-0.0
3685.0,-0.0001
3684.0,-0.0002
3683.0,-0.0002
3682.0,-0.0003
3681.0,-0.0002
3680.0,-0.0002
3679.0,-0.0
3678.0,0.0001
3677.0,0.0001
3676.0,0.0
3675.0,-0.0
3674.0,-0.0
3673.0,-0.0001
3672.0,-0.0001
3671.0,-0.0002
3670.0,-0.0001
3669.0,-0.0001
3668.0,-0.0
3667.0,-0.0
3666.0,0.0
3665.0,0.0
3664.0,0.0
3663.0,0.0
3662.0,-0.0
3661.0,-0.0001
3660.0,-0.0001
3659.0,-0.0001
3658.0,-0.0001
3657.0,-0.0001
3656.0,0.0
3655.0,0.0001
3654.0,0.0001
3653.0,0.0001
3652.0,0.0002
3651.0,0.0002
3650.0,0.0002
3649.0,0.0002
3648.0,0.0001
3647.0,0.0001
3646.0,0.0001
3645.0,0.0001
3644.0,0.0001
3643.0,0.0001
3642.0,0.0001
3641.0,0.0001
3640.0,0.0
3639.0,-0.0001
3638.0,-0.0002
3637.0,-0.0003
3636.0,-0.0003
3635.0,-0.0004
3634.0,-0.0005
3633.0,-0.0005
3632.0,-0.0005
3631.0,-0.0005
3630.0,-0.0005
3629.0,-0.0006
3628.0,-0.0006
3627.0,-0.0005
3626.0,-0.0005
3625.0,-0.0004
3624.0,-0.0004
3623.0,-0.0005
3622.0,-0.0006
3621.0,-0.0008
3620.0,-0.0008
3619.0,-0.0008
3618.0,-0.0006
3617.0,-0.0004
3616.0,-0.0002
3615.0,-0.0002
3614.0,-0.0002
3613.0,-0.0002
3612.0,-0.0003
3611.0,-0.0003
3610.0,-0.0004
3609.0,-0.0004
3608.0,-0.0005
3607.0,-0.0004
3606.0,-0.0004
3605.0,-0.0004
3604.0,-0.0004
3603.0,-0.0004
3602.0,-0.0004
3601.0,-0.0004
3600.0,-0.0005
3599.0,-0.0005
3598.0,-0.0006
3597.0,-0.0006
3596.0,-0.0005
3595.0,-0.0004
3594.0,-0.0003
3593.0,-0.0002
3592.0,-0.0002
3591.0,-0.0003
3590.0,-0.0002
3589.0,-0.0002
3588.0,-0.0001
3587.0,-0.0
3586.0,-0.0
3585.0,-0.0
3584.0,-0.0
3583.0,-0.0001
3582.0,-0.0001
3581.0,-0.0001
3580.0,-0.0002
3579.0,-0.0001
3578.0,0.0
3577.0,0.0002
3576.0,0.0002
3575.0,0.0002
3574.0,0.0001
3573.0,-0.0
3572.0,-0.0
3571.0,-0.0
3570.0,-0.0
3569.0,-0.0001
3568.0,-0.0001
3567.0,-0.0001
3566.0,-0.0001
3565.0,-0.0
3564.0,-0.0
3563.0,-0.0
3562.0,0.0
3561.0,0.0001
3560.0,0.0001
3559.0,0.0001
3558.0,0.0001
3557.0,0.0001
3556.0,0.0
3555.0,0.0
3554.0,0.0001
3553.0,0.0001
3552.0,0.0002
3551.0,0.0001
3550.0,0.0001
3549.0,0.0002
3548.0,0.0002
3547.0,0.0002
3546.0,0.0002
3545.0,0.0002
3544.0,0.0001
3543.0,0.0
3542.0,-0.0
3541.0,0.0
3540.0,0.0001
3539.0,0.0002
3538.0,0.0002
3537.0,0.0002
3536.0,0.0002
3535.0,0.0002
3534.0,0.0002
3533.0,0.0002
3532.0,0.0002
3531.0,0.0002
3530.0,0.0002
3529.0,0.0002
3528.0,0.0003
3527.0,0.0003
3526.0,0.0003
3525.0,0.0003
3524.0,0.0003
3523.0,0.0003
3522.0,0.0004
3521.0,0.0004
3520.0,0.0004
3519.0,0.0003
3518.0,0.0003
3517.0,0.0002
3516.0,0.0002
3515.0,0.0002
3514.0,0.0002
3513.0,0.0002
3512.0,0.0003
3511.0,0.0003
3510.0,0.0004
3509.0,0.0003
3508.0,0.0003
3507.0,0.0002
3506.0,0.0002
3505.0,0.0002
3504.0,0.0003
3503.0,0.0003
3502.0,0.0004
3501.0,0.0003
3500.0,0.0003
3499.0,0.0001
3498.0,0.0001
3497.0,0.0
3496.0,0.0001
3495.0,0.0002
3494.0,0.0003
3493.0,0.0003
3492.0,0.0003
3491.0,0.0002
3490.0,0.0002
3489.0,0.0002
3488.0,0.0002
3487.0,0.0003
3486.0,0.0003
3485.0,0.0003
3484.0,0.0003
3483.0,0.0003
3482.0,0.0002
3481.0,0.0002
3480.0,0.0002
3479.0,0.0001
3478.0,0.0002
3477.0,0.0002
3476.0,0.0003
3475.0,0.0003
3474.0,0.0004
3473.0,0.0004
3472.0,0.0004
3471.0,0.0004
3470.0,0.0004
3469.0,0.0004
3468.0,0.0003
3467.0,0.0003
3466.0,0.0003
3465.0,0.0003
3464.0,0.0003
3463.0,0.0003
3462.0,0.0002
3461.0,0.0001
3460.0,0.0001
3459.0,-0.0
3458.0,-0.0
3457.0,0.0
3456.0,0.0001
3455.0,0.0001
3454.0,0.0001
3453.0,0.0002
3452.0,0.0002
3451.0,0.0003
3450.0,0.0004
3449.0,0.0004
3448.0,0.0004
3447.0,0.0003
3446.0,0.0003
3445.0,0.0002
3444.0,0.0002
3443.0,0.0003
3442.0,0.0003
3441.0,0.0003
3440.0,0.0004
3439.0,0.0004
3438.0,0.0004
3437.0,0.0004
3436.0,0.0004
3435.0,0.0004
3434.0,0.0004
3433.0,0.0005
3432.0,0.0005
3431.0,0.0004
3430.0,0.0003
3429.0,0.0002
3428.0,0.0002
3427.0,0.0002
3426.0,0.0003
3425.0,0.0004
3424.0,0.0004
3423.0,0.0004
3422.0,0.0004
3421.0,0.0004
3420.0,0.0005
3419.0,0.0005
3418.0,0.0004
3417.0,0.0004
3416.0,0.0003
3415.0,0.0002
3414.0,0.0001
3413.0,0.0001
3412.0,0.0001
3411.0,0.0002
3410.0,0.0003
3409.0,0.0004
3408.0,0.0003
3407.0,0.0003
3406.0,0.0002
3405.0,0.0002
3404.0,0.0003
3403.0,0.0003
3402.0,0.0003
3401.0,0.0003
3400.0,0.0003
3399.0,0.0003
3398.0,0.0003
3397.0,0.0003
3396.0,0.0003
3395.0,0.0003
3394.0,0.0003
3393.0,0.0004
3392.0,0.0004
3391.0,0.0003
3390.0,0.0002
3389.0,0.0002
3388.0,0.0002
3387.0,0.0002
3386.0,0.0003
3385.0,0.0003
3384.0,0.0004
3383.0,0.0004
3382.0,0.0004
3381.0,0.0003
3380.0,0.0002
3379.0,0.0001
3378.0,0.0001
3377.0,0.0001
3376.0,0.0001
3375.0,0.0001
3374.0,0.0001
3373.0,0.0001
3372.0,0.0002
3371.0,0.0002
3370.0,0.0002
3369.0,0.0003
3368.0,0.0003
3367.0,0.0002
3366.0,0.0002
3365.0,0.0002
3364.0,0.0002
3363.0,0.0002
3362.0,0.0002
3361.0,0.0003
3360.0,0.0003
3359.0,0.0003
3358.0,0.0002
3357.0,0.0002
3356.0,0.0003
3355.0,0.0004
3354.0,0.0004
3353.0,0.0005
3352.0,0.0004
3351.0,0.0003
3350.0,0.0003
3349.0,0.0003
3348.0,0.0003
3347.0,0.0003
3346.0,0.0003
3345.0,0.0003
3344.0,0.0003
3343.0,0.0003
3342.0,0.0003
3341.0,0.0003
3340.0,0.0004
3339.0,0.0004
3338.0,0.0005
3337.0,0.0004
3336.0,0.0004
3335.0,0.0004
3334.0,0.0005
3333.0,0.0005
3332.0,0.0005
3331.0,0.0005
3330.0,0.0005
3329.0,0.0005
3328.0,0.0005
3327.0,0.0004
3326.0,0.0004
3325.0,0.0004
3324.0,0.0005
3323.0,0.0005
3322.0,0.0006
3321.0,0.0006
3320.0,0.0005
3319.0,0.0005
3318.0,0.0004
3317.0,0.0003
3316.0,0.0003
3315.0,0.0004
3314.0,0.0004
3313.0,0.0003
3312.0,0.0003
3311.0,0.0003
3310.0,0.0003
3309.0,0.0003
3308.0,0.0003
3307.0,0.0003
3306.0,0.0002
3305.0,0.0001
3304.0,0.0
3303.0,-0.0
3302.0,-0.0
3301.0,0.0
3300.0,0.0001
3299.0,0.0
3298.0,-0.0001
3297.0,-0.0001
3296.0,-0.0001
3295.0,0.0
3294.0,0.0001
3293.0,0.0002
3292.0,0.0003
3291.0,0.0002
3290.0,0.0001
3289.0,0.0001
3288.0,0.0001
3287.0,0.0001
3286.0,0.0003
3285.0,0.0004
3284.0,0.0005
3283.0,0.0005
3282.0,0.0005
3281.0,0.0005
3280.0,0.0005
3279.0,0.0005
3278.0,0.0005
3277.0,0.0005
3276.0,0.0004
3275.0,0.0004
3274.0,0.0004
3273.0,0.0004
3272.0,0.0004
3271.0,0.0003
3270.0,0.0003
3269.0,0.0002
3268.0,0.0002
3267.0,0.0002
3266.0,0.0002
3265.0,0.0002
3264.0,0.0002
3263.0,0.0002
3262.0,0.0003
3261.0,0.0004
3260.0,0.0004
3259.0,0.0004
3258.0,0.0004
3257.0,0.0003
3256.0,0.0003
3255.0,0.0004
3254.0,0.0004
3253.0,0.0004
3252.0,0.0003
3251.0,0.0003
3250.0,0.0004
3249.0,0.0004
3248.0,0.0004
3247.0,0.0004
3246.0,0.0004
3245.0,0.0003
3244.0,0.0003
3243.0,0.0003
3242.0,0.0003
3241.0,0.0003
3240.0,0.0002
3239.0,0.0002
3238.0,0.0003
3237.0,0.0003
3236.0,0.0004
3235.0,0.0004
3234.0,0.0004
3233.0,0.0003
3232.0,0.0003
3231.0,0.0003
3230.0,0.0004
3229.0,0.0004
3228.0,0.0004
3227.0,0.0004
3226.0,0.0003
3225.0,0.0003
3224.0,0.0003
3223.0,0.0004
3222.0,0.0004
3221.0,0.0004
3220.0,0.0004
3219.0,0.0003
3218.0,0.0003
3217.0,0.0003
3216.0,0.0004
3215.0,0.0004
3214.0,0.0005
3213.0,0.0004
3212.0,0.0004
3211.0,0.0003
3210.0,0.0002
3209.0,0.0002
3208.0,0.0002
3207.0,0.0002
3206.0,0.0002
3205.0,0.0002
3204.0,0.0003
3203.0,0.0003
3202.0,0.0003
3201.0,0.0004
3200.0,0.0003
3199.0,0.0003
3198.0,0.0003
3197.0,0.0003
3196.0,0.0003
3195.0,0.0003
3194.0,0.0003
3193.0,0.0003
3192.0,0.0003
3191.0,0.0003
3190.0,0.0003
3189.0,0.0003
3188.0,0.0004
3187.0,0.0004
3186.0,0.0005
3185.0,0.0005
3184.0,0.0004
3183.0,0.0003
3182.0,0.0003
3181.0,0.0003
3180.0,0.0004
3179.0,0.0005
3178.0,0.0005
3177.0,0.0004
3176.0,0.0003
3175.0,0.0003
3174.0,0.0002
3173.0,0.0002
3172.0,0.0002
3171.0,0.0002
3170.0,0.0003
3169.0,0.0003
3168.0,0.0003
3167.0,0.0004
3166.0,0.0004
3165.0,0.0003
3164.0,0.0003
3163.0,0.0003
3162.0,0.0003
3161.0,0.0003
3160.0,0.0003
3159.0,0.0003
3158.0,0.0003
3157.0,0.0003
3156.0,0.0002
3155.0,0.0002
3154.0,0.0002
3153.0,0.0002
3152.0,0.0002
3151.0,0.0002
3150.0,0.0002
3149.0,0.0003
3148.0,0.0004
3147.0,0.0004
3146.0,0.0004
3145.0,0.0004
3144.0,0.0004
3143.0,0.0004
3142.0,0.0005
3141.0,0.0005
3140.0,0.0005
3139.0,0.0005
3138.0,0.0004
3137.0,0.0003
3136.0,0.0003
3135.0,0.0002
3134.0,0.0001
3133.0,0.0001
3132.0,0.0002
3131.0,0.0003
3130.0,0.0003
3129.0,0.0003
3128.0,0.0002
3127.0,0.0002
3126.0,0.0002
3125.0,0.0002
3124.0,0.0002
3123.0,0.0002
3122.0,0.0002
3121.0,0.0003
3120.0,0.0003
3119.0,0.0003
3118.0,0.0003
3117.0,0.0003
3116.0,0.0003
3115.0,0.0003
3114.0,0.0003
3113.0,0.0004
3112.0,0.0004
3111.0,0.0005
3110.0,0.0005
3109.0,0.0004
3108.0,0.0003
3107.0,0.0002
3106.0,0.0002
3105.0,0.0001
3104.0,0.0001
3103.0,0.0002
3102.0,0.0002
3101.0,0.0003
3100.0,0.0003
3099.0,0.0004
3098.0,0.0004
3097.0,0.0004
3096.0,0.0004
3095.0,0.0003
3094.0,0.0003
3093.0,0.0002
3092.0,0.0002
3091.0,0.0002
3090.0,0.0001
3089.0,0.0001
3088.0,0.0002
3087.0,0.0002
3086.0,0.0003
3085.0,0.0003
3084.0,0.0003
3083.0,0.0003
3082.0,0.0003
3081.0,0.0003
3080.0,0.0003
3079.0,0.0003
3078.0,0.0003
3077.0,0.0004
3076.0,0.0003
3075.0,0.0003
3074.0,0.0003
3073.0,0.0003
3072.0,0.0003
3071.0,0.0003
3070.0,0.0002
3069.0,0.0002
3068.0,0.0002
3067.0,0.0001
3066.0,0.0001
3065.0,0.0001
3064.0,0.0001
3063.0,0.0001
3062.0,0.0002
3061.0,0.0002
3060.0,0.0003
3059.0,0.0003
3058.0,0.0003
3057.0,0.0003
3056.0,0.0003
3055.0,0.0003
3054.0,0.0003
3053.0,0.0004
3052.0,0.0004
3051.0,0.0003
3050.0,0.0003
3049.0,0.0002
3048.0,0.0002
3047.0,0.0002
3046.0,0.0002
3045.0,0.0002
3044.0,0.0002
3043.0,0.0002
3042.0,0.0002
3041.0,0.0003
3040.0,0.0003
3039.0,0.0003
3038.0,0.0003
3037.0,0.0002
3036.0,0.0002
3035.0,0.0002
3034.0,0.0002
3033.0,0.0003
3032.0,0.0003
3031.0,0.0003
3030.0,0.0002
3029.0,0.0002
3028.0,0.0002
3027.0,0.0002
3026.0,0.0003
3025.0,0.0003
3024.0,0.0003
3023.0,0.0004
3022.0,0.0003
3021.0,0.0003
3020.0,0.0002
3019.0,0.0002
3018.0,0.0002
3017.0,0.0001
3016.0,0.0001
3015.0,0.0001
3014.0,0.0001
3013.0,0.0002
3012.0,0.0002
3011.0,0.0002
3010.0,0.0003
3009.0,0.0003
3008.0,0.0003
3007.0,0.0002
3006.0,0.0002
3005.0,0.0002
3004.0,0.0002
3003.0,0.0003
3002.0,0.0003
3001.0,0.0003
3000.0,0.0004
2999.0,0.0004
2998.0,0.0004
2997.0,0.0005
2996.0,0.0005
2995.0,0.0004
2994.0,0.0003
2993.0,0.0002
2992.0,0.0002
2991.0,0.0002
2990.0,0.0003
2989.0,0.0003
2988.0,0.0003
2987.0,0.0003
2986.0,0.0004
2985.0,0.0004
2984.0,0.0003
2983.0,0.0002
2982.0,0.0002
2981.0,0.0002
2980.0,0.0002
2979.0,0.0002
2978.0,0.0002
2977.0,0.0002
2976.0,0.0002
2975.0,0.0002
2974.0,0.0002
2973.0,0.0002
2972.0,0.0002
2971.0,0.0002
2970.0,0.0003
2969.0,0.0003
2968.0,0.0004
2967.0,0.0004
2966.0,0.0004
2965.0,0.0004
2964.0,0.0004
2963.0,0.0004
2962.0,0.0004
2961.0,0.0004
2960.0,0.0004
2959.0,0.0003
2958.0,0.0003
2957.0,0.0003
2956.0,0.0002
2955.0,0.0002
2954.0,0.0002
2953.0,0.0003
2952.0,0.0003
2951.0,0.0003
2950.0,0.0004
2949.0,0.0004
2948.0,0.0004
2947.0,0.0004
2946.0,0.0004
2945.0,0.0003
2944.0,0.0003
2943.0,0.0003
2942.0,0.0004
2941.0,0.0004
2940.0,0.0004
2939.0,0.0004
2938.0,0.0003
2937.0,0.0003
2936.0,0.0002
2935.0,0.0002
2934.0,0.0003
2933.0,0.0003
2932.0,0.0003
2931.0,0.0003
2930.0,0.0003
2929.0,0.0003
2928.0,0.0003
2927.0,0.0003
2926.0,0.0003
2925.0,0.0003
2924.0,0.0003
2923.0,0.0002
2922.0,0.0002
2921.0,0.0001
2920.0,0.0001
2919.0,0.0001
2918.0,0.0001
2917.0,0.0002
2916.0,0.0003
2915.0,0.0003
2914.0,0.0003
2913.0,0.0003
2912.0,0.0003
2911.0,0.0003
2910.0,0.0003
2909.0,0.0004
2908.0,0.0004
2907.0,0.0003
2906.0,0.0002
2905.0,0.0001
2904.0,0.0002
2903.0,0.0002
2902.0,0.0003
2901.0,0.0003
2900.0,0.0003
2899.0,0.0004
2898.0,0.0004
2897.0,0.0004
2896.0,0.0003
2895.0,0.0003
2894.0,0.0003
2893.0,0.0004
2892.0,0.0004
2891.0,0.0003
2890.0,0.0003
2889.0,0.0003
2888.0,0.0003
2887.0,0.0003
2886.0,0.0003
2885.0,0.0004
2884.0,0.0004
2883.0,0.0004
2882.0,0.0004
2881.0,0.0004
2880.0,0.0004
2879.0,0.0003
2878.0,0.0003
2877.0,0.0004
2876.0,0.0004
2875.0,0.0005
2874.0,0.0005
2873.0,0.0005
2872.0,0.0004
2871.0,0.0004
2870.0,0.0003
2869.0,0.0003
2868.0,0.0002
2867.0,0.0002
2866.0,0.0003
2865.0,0.0003
2864.0,0.0004
2863.0,0.0004
2862.0,0.0004
2861.0,0.0004
2860.0,0.0004
2859.0,0.0004
2858.0,0.0004
2857.0,0.0004
2856.0,0.0003
2855.0,0.0002
2854.0,0.0002
2853.0,0.0002
2852.0,0.0002
2851.0,0.0002
2850.0,0.0002
2849.0,0.0003
2848.0,0.0003
2847.0,0.0003
2846.0,0.0003
2845.0,0.0004
2844.0,0.0004
2843.0,0.0003
2842.0,0.0004
2841.0,0.0004
2840.0,0.0005
2839.0,0.0005
2838.0,0.0005
2837.0,0.0005
2836.0,0.0004
2835.0,0.0003
2834.0,0.0003
2833.0,0.0003
2832.0,0.0003
2831.0,0.0003
2830.0,0.0003
2829.0,0.0004
2828.0,0.0004
2827.0,0.0004
2826.0,0.0003
2825.0,0.0002
2824.0,0.0001
2823.0,0.0001
2822.0,0.0001
2821.0,0.0002
2820.0,0.0003
2819.0,0.0003
2818.0,0.0004
2817.0,0.0004
2816.0,0.0004
2815.0,0.0004
2814.0,0.0004
2813.0,0.0003
2812.0,0.0003
2811.0,0.0003
2810.0,0.0003
2809.0,0.0003
2808.0,0.0003
2807.0,0.0003
2806.0,0.0003
2805.0,0.0003
2804.0,0.0003
2803.0,0.0003
2802.0,0.0002
2801.0,0.0003
2800.0,0.0003
2799.0,0.0003
2798.0,0.0003
2797.0,0.0004
2796.0,0.0004
2795.0,0.0004
2794.0,0.0004
2793.0,0.0005
2792.0,0.0005
2791.0,0.0005
2790.0,0.0005
2789.0,0.0005
2788.0,0.0005
2787.0,0.0004
2786.0,0.0004
2785.0,0.0003
2784.0,0.0003
2783.0,0.0003
2782.0,0.0003
2781.0,0.0003
2780.0,0.0002
2779.0,0.0002
2778.0,0.0003
2777.0,0.0003
2776.0,0.0003
2775.0,0.0003
2774.0,0.0003
2773.0,0.0003
2772.0,0.0003
2771.0,0.0003
2770.0,0.0003
2769.0,0.0003
2768.0,0.0003
2767.0,0.0003
2766.0,0.0003
2765.0,0.0003
2764.0,0.0003
2763.0,0.0004
2762.0,0.0005
2761.0,0.0005
2760.0,0.0005
2759.0,0.0005
2758.0,0.0005
2757.0,0.0004
2756.0,0.0004
2755.0,0.0003
2754.0,0.0003
2753.0,0.0003
2752.0,0.0003
2751.0,0.0003
2750.0,0.0003
2749.0,0.0003
2748.0,0.0003
2747.0,0.0003
2746.0,0.0002
2745.0,0.0003
2744.0,0.0003
2743.0,0.0004
2742.0,0.0005
2741.0,0.0005
2740.0,0.0005
2739.0,0.0005
2738.0,0.0005
2737.0,0.0004
2736.0,0.0004
2735.0,0.0004
2734.0,0.0004
2733.0,0.0004
2732.0,0.0005
2731.0,0.0004
2730.0,0.0004
2729.0,0.0004
2728.0,0.0004
2727.0,0.0004
2726.0,0.0004
2725.0,0.0004
2724.0,0.0004
2723.0,0.0005
2722.0,0.0004
2721.0,0.0003
2720.0,0.0002
2719.0,0.0002
2718.0,0.0002
2717.0,0.0002
2716.0,0.0003
2715.0,0.0004
2714.0,0.0004
2713.0,0.0004
2712.0,0.0004
2711.0,0.0004
2710.0,0.0004
2709.0,0.0004
2708.0,0.0005
2707.0,0.0005
2706.0,0.0004
2705.0,0.0004
2704.0,0.0004
2703.0,0.0005
2702.0,0.0005
2701.0,0.0005
2700.0,0.0005
2699.0,0.0004
2698.0,0.0004
2697.0,0.0004
2696.0,0.0004
2695.0,0.0004
2694.0,0.0004
2693.0,0.0004
2692.0,0.0004
2691.0,0.0003
2690.0,0.0003
2689.0,0.0003
2688.0,0.0003
2687.0,0.0003
2686.0,0.0004
2685.0,0.0004
2684.0,0.0004
2683.0,0.0004
2682.0,0.0004
2681.0,0.0004
2680.0,0.0004
2679.0,0.0004
2678.0,0.0003
2677.0,0.0003
2676.0,0.0003
2675.0,0.0004
2674.0,0.0004
2673.0,0.0004
2672.0,0.0004
2671.0,0.0004
2670.0,0.0004
2669.0,0.0004
2668.0,0.0004
2667.0,0.0005
2666.0,0.0005
2665.0,0.0005
2664.0,0.0005
2663.0,0.0004
2662.0,0.0004
2661.0,0.0003
2660.0,0.0003
2659.0,0.0003
2658.0,0.0004
2657.0,0.0004
2656.0,0.0004
2655.0,0.0004
2654.0,0.0004
2653.0,0.0004
2652.0,0.0004
2651.0,0.0004
2650.0,0.0004
2649.0,0.0004
2648.0,0.0004
2647.0,0.0004
2646.0,0.0004
2645.0,0.0004
2644.0,0.0004
2643.0,0.0005
2642.0,0.0005
2641.0,0.0005
2640.0,0.0005
2639.0,0.0005
2638.0,0.0005
2637.0,0.0004
2636.0,0.0004
2635.0,0.0004
2634.0,0.0004
2633.0,0.0004
2632.0,0.0004
2631.0,0.0003
2630.0,0.0003
2629.0,0.0004
2628.0,0.0004
2627.0,0.0005
2626.0,0.0005
2625.0,0.0005
2624.0,0.0004
2623.0,0.0004
2622.0,0.0004
2621.0,0.0004
2620.0,0.0004
2619.0,0.0005
2618.0,0.0005
2617.0,0.0004
2616.0,0.0004
2615.0,0.0004
2614.0,0.0004
2613.0,0.0004
2612.0,0.0004
2611.0,0.0004
2610.0,0.0004
2609.0,0.0004
2608.0,0.0005
2607.0,0.0005
2606.0,0.0005
2605.0,0.0005
2604.0,0.0005
2603.0,0.0005
2602.0,0.0005
2601.0,0.0005
2600.0,0.0005
2599.0,0.0005
2598.0,0.0005
2597.0,0.0005
2596.0,0.0005
2595.0,0.0005
2594.0,0.0005
2593.0,0.0005
2592.0,0.0005
2591.0,0.0005
2590.0,0.0005
2589.0,0.0004
2588.0,0.0004
2587.0,0.0003
2586.0,0.0003
2585.0,0.0003
2584.0,0.0003
2583.0,0.0003
2582.0,0.0004
2581.0,0.0004
2580.0,0.0004
2579.0,0.0004
2578.0,0.0004
2577.0,0.0004
2576.0,0.0004
2575.0,0.0004
2574.0,0.0004
2573.0,0.0005
2572.0,0.0005
2571.0,0.0006
2570.0,0.0006
2569.0,0.0006
2568.0,0.0005
2567.0,0.0005
2566.0,0.0005
2565.0,0.0005
2564.0,0.0005
2563.0,0.0005
2562.0,0.0004
2561.0,0.0004
2560.0,0.0004
2559.0,0.0004
2558.0,0.0005
2557.0,0.0005
2556.0,0.0005
2555.0,0.0005
2554.0,0.0004
2553.0,0.0004
2552.0,0.0004
2551.0,0.0005
2550.0,0.0005
2549.0,0.0005
2548.0,0.0005
2547.0,0.0004
2546.0,0.0004
2545.0,0.0004
2544.0,0.0005
2543.0,0.0005
2542.0,0.0004
2541.0,0.0004
2540.0,0.0003
2539.0,0.0003
2538.0,0.0004
2537.0,0.0004
2536.0,0.0005
2535.0,0.0006
2534.0,0.0006
2533.0,0.0006
2532.0,0.0006
2531.0,0.0006
2530.0,0.0005
2529.0,0.0005
2528.0,0.0006
2527.0,0.0005
2526.0,0.0005
2525.0,0.0005
2524.0,0.0005
2523.0,0.0005
2522.0,0.0005
2521.0,0.0006
2520.0,0.0006
2519.0,0.0005
2518.0,0.0005
2517.0,0.0004
2516.0,0.0004
2515.0,0.0004
2514.0,0.0004
2513.0,0.0004
2512.0,0.0004
2511.0,0.0005
2510.0,0.0005
2509.0,0.0005
2508.0,0.0005
2507.0,0.0005
2506.0,0.0005
2505.0,0.0005
2504.0,0.0004
2503.0,0.0004
2502.0,0.0004
2501.0,0.0004
2500.0,0.0005
2499.0,0.0005
2498.0,0.0005
2497.0,0.0005
2496.0,0.0005
2495.0,0.0005
2494.0,0.0006
2493.0,0.0007
2492.0,0.0006
2491.0,0.0006
2490.0,0.0005
2489.0,0.0005
2488.0,0.0005
2487.0,0.0006
2486.0,0.0006
2485.0,0.0006
2484.0,0.0006
2483.0,0.0006
2482.0,0.0005
2481.0,0.0005
2480.0,0.0005
2479.0,0.0006
2478.0,0.0006
2477.0,0.0006
2476.0,0.0007
2475.0,0.0007
2474.0,0.0006
2473.0,0.0006
2472.0,0.0006
2471.0,0.0006
2470.0,0.0006
2469.0,0.0005
2468.0,0.0005
2467.0,0.0005
2466.0,0.0004
2465.0,0.0004
2464.0,0.0003
2463.0,0.0003
2462.0,0.0003
2461.0,0.0003
2460.0,0.0003
2459.0,0.0004
2458.0,0.0005
2457.0,0.0006
2456.0,0.0006
2455.0,0.0006
2454.0,0.0005
2453.0,0.0005
2452.0,0.0005
2451.0,0.0005
2450.0,0.0005
2449.0,0.0005
2448.0,0.0005
2447.0,0.0005
2446.0,0.0005
2445.0,0.0005
2444.0,0.0005
2443.0,0.0006
2442.0,0.0005
2441.0,0.0005
2440.0,0.0005
2439.0,0.0006
2438.0,0.0006
2437.0,0.0006
2436.0,0.0006
2435.0,0.0006
2434.0,0.0005
2433.0,0.0005
2432.0,0.0005
2431.0,0.0004
2430.0,0.0004
2429.0,0.0005
2428.0,0.0005
2427.0,0.0005
2426.0,0.0005
2425.0,0.0005
2424.0,0.0005
2423.0,0.0005
2422.0,0.0005
2421.0,0.0005
2420.0,0.0005
2419.0,0.0005
2418.0,0.0005
2417.0,0.0005
2416.0,0.0005
2415.0,0.0005
2414.0,0.0005
2413.0,0.0005
2412.0,0.0005
2411.0,0.0005
2410.0,0.0005
2409.0,0.0005
2408.0,0.0005
2407.0,0.0005
2406.0,0.0006
2405.0,0.0006
2404.0,0.0006
2403.0,0.0006
2402.0,0.0006
2401.0,0.0006
2400.0,0.0007
2399.0,0.0007
2398.0,0.0006
2397.0,0.0006
2396.0,0.0005
2395.0,0.0005
2394.0,0.0005
2393.0,0.0006
2392.0,0.0006
2391.0,0.0006
2390.0,0.0006
2389.0,0.0005
2388.0,0.0005
2387.0,0.0004
2386.0,0.0004
2385.0,0.0003
2384.0,0.0001
2383.0,-0.0001
2382.0,-0.0003
2381.0,-0.0006
2380.0,-0.0007
2379.0,-0.0009
2378.0,-0.0009
2377.0,-0.001
2376.0,-0.001
2375.0,-0.0012
2374.0,-0.0014
2373.0,-0.0014
2372.0,-0.0013
2371.0,-0.001
2370.0,-0.0007
2369.0,-0.0007
2368.0,-0.0008
2367.0,-0.0011
2366.0,-0.0018
2365.0,-0.0028
2364.0,-0.0038
2363.0,-0.0041
2362.0,-0.0032
2361.0,-0.0018
2360.0,-0.0009
2359.0,-0.0015
2358.0,-0.0031
2357.0,-0.0044
2356.0,-0.0046
2355.0,-0.0041
2354.0,-0.0038
2353.0,-0.004
2352.0,-0.0045
2351.0,-0.0047
2350.0,-0.0044
2349.0,-0.0039
2348.0,-0.0033
2347.0,-0.0029
2346.0,-0.0029
2345.0,-0.0031
2344.0,-0.0035
2343.0,-0.0037
2342.0,-0.0039
2341.0,-0.0043
2340.0,-0.0047
2339.0,-0.0049
2338.0,-0.005
2337.0,-0.0049
2336.0,-0.005
2335.0,-0.0051
2334.0,-0.0051
2333.0,-0.0048
2332.0,-0.0042
2331.0,-0.0036
2330.0,-0.0032
2329.0,-0.0031
2328.0,-0.0032
2327.0,-0.0031
2326.0,-0.0029
2325.0,-0.0028
2324.0,-0.0028
2323.0,-0.0029
2322.0,-0.0028
2321.0,-0.0024
2320.0,-0.0019
2319.0,-0.0014
2318.0,-0.001
2317.0,-0.0008
2316.0,-0.0007
2315.0,-0.0007
2314.0,-0.001
2313.0,-0.0013
2312.0,-0.0015
2311.0,-0.0017
2310.0,-0.0018
2309.0,-0.0018
2308.0,-0.0018
2307.0,-0.0017
2306.0,-0.0016
2305.0,-0.0015
2304.0,-0.0015
2303.0,-0.0014
2302.0,-0.0012
2301.0,-0.0011
2300.0,-0.0009
2299.0,-0.0008
2298.0,-0.0007
2297.0,-0.0006
2296.0,-0.0005
2295.0,-0.0004
2294.0,-0.0003
2293.0,-0.0003
2292.0,-0.0002
2291.0,-0.0001
2290.0,0.0
2289.0,0.0001
2288.0,0.0002
2287.0,0.0002
2286.0,0.0003
2285.0,0.0004
2284.0,0.0004
2283.0,0.0005
2282.0,0.0005
2281.0,0.0005
2280.0,0.0004
2279.0,0.0004
2278.0,0.0003
2277.0,0.0003
2276.0,0.0004
2275.0,0.0004
2274.0,0.0003
2273.0,0.0003
2272.0,0.0003
2271.0,0.0004
2270.0,0.0004
2269.0,0.0004
2268.0,0.0004
2267.0,0.0004
2266.0,0.0004
2265.0,0.0004
2264.0,0.0003
2263.0,0.0003
2262.0,0.0003
2261.0,0.0003
2260.0,0.0003
2259.0,0.0003
2258.0,0.0004
2257.0,0.0005
2256.0,0.0005
2255.0,0.0006
2254.0,0.0006
2253.0,0.0005
2252.0,0.0004
2251.0,0.0004
2250.0,0.0004
2249.0,0.0005
2248.0,0.0006
2247.0,0.0007
2246.0,0.0007
2245.0,0.0007
2244.0,0.0007
2243.0,0.0007
2242.0,0.0007
2241.0,0.0007
2240.0,0.0007
2239.0,0.0007
2238.0,0.0007
2237.0,0.0007
2236.0,0.0007
2235.0,0.0007
2234.0,0.0007
2233.0,0.0007
2232.0,0.0007
2231.0,0.0007
2230.0,0.0006
2229.0,0.0006
2228.0,0.0006
2227.0,0.0006
2226.0,0.0007
2225.0,0.0007
2224.0,0.0008
2223.0,0.0008
2222.0,0.0008
2221.0,0.0008
2220.0,0.0007
2219.0,0.0007
2218.0,0.0007
2217.0,0.0007
2216.0,0.0007
2215.0,0.0008
2214.0,0.0008
2213.0,0.0008
2212.0,0.0008
2211.0,0.0008
2210.0,0.0008
2209.0,0.0008
2208.0,0.0008
2207.0,0.0008
2206.0,0.0008
2205.0,0.0008
2204.0,0.0008
2203.0,0.0008
2202.0,0.0008
2201.0,0.0007
2200.0,0.0007
2199.0,0.0007
2198.0,0.0007
2197.0,0.0007
2196.0,0.0007
2195.0,0.0007
2194.0,0.0007
2193.0,0.0008
2192.0,0.0008
2191.0,0.0008
2190.0,0.0007
2189.0,0.0007
2188.0,0.0007
2187.0,0.0007
2186.0,0.0008
2185.0,0.0008
2184.0,0.0008
2183.0,0.0007
2182.0,0.0007
2181.0,0.0006
2180.0,0.0006
2179.0,0.0007
2178.0,0.0007
2177.0,0.0008
2176.0,0.0007
2175.0,0.0007
2174.0,0.0007
2173.0,0.0007
2172.0,0.0007
2171.0,0.0008
2170.0,0.0008
2169.0,0.0007
2168.0,0.0007
2167.0,0.0007
2166.0,0.0007
2165.0,0.0007
2164.0,0.0007
2163.0,0.0007
2162.0,0.0007
2161.0,0.0008
2160.0,0.0008
2159.0,0.0008
2158.0,0.0008
2157.0,0.0008
2156.0,0.0008
2155.0,0.0008
2154.0,0.0008
2153.0,0.0008
2152.0,0.0008
2151.0,0.0008
2150.0,0.0009
2149.0,0.0009
2148.0,0.0008
2147.0,0.0008
2146.0,0.0008
2145.0,0.0008
2144.0,0.0008
2143.0,0.0008
2142.0,0.0008
2141.0,0.0008
2140.0,0.0008
2139.0,0.0008
2138.0,0.0008
2137.0,0.0008
2136.0,0.0008
2135.0,0.0008
2134.0,0.0009
2133.0,0.0009
2132.0,0.0009
2131.0,0.0008
2130.0,0.0008
2129.0,0.0009
2128.0,0.0009
2127.0,0.0009
2126.0,0.0009
2125.0,0.0009
2124.0,0.0009
2123.0,0.0009
2122.0,0.0008
2121.0,0.0008
2120.0,0.0007
2119.0,0.0007
2118.0,0.0008
2117.0,0.0008
2116.0,0.0008
2115.0,0.0008
2114.0,0.0007
2113.0,0.0007
2112.0,0.0007
2111.0,0.0008
2110.0,0.0008
2109.0,0.0008
2108.0,0.0008
2107.0,0.0008
2106.0,0.0008
2105.0,0.0007
2104.0,0.0007
2103.0,0.0007
2102.0,0.0007
2101.0,0.0007
2100.0,0.0008
2099.0,0.0008
2098.0,0.0008
2097.0,0.0008
2096.0,0.0008
2095.0,0.0008
2094.0,0.0008
2093.0,0.0008
2092.0,0.0008
2091.0,0.0008
2090.0,0.0008
2089.0,0.0008
2088.0,0.0008
2087.0,0.0008
2086.0,0.0008
2085.0,0.0009
2084.0,0.0009
2083.0,0.0008
2082.0,0.0008
2081.0,0.0007
2080.0,0.0007
2079.0,0.0008
2078.0,0.0008
2077.0,0.0008
2076.0,0.0008
2075.0,0.0008
2074.0,0.0007
2073.0,0.0007
2072.0,0.0007
2071.0,0.0008
2070.0,0.0008
2069.0,0.0008
2068.0,0.0009
2067.0,0.0009
2066.0,0.0009
2065.0,0.0009
2064.0,0.0008
2063.0,0.0008
2062.0,0.0008
2061.0,0.0008
2060.0,0.0007
2059.0,0.0007
2058.0,0.0008
2057.0,0.0008
2056.0,0.0009
2055.0,0.0009
2054.0,0.0009
2053.0,0.0009
2052.0,0.0009
2051.0,0.0008
2050.0,0.0007
2049.0,0.0007
2048.0,0.0007
2047.0,0.0007
2046.0,0.0008
2045.0,0.0008
2044.0,0.0008
2043.0,0.0007
2042.0,0.0007
2041.0,0.0008
2040.0,0.0008
2039.0,0.0008
2038.0,0.0008
2037.0,0.0008
2036.0,0.0009
2035.0,0.0009
2034.0,0.0009
2033.0,0.0009
2032.0,0.0008
2031.0,0.0007
2030.0,0.0007
2029.0,0.0008
2028.0,0.0008
2027.0,0.0008
2026.0,0.0008
2025.0,0.0008
2024.0,0.0008
2023.0,0.0008
2022.0,0.0008
2021.0,0.0008
2020.0,0.0008
2019.0,0.0008
2018.0,0.0008
2017.0,0.0008
2016.0,0.0007
2015.0,0.0007
2014.0,0.0007
2013.0,0.0007
2012.0,0.0008
2011.0,0.0008
2010.0,0.0008
2009.0,0.0009
2008.0,0.0009
2007.0,0.0009
2006.0,0.0009
2005.0,0.0009
2004.0,0.0008
2003.0,0.0008
2002.0,0.0008
2001.0,0.0007
2000.0,0.0008
1999.0,0.0008
1998.0,0.0008
1997.0,0.0008
1996.0,0.0009
1995.0,0.0009
1994.0,0.0008
1993.0,0.0008
1992.0,0.0008
1991.0,0.0008
1990.0,0.0008
1989.0,0.0008
1988.0,0.0008
1987.0,0.0008
1986.0,0.0008
1985.0,0.0008
1984.0,0.0008
1983.0,0.0008
1982.0,0.0008
1981.0,0.0008
1980.0,0.0008
1979.0,0.0008
1978.0,0.0007
1977.0,0.0007
1976.0,0.0007
1975.0,0.0007
1974.0,0.0008
1973.0,0.0008
1972.0,0.0008
1971.0,0.0008
1970.0,0.0008
1969.0,0.0008
1968.0,0.0008
1967.0,0.0008
1966.0,0.0008
1965.0,0.0008
1964.0,0.0008
1963.0,0.0008
1962.0,0.0008
1961.0,0.0008
1960.0,0.0008
1959.0,0.0008
1958.0,0.0008
1957.0,0.0008
1956.0,0.0008
1955.0,0.0009
1954.0,0.0009
1953.0,0.0008
1952.0,0.0008
1951.0,0.0008
1950.0,0.0008
1949.0,0.0008
1948.0,0.0008
1947.0,0.0008
1946.0,0.0008
1945.0,0.0008
1944.0,0.0008
1943.0,0.0008
1942.0,0.0008
1941.0,0.0009
1940.0,0.0009
1939.0,0.0009
1938.0,0.0009
1937.0,0.0009
1936.0,0.0009
1935.0,0.0009
1934.0,0.0009
1933.0,0.0009
1932.0,0.0008
1931.0,0.0008
1930.0,0.0008
1929.0,0.0008
1928.0,0.0008
1927.0,0.0008
1926.0,0.0008
1925.0,0.0008
1924.0,0.0009
1923.0,0.0008
1922.0,0.0008
1921.0,0.0008
1920.0,0.0008
1919.0,0.0009
1918.0,0.0008
1917.0,0.0008
1916.0,0.0008
1915.0,0.0007
1914.0,0.0007
1913.0,0.0008
1912.0,0.0008
1911.0,0.0008
1910.0,0.0007
1909.0,0.0007
1908.0,0.0007
1907.0,0.0007
1906.0,0.0007
1905.0,0.0007
1904.0,0.0008
1903.0,0.0008
1902.0,0.0007
1901.0,0.0007
1900.0,0.0007
1899.0,0.0007
1898.0,0.0007
1897.0,0.0007
1896.0,0.0007
1895.0,0.0008
1894.0,0.0008
1893.0,0.0008
1892.0,0.0008
1891.0,0.0008
1890.0,0.0008
1889.0,0.0008
1888.0,0.0007
1887.0,0.0007
1886.0,0.0007
1885.0,0.0007
1884.0,0.0007
1883.0,0.0007
1882.0,0.0006
1881.0,0.0006
1880.0,0.0006
1879.0,0.0006
1878.0,0.0006
1877.0,0.0006
1876.0,0.0006
1875.0,0.0006
1874.0,0.0007
1873.0,0.0007
1872.0,0.0007
1871.0,0.0007
1870.0,0.0007
1869.0,0.0006
1868.0,0.0006
1867.0,0.0006
1866.0,0.0006
1865.0,0.0006
1864.0,0.0007
1863.0,0.0007
1862.0,0.0006
1861.0,0.0006
1860.0,0.0006
1859.0,0.0005
1858.0,0.0005
1857.0,0.0005
1856.0,0.0005
1855.0,0.0005
1854.0,0.0006
1853.0,0.0006
1852.0,0.0006
1851.0,0.0006
1850.0,0.0005
1849.0,0.0005
1848.0,0.0004
1847.0,0.0004
1846.0,0.0004
1845.0,0.0005
1844.0,0.0004
1843.0,0.0004
1842.0,0.0004
1841.0,0.0005
1840.0,0.0005
1839.0,0.0005
1838.0,0.0005
1837.0,0.0005
1836.0,0.0004
1835.0,0.0004
1834.0,0.0004
1833.0,0.0004
1832.0,0.0005
1831.0,0.0004
1830.0,0.0004
1829.0,0.0004
1828.0,0.0005
1827.0,0.0005
1826.0,0.0005
1825.0,0.0004
1824.0,0.0004
1823.0,0.0004
1822.0,0.0004
1821.0,0.0005
1820.0,0.0005
1819.0,0.0005
1818.0,0.0005
1817.0,0.0004
1816.0,0.0004
1815.0,0.0004
1814.0,0.0004
1813.0,0.0005
1812.0,0.0005
1811.0,0.0004
1810.0,0.0004
1809.0,0.0004
1808.0,0.0003
1807.0,0.0003
1806.0,0.0003
1805.0,0.0003
1804.0,0.0003
1803.0,0.0004
1802.0,0.0004
1801.0,0.0004
1800.0,0.0003
1799.0,0.0003
1798.0,0.0002
1797.0,0.0002
1796.0,0.0002
1795.0,0.0002
1794.0,0.0002
1793.0,0.0002
1792.0,0.0002
1791.0,0.0001
1790.0,0.0001
1789.0,0.0001
1788.0,0.0001
1787.0,0.0001
1786.0,0.0001
1785.0,0.0001
1784.0,0.0001
1783.0,0.0001
1782.0,0.0
1781.0,0.0
1780.0,-0.0
1779.0,-0.0
1778.0,-0.0
1777.0,-0.0001
1776.0,-0.0001
1775.0,-0.0001
1774.0,-0.0001
1773.0,-0.0002
1772.0,-0.0001
1771.0,-0.0
1770.0,0.0001
1769.0,0.0001
1768.0,0.0001
1767.0,0.0
1766.0,-0.0
1765.0,0.0
1764.0,0.0001
1763.0,0.0002
1762.0,0.0002
1761.0,0.0002
1760.0,0.0002
1759.0,0.0001
1758.0,0.0001
1757.0,0.0001
1756.0,0.0002
1755.0,0.0003
1754.0,0.0003
1753.0,0.0004
1752.0,0.0004
1751.0,0.0005
1750.0,0.0005
1749.0,0.0006
1748.0,0.0007
1747.0,0.0009
1746.0,0.0011
1745.0,0.0013
1744.0,0.0016
1743.0,0.0019
1742.0,0.0022
1741.0,0.0026
1740.0,0.003
1739.0,0.0035
1738.0,0.0039
1737.0,0.0041
1736.0,0.0044
1735.0,0.0048
1734.0,0.0053
1733.0,0.0058
1732.0,0.0062
1731.0,0.0065
1730.0,0.0069
1729.0,0.0072
1728.0,0.0075
1727.0,0.0077
1726.0,0.0079
1725.0,0.0081
1724.0,0.0082
1723.0,0.0084
1722.0,0.0086
1721.0,0.0089
1720.0,0.0091
1719.0,0.0093
1718.0,0.0094
1717.0,0.0095
1716.0,0.0094
1715.0,0.0095
1714.0,0.0095
1713.0,0.0095
1712.0,0.0095
1711.0,0.0094
1710.0,0.0093
1709.0,0.0091
1708.0,0.0088
1707.0,0.0085
1706.0,0.0082
1705.0,0.0078
1704.0,0.0076
1703.0,0.0075
1702.0,0.0073
1701.0,0.007
1700.0,0.0066
1699.0,0.0063
1698.0,0.0061
1697.0,0.0059
1696.0,0.0058
1695.0,0.0056
1694.0,0.0056
1693.0,0.0055
1692.0,0.0054
1691.0,0.0053
1690.0,0.0052
1689.0,0.0051
1688.0,0.005
1687.0,0.005
1686.0,0.005
1685.0,0.005
1684.0,0.0049
1683.0,0.0047
1682.0,0.0046
1681.0,0.0045
1680.0,0.0045
1679.0,0.0044
1678.0,0.0044
1677.0,0.0044
1676.0,0.0043
1675.0,0.0042
1674.0,0.0042
1673.0,0.0041
1672.0,0.004
1671.0,0.004
1670.0,0.004
1669.0,0.0039
1668.0,0.0039
1667.0,0.0039
1666.0,0.0039
1665.0,0.0039
1664.0,0.0038
1663.0,0.0038
1662.0,0.0037
1661.0,0.0036
1660.0,0.0036
1659.0,0.0036
1658.0,0.0035
1657.0,0.0034
1656.0,0.0034
1655.0,0.0034
1654.0,0.0033
1653.0,0.0033
1652.0,0.0033
1651.0,0.0032
1650.0,0.0032
1649.0,0.0031
1648.0,0.0031
1647.0,0.003
1646.0,0.0031
1645.0,0.0031
1644.0,0.0031
1643.0,0.0031
1642.0,0.0031
1641.0,0.0031
1640.0,0.0031
1639.0,0.0031
1638.0,0.0031
1637.0,0.003
1636.0,0.003
1635.0,0.003
1634.0,0.003
1633.0,0.003
1632.0,0.003
1631.0,0.0029
1630.0,0.003
1629.0,0.003
1628.0,0.003
1627.0,0.0029
1626.0,0.0029
1625.0,0.0028
1624.0,0.0028
1623.0,0.0028
1622.0,0.0028
1621.0,0.0027
1620.0,0.0027
1619.0,0.0027
1618.0,0.0026
1617.0,0.0026
1616.0,0.0027
1615.0,0.0027
1614.0,0.0028
1613.0,0.0028
1612.0,0.0029
1611.0,0.0029
1610.0,0.0028
1609.0,0.0028
1608.0,0.0028
1607.0,0.0028
1606.0,0.0028
1605.0,0.0027
1604.0,0.0027
1603.0,0.0026
1602.0,0.0026
1601.0,0.0026
1600.0,0.0026
1599.0,0.0026
1598.0,0.0025
1597.0,0.0025
1596.0,0.0025
1595.0,0.0024
1594.0,0.0024
1593.0,0.0023
1592.0,0.0023
1591.0,0.0024
1590.0,0.0024
1589.0,0.0024
1588.0,0.0023
1587.0,0.0023
1586.0,0.0023
1585.0,0.0023
1584.0,0.0024
1583.0,0.0025
1582.0,0.0026
1581.0,0.0027
1580.0,0.0027
1579.0,0.0027
1578.0,0.0027
1577.0,0.0026
1576.0,0.0026
1575.0,0.0026
1574.0,0.0026
1573.0,0.0026
1572.0,0.0026
1571.0,0.0025
1570.0,0.0024
1569.0,0.0024
1568.0,0.0025
1567.0,0.0024
1566.0,0.0024
1565.0,0.0023
1564.0,0.0023
1563.0,0.0023
1562.0,0.0023
1561.0,0.0024
1560.0,0.0024
1559.0,0.0022
1558.0,0.0021
1557.0,0.0021
1556.0,0.0021
1555.0,0.0021
1554.0,0.0021
1553.0,0.002
1552.0,0.0021
1551.0,0.0021
1550.0,0.0021
1549.0,0.0021
1548.0,0.002
1547.0,0.002
1546.0,0.002
1545.0,0.002
1544.0,0.002
1543.0,0.002
1542.0,0.0021
1541.0,0.0021
1540.0,0.002
1539.0,0.002
1538.0,0.002
1537.0,0.0019
1536.0,0.0019
1535.0,0.0019
1534.0,0.0019
1533.0,0.0019
1532.0,0.0019
1531.0,0.002
1530.0,0.002
1529.0,0.002
1528.0,0.002
1527.0,0.002
1526.0,0.0019
1525.0,0.0019
1524.0,0.0018
1523.0,0.0018
1522.0,0.0018
1521.0,0.0018
1520.0,0.0018
1519.0,0.0018
1518.0,0.0018
1517.0,0.0018
1516.0,0.0018
1515.0,0.0018
1514.0,0.0018
1513.0,0.0018
1512.0,0.0018
1511.0,0.0017
1510.0,0.0017
1509.0,0.0017
1508.0,0.0019
1507.0,0.0022
1506.0,0.0026
1505.0,0.0026
1504.0,0.0026
1503.0,0.0026
1502.0,0.0025
1501.0,0.0024
1500.0,0.0024
1499.0,0.0023
1498.0,0.0021
1497.0,0.002
1496.0,0.0019
1495.0,0.0019
1494.0,0.0019
1493.0,0.0019
1492.0,0.0018
1491.0,0.0018
1490.0,0.0016
1489.0,0.0016
1488.0,0.0015
1487.0,0.0015
1486.0,0.0015
1485.0,0.0016
1484.0,0.0016
1483.0,0.0016
1482.0,0.0016
1481.0,0.0015
1480.0,0.0015
1479.0,0.0015
1478.0,0.0015
1477.0,0.0014
1476.0,0.0014
1475.0,0.0014
1474.0,0.0013
1473.0,0.0013
1472.0,0.0014
1471.0,0.0014
1470.0,0.0014
1469.0,0.0015
1468.0,0.0015
1467.0,0.0015
1466.0,0.0015
1465.0,0.0015
1464.0,0.0016
1463.0,0.0017
1462.0,0.0018
1461.0,0.0019
1460.0,0.002
1459.0,0.002
1458.0,0.002
1457.0,0.0022
1456.0,0.0024
1455.0,0.0025
1454.0,0.0027
1453.0,0.0027
1452.0,0.0027
1451.0,0.0027
1450.0,0.0027
1449.0,0.0027
1448.0,0.0027
1447.0,0.0027
1446.0,0.0027
1445.0,0.0027
1444.0,0.0027
1443.0,0.0027
1442.0,0.0027
1441.0,0.0027
1440.0,0.0026
1439.0,0.0026
1438.0,0.0025
1437.0,0.0024
1436.0,0.0023
1435.0,0.0022
1434.0,0.0021
1433.0,0.0021
1432.0,0.0019
1431.0,0.0018
1430.0,0.0017
1429.0,0.0016
1428.0,0.0015
1427.0,0.0014
1426.0,0.0014
1425.0,0.0013
1424.0,0.0012
1423.0,0.0011
1422.0,0.0011
1421.0,0.0011
1420.0,0.0012
1419.0,0.0013
1418.0,0.0015
1417.0,0.0017
1416.0,0.002
1415.0,0.0024
1414.0,0.0029
1413.0,0.0035
1412.0,0.0042
1411.0,0.0048
1410.0,0.0053
1409.0,0.0056
1408.0,0.0057
1407.0,0.0056
1406.0,0.0053
1405.0,0.0049
1404.0,0.0045
1403.0,0.0043
1402.0,0.0042
1401.0,0.0041
1400.0,0.0039
1399.0,0.0037
1398.0,0.0034
1397.0,0.0033
1396.0,0.0031
1395.0,0.003
1394.0,0.0028
1393.0,0.0027
1392.0,0.0026
1391.0,0.0025
1390.0,0.0025
1389.0,0.0024
1388.0,0.0023
1387.0,0.0022
1386.0,0.0022
1385.0,0.0021
1384.0,0.0021
1383.0,0.0021
1382.0,0.0021
1381.0,0.0021
1380.0,0.0022
1379.0,0.0023
1378.0,0.0024
1377.0,0.0025
1376.0,0.0026
1375.0,0.0028
1374.0,0.0029
1373.0,0.003
1372.0,0.0031
1371.0,0.0032
1370.0,0.0032
1369.0,0.0031
1368.0,0.003
1367.0,0.0029
1366.0,0.0028
1365.0,0.0026
1364.0,0.0024
1363.0,0.0021
1362.0,0.0018
1361.0,0.0017
1360.0,0.0015
1359.0,0.0014
1358.0,0.0013
1357.0,0.0012
1356.0,0.0012
1355.0,0.0011
1354.0,0.0011
1353.0,0.0011
1352.0,0.0011
1351.0,0.001
1350.0,0.001
1349.0,0.0011
1348.0,0.0012
1347.0,0.0012
1346.0,0.0013
1345.0,0.0014
1344.0,0.0016
1343.0,0.0017
1342.0,0.0017
1341.0,0.0018
1340.0,0.0018
1339.0,0.0018
1338.0,0.0018
1337.0,0.0017
1336.0,0.0015
1335.0,0.0014
1334.0,0.0013
1333.0,0.0012
1332.0,0.0011
1331.0,0.0011
1330.0,0.001
1329.0,0.001
1328.0,0.001
1327.0,0.0011
1326.0,0.0012
1325.0,0.0013
1324.0,0.0014
1323.0,0.0015
1322.0,0.0016
1321.0,0.0017
1320.0,0.0019
1319.0,0.002
1318.0,0.0021
1317.0,0.0023
1316.0,0.0024
1315.0,0.0026
1314.0,0.0027
1313.0,0.0029
1312.0,0.003
1311.0,0.0032
1310.0,0.0034
1309.0,0.0036
1308.0,0.0038
1307.0,0.004
1306.0,0.0042
1305.0,0.0044
1304.0,0.0046
1303.0,0.0049
1302.0,0.0052
1301.0,0.0055
1300.0,0.006
1299.0,0.0064
1298.0,0.0069
1297.0,0.0074
1296.0,0.0079
1295.0,0.0084
1294.0,0.0089
1293.0,0.0094
1292.0,0.0097
1291.0,0.0101
1290.0,0.0104
1289.0,0.0107
1288.0,0.011
1287.0,0.0113
1286.0,0.0115
1285.0,0.0117
1284.0,0.0119
1283.0,0.012
1282.0,0.0121
1281.0,0.0123
1280.0,0.0124
1279.0,0.0125
1278.0,0.0126
1277.0,0.0127
1276.0,0.0129
1275.0,0.0131
1274.0,0.0134
1273.0,0.0137
1272.0,0.0141
1271.0,0.0145
1270.0,0.0149
1269.0,0.0153
1268.0,0.0157
1267.0,0.0161
1266.0,0.0165
1265.0,0.0169
1264.0,0.0172
1263.0,0.0174
1262.0,0.0175
1261.0,0.0177
1260.0,0.0178
1259.0,0.0179
1258.0,0.018
1257.0,0.018
1256.0,0.018
1255.0,0.0181
1254.0,0.0182
1253.0,0.0183
1252.0,0.0184
1251.0,0.0185
1250.0,0.0187
1249.0,0.0189
1248.0,0.0192
1247.0,0.0194
1246.0,0.0197
1245.0,0.02
1244.0,0.0203
1243.0,0.0206
1242.0,0.0209
1241.0,0.0212
1240.0,0.0215
1239.0,0.0217
1238.0,0.0219
1237.0,0.0219
1236.0,0.0219
1235.0,0.0218
1234.0,0.0217
1233.0,0.0214
1232.0,0.0211
1231.0,0.0208
1230.0,0.0204
1229.0,0.02
1228.0,0.0196
1227.0,0.0192
1226.0,0.0189
1225.0,0.0185
1224.0,0.0181
1223.0,0.0178
1222.0,0.0174
1221.0,0.0171
1220.0,0.0168
1219.0,0.0165
1218.0,0.0162
1217.0,0.0158
1216.0,0.0155
1215.0,0.0151
1214.0,0.0148
1213.0,0.0146
1212.0,0.0143
1211.0,0.0141
1210.0,0.0138
1209.0,0.0135
1208.0,0.0133
1207.0,0.0131
1206.0,0.0128
1205.0,0.0126
1204.0,0.0124
1203.0,0.0123
1202.0,0.0121
1201.0,0.012
1200.0,0.0119
1199.0,0.0118
1198.0,0.0116
1197.0,0.0115
1196.0,0.0113
1195.0,0.0112
1194.0,0.011
1193.0,0.0109
1192.0,0.0107
1191.0,0.0105
1190.0,0.0104
1189.0,0.0102
1188.0,0.0101
1187.0,0.0099
1186.0,0.0098
1185.0,0.0097
1184.0,0.0097
1183.0,0.0096
1182.0,0.0096
1181.0,0.0096
1180.0,0.0096
1179.0,0.0096
1178.0,0.0097
1177.0,0.0098
1176.0,0.0099
1175.0,0.0099
1174.0,0.0099
1173.0,0.0099
1172.0,0.0098
1171.0,0.0098
1170.0,0.0096
1169.0,0.0094
1168.0,0.0092
1167.0,0.0089
1166.0,0.0087
1165.0,0.0084
1164.0,0.0082
1163.0,0.008
1162.0,0.0078
1161.0,0.0077
1160.0,0.0076
1159.0,0.0075
1158.0,0.0074
1157.0,0.0072
1156.0,0.0071
1155.0,0.0071
1154.0,0.007
1153.0,0.007
1152.0,0.0071
1151.0,0.0073
1150.0,0.0075
1149.0,0.0077
1148.0,0.008
1147.0,0.0082
1146.0,0.0085
1145.0,0.0089
1144.0,0.0093
1143.0,0.0097
1142.0,0.0102
1141.0,0.0107
1140.0,0.0111
1139.0,0.0114
1138.0,0.0117
1137.0,0.012
1136.0,0.0123
1135.0,0.0125
1134.0,0.0128
1133.0,0.013
1132.0,0.0132
1131.0,0.0135
1130.0,0.0137
1129.0,0.0141
1128.0,0.0145
1127.0,0.015
1126.0,0.0155
1125.0,0.0161
1124.0,0.0167
1123.0,0.0173
1122.0,0.0178
1121.0,0.0183
1120.0,0.0186
1119.0,0.019
1118.0,0.0192
1117.0,0.0193
1116.0,0.0193
1115.0,0.0192
1114.0,0.019
1113.0,0.0187
1112.0,0.0185
1111.0,0.0184
1110.0,0.0185
1109.0,0.0188
1108.0,0.0192
1107.0,0.0198
1106.0,0.0205
1105.0,0.0213
1104.0,0.0222
1103.0,0.0231
1102.0,0.0239
1101.0,0.0248
1100.0,0.0255
1099.0,0.0262
1098.0,0.0269
1097.0,0.0276
1096.0,0.0282
1095.0,0.0287
1094.0,0.0291
1093.0,0.0294
1092.0,0.0296
1091.0,0.0298
1090.0,0.0299
1089.0,0.03
1088.0,0.0299
1087.0,0.0298
1086.0,0.0296
1085.0,0.0294
1084.0,0.0292
1083.0,0.0289
1082.0,0.0286
1081.0,0.0282
1080.0,0.0278
1079.0,0.0275
1078.0,0.0271
1077.0,0.0266
1076.0,0.0261
1075.0,0.0255
1074.0,0.0248
1073.0,0.0242
1072.0,0.0237
1071.0,0.023
1070.0,0.0224
1069.0,0.0219
1068.0,0.0214
1067.0,0.021
1066.0,0.0206
1065.0,0.0202
1064.0,0.0197
1063.0,0.0193
1062.0,0.0189
1061.0,0.0185
1060.0,0.0182
1059.0,0.0179
1058.0,0.0175
1057.0,0.0172
1056.0,0.017
1055.0,0.0169
1054.0,0.0168
1053.0,0.0167
1052.0,0.0167
1051.0,0.0167
1050.0,0.0168
1049.0,0.017
1048.0,0.0171
1047.0,0.0173
1046.0,0.0175
1045.0,0.0177
1044.0,0.0179
1043.0,0.018
1042.0,0.0181
1041.0,0.0181
1040.0,0.0182
1039.0,0.0182
1038.0,0.0182
1037.0,0.0182
1036.0,0.0181
1035.0,0.0179
1034.0,0.0178
1033.0,0.0176
1032.0,0.0174
1031.0,0.0172
1030.0,0.0169
1029.0,0.0167
1028.0,0.0165
1027.0,0.0163
1026.0,0.0161
1025.0,0.016
1024.0,0.016
1023.0,0.0162
1022.0,0.0168
1021.0,0.0178
1020.0,0.0191
1019.0,0.0206
1018.0,0.0222
1017.0,0.0236
1016.0,0.0245
1015.0,0.0248
1014.0,0.0247
1013.0,0.0241
1012.0,0.0233
1011.0,0.0225
1010.0,0.0217
1009.0,0.0211
1008.0,0.0206
1007.0,0.0201
1006.0,0.0197
1005.0,0.0193
1004.0,0.0189
1003.0,0.0186
1002.0,0.0184
1001.0,0.0181
1000.0,0.0179
999.0,0.0177
998.0,0.0174
997.0,0.0172
996.0,0.0171
995.0,0.0169
994.0,0.0167
993.0,0.0165
992.0,0.0164
991.0,0.0163
990.0,0.0162
989.0,0.0161
988.0,0.016
987.0,0.0159
986.0,0.0159
985.0,0.0159
984.0,0.0159
983.0,0.0158
982.0,0.0158
981.0,0.0158
980.0,0.0158
979.0,0.0157
978.0,0.0156
977.0,0.0156
976.0,0.0156
975.0,0.0155
974.0,0.0155
973.0,0.0156
972.0,0.0156
971.0,0.0157
970.0,0.0157
969.0,0.0156
968.0,0.0156
967.0,0.0154
966.0,0.0153
965.0,0.0152
964.0,0.0151
963.0,0.015
962.0,0.015
961.0,0.015
960.0,0.0149
959.0,0.0149
958.0,0.0148
957.0,0.0147
956.0,0.0146
955.0,0.0145
954.0,0.0144
953.0,0.0143
952.0,0.0142
951.0,0.0141
950.0,0.014
949.0,0.014
948.0,0.0141
947.0,0.014
946.0,0.014
945.0,0.014
944.0,0.014
943.0,0.014
942.0,0.014
941.0,0.0138
940.0,0.0137
939.0,0.0136
938.0,0.0135
937.0,0.0134
936.0,0.0135
935.0,0.0135
934.0,0.0135
933.0,0.0135
932.0,0.0135
931.0,0.0134
930.0,0.0134
929.0,0.0134
928.0,0.0133
927.0,0.0133
926.0,0.0132
925.0,0.0132
924.0,0.0131
923.0,0.013
922.0,0.0129
921.0,0.0128
920.0,0.0128
919.0,0.0128
918.0,0.0127
917.0,0.0127
916.0,0.0127
915.0,0.0127
914.0,0.0127
913.0,0.0126
912.0,0.0126
911.0,0.0125
910.0,0.0125
909.0,0.0125
908.0,0.0126
907.0,0.0128
906.0,0.013
905.0,0.0132
904.0,0.0135
903.0,0.0139
902.0,0.0143
901.0,0.0146
900.0,0.0149
899.0,0.0151
898.0,0.0152
897.0,0.0152
896.0,0.0151
895.0,0.0151
894.0,0.0152
893.0,0.0153
892.0,0.0154
891.0,0.0154
890.0,0.0154
889.0,0.0155
888.0,0.0155
887.0,0.0155
886.0,0.0155
885.0,0.0157
884.0,0.0159
883.0,0.0162
882.0,0.0165
881.0,0.0168
880.0,0.0172
879.0,0.0178
878.0,0.0184
877.0,0.0191
876.0,0.0199
875.0,0.0206
874.0,0.0212
873.0,0.0218
872.0,0.0221
871.0,0.0223
870.0,0.0221
869.0,0.0218
868.0,0.0213
867.0,0.0207
866.0,0.0201
865.0,0.0195
864.0,0.019
863.0,0.0186
862.0,0.0183
861.0,0.0181
860.0,0.0179
859.0,0.0177
858.0,0.0176
857.0,0.0175
856.0,0.0174
855.0,0.0173
854.0,0.0172
853.0,0.0172
852.0,0.0172
851.0,0.0173
850.0,0.0173
849.0,0.0173
848.0,0.0172
847.0,0.0172
846.0,0.0172
845.0,0.0174
844.0,0.0175
843.0,0.0175
842.0,0.0174
841.0,0.0173
840.0,0.0173
839.0,0.0173
838.0,0.0174
837.0,0.0175
836.0,0.0177
835.0,0.0177
834.0,0.0177
833.0,0.0176
832.0,0.0174
831.0,0.0172
830.0,0.017
829.0,0.0168
828.0,0.0168
827.0,0.0168
826.0,0.0167
825.0,0.0166
824.0,0.0164
823.0,0.0162
822.0,0.0161
821.0,0.0161
820.0,0.0161
819.0,0.016
818.0,0.0159
817.0,0.0159
816.0,0.0159
815.0,0.0161
814.0,0.0161
813.0,0.0161
812.0,0.016
811.0,0.0159
810.0,0.0158
809.0,0.0159
808.0,0.016
807.0,0.0161
806.0,0.0161
805.0,0.0161
804.0,0.0161
803.0,0.016
802.0,0.0158
801.0,0.0156
800.0,0.0154
799.0,0.0154
798.0,0.0155
797.0,0.0158
796.0,0.0163
795.0,0.0168
794.0,0.0172
793.0,0.0175
792.0,0.0176
791.0,0.0175
790.0,0.0173
789.0,0.017
788.0,0.0166
787.0,0.0162
786.0,0.0159
785.0,0.0156
784.0,0.0154
783.0,0.0152
782.0,0.015
781.0,0.0148
780.0,0.0145
779.0,0.0143
778.0,0.0141
777.0,0.0139
776.0,0.0138
775.0,0.0137
774.0,0.0135
773.0,0.0134
772.0,0.0132
771.0,0.0131
770.0,0.0129
769.0,0.0127
768.0,0.0125
767.0,0.0123
766.0,0.0121
765.0,0.0119
764.0,0.0116
763.0,0.0113
762.0,0.0109
761.0,0.0104
760.0,0.0101
759.0,0.01
758.0,0.0099
757.0,0.0098
756.0,0.0095
755.0,0.0091
754.0,0.0087
753.0,0.0082
752.0,0.0078
751.0,0.0075
750.0,0.0073
749.0,0.0072
748.0,0.007
747.0,0.0067
746.0,0.0063
745.0,0.0061
744.0,0.0063
743.0,0.0069
742.0,0.008
741.0,0.0097
740.0,0.0121
739.0,0.0149
738.0,0.0182
737.0,0.0216
736.0,0.0253
735.0,0.029
734.0,0.0328
733.0,0.0368
732.0,0.0409
731.0,0.0449
730.0,0.0488
729.0,0.0527
728.0,0.0567
727.0,0.0605
726.0,0.064
725.0,0.0669
724.0,0.0686
723.0,0.0687
722.0,0.0671
721.0,0.0641
720.0,0.0604
719.0,0.0566
718.0,0.0532
717.0,0.0504
716.0,0.048
715.0,0.046
714.0,0.0441
713.0,0.0424
712.0,0.041
711.0,0.0397
710.0,0.0387
709.0,0.0379
708.0,0.0372
707.0,0.0367
706.0,0.0361
705.0,0.0354
704.0,0.0349
703.0,0.0345
702.0,0.0343
701.0,0.0343
700.0,0.0341
699.0,0.0336
698.0,0.0327
697.0,0.0318
696.0,0.031
695.0,0.0307
694.0,0.0309
693.0,0.0311
692.0,0.0305
691.0,0.0288
690.0,0.0268
689.0,0.0256
688.0,0.0258
687.0,0.0268
686.0,0.0274
685.0,0.0275
684.0,0.0274
683.0,0.0273
682.0,0.027
681.0,0.0266
680.0,0.0263
679.0,0.0262
678.0,0.0259
677.0,0.0251
676.0,0.024
675.0,0.0232
674.0,0.023
673.0,0.0232
672.0,0.0234
671.0,0.0237
670.0,0.0247
669.0,0.0263
668.0,0.028
667.0,0.0289
666.0,0.0279
665.0,0.0259
664.0,0.0247
663.0,0.0244
662.0,0.0244
661.0,0.0243
660.0,0.0243
659.0,0.0243
658.0,0.0242
657.0,0.024
656.0,0.024
655.0,0.0242
654.0,0.0244
653.0,0.0245
652.0,0.0243
651.0,0.024
650.0,0.024
649.0,0.0243
648.0,0.0247
647.0,0.0247
646.0,0.0246
645.0,0.0246
644.0,0.0246
643.0,0.0244
642.0,0.0238
641.0,0.0231
640.0,0.0227
639.0,0.0226
638.0,0.0226
637.0,0.0226
636.0,0.0226
635.0,0.0227
634.0,0.0229
633.0,0.0232
632.0,0.0235
631.0,0.0239
630.0,0.0243
629.0,0.0247
628.0,0.0248
627.0,0.0245
626.0,0.0241
625.0,0.0241
624.0,0.0243
623.0,0.0245
622.0,0.0245
621.0,0.0245
620.0,0.0244
619.0,0.0243
618.0,0.0242
617.0,0.0243
616.0,0.0245
615.0,0.0245
614.0,0.0242
613.0,0.0237
612.0,0.0234
611.0,0.0234
610.0,0.0235
609.0,0.0237
608.0,0.0237
607.0,0.0234
606.0,0.0232
605.0,0.0234
604.0,0.024
603.0,0.0248
602.0,0.0257
601.0,0.0266
600.0,0.0269
