cm-1,A
4000.0,0.0079
3999.0,0.0079
3998.0,0.0079
3997.0,0.0078
3996.0,0.0078
3995.0,0.0078
3994.0,0.0079
3993.0,0.0079
3992.0,0.008
3991.0,0.008
3990.0,0.0081
3989.0,0.0081
3988.0,0.0082
3987.0,0.0082
3986.0,0.0082
3985.0,0.0081
3984.0,0.008
3983.0,0.008
3982.0,0.008
3981.0,0.008
3980.0,0.008
3979.0,0.0081
3978.0,0.0081
3977.0,0.0081
3976.0,0.008
3975.0,0.008
3974.0,0.008
3973.0,0.008
3972.0,0.008
3971.0,0.008
3970.0,0.008
3969.0,0.0079
3968.0,0.0079
3967.0,0.0079
3966.0,0.0079
3965.0,0.008
3964.0,0.0081
3963.0,0.0081
3962.0,0.008
3961.0,0.0079
3960.0,0.0079
3959.0,0.0079
3958.0,0.0079
3957.0,0.008
3956.0,0.008
3955.0,0.008
3954.0,0.008
3953.0,0.0081
3952.0,0.0082
3951.0,0.0083
3950.0,0.0083
3949.0,0.0083
3948.0,0.0082
3947.0,0.0082
3946.0,0.0082
3945.0,0.0081
3944.0,0.008
3943.0,0.008
3942.0,0.008
3941.0,0.008
3940.0,0.008
3939.0,0.008
3938.0,0.008
3937.0,0.0081
3936.0,0.0081
3935.0,0.0082
3934.0,0.0081
3933.0,0.0081
3932.0,0.0082
3931.0,0.0082
3930.0,0.0083
3929.0,0.0083
3928.0,0.0083
3927.0,0.0083
3926.0,0.0083
3925.0,0.0083
3924.0,0.0084
3923.0,0.0084
3922.0,0.0083
3921.0,0.0082
3920.0,0.0082
3919.0,0.0082
3918.0,0.0083
3917.0,0.0083
3916.0,0.0083
3915.0,0.0083
3914.0,0.0082
3913.0,0.0082
3912.0,0.0081
3911.0,0.0081
3910.0,0.0081
3909.0,0.0081
3908.0,0.0081
3907.0,0.0082
3906.0,0.0083
3905.0,0.0083
3904.0,0.0083
3903.0,0.0084
3902.0,0.0084
3901.0,0.0084
3900.0,0.0084
3899.0,0.0084
3898.0,0.0084
3897.0,0.0085
3896.0,0.0085
3895.0,0.0085
3894.0,0.0085
3893.0,0.0084
3892.0,0.0083
3891.0,0.0083
3890.0,0.0084
3889.0,0.0086
3888.0,0.0085
3887.0,0.0084
3886.0,0.0083
3885.0,0.0084
3884.0,0.0086
3883.0,0.0088
3882.0,0.0087
3881.0,0.0086
3880.0,0.0085
3879.0,0.0085
3878.0,0.0085
3877.0,0.0085
3876.0,0.0084
3875.0,0.0084
3874.0,0.0086
3873.0,0.0089
3872.0,0.0091
3871.0,0.0089
3870.0,0.0089
3869.0,0.009
3868.0,0.0091
3867.0,0.0091
3866.0,0.0089
3865.0,0.0087
3864.0,0.0087
3863.0,0.0086
3862.0,0.0085
3861.0,0.0084
3860.0,0.0083
3859.0,0.0083
3858.0,0.0084
3857.0,0.0086
3856.0,0.0087
3855.0,0.0085
3854.0,0.0086
3853.0,0.0088
3852.0,0.0089
3851.0,0.0088
3850.0,0.0087
3849.0,0.0086
3848.0,0.0086
3847.0,0.0087
3846.0,0.0088
3845.0,0.0089
3844.0,0.009
3843.0,0.009
3842.0,0.0091
3841.0,0.009
3840.0,0.0088
3839.0,0.0087
3838.0,0.0087
3837.0,0.0088
3836.0,0.0089
3835.0,0.009
3834.0,0.009
3833.0,0.0089
3832.0,0.0088
3831.0,0.0088
3830.0,0.0088
3829.0,0.0088
3828.0,0.0086
3827.0,0.0085
3826.0,0.0085
3825.0,0.0088
3824.0,0.0089
3823.0,0.0088
3822.0,0.0086
3821.0,0.0087
3820.0,0.0089
3819.0,0.0091
3818.0,0.009
3817.0,0.0088
3816.0,0.0087
3815.0,0.0088
3814.0,0.0089
3813.0,0.0089
3812.0,0.0088
3811.0,0.0088
3810.0,0.0089
3809.0,0.0089
3808.0,0.0087
3807.0,0.0086
3806.0,0.0088
3805.0,0.0091
3804.0,0.0091
3803.0,0.0089
3802.0,0.0088
3801.0,0.0088
3800.0,0.009
3799.0,0.0091
3798.0,0.0089
3797.0,0.0088
3796.0,0.0087
3795.0,0.0088
3794.0,0.0088
3793.0,0.0088
3792.0,0.0087
3791.0,0.0087
3790.0,0.0087
3789.0,0.0088
3788.0,0.0089
3787.0,0.009
3786.0,0.0089
3785.0,0.0089
3784.0,0.0089
3783.0,0.0089
3782.0,0.009
3781.0,0.009
3780.0,0.0089
3779.0,0.009
3778.0,0.009
3777.0,0.0091
3776.0,0.009
3775.0,0.0089
3774.0,0.0089
3773.0,0.0089
3772.0,0.0089
3771.0,0.0088
3770.0,0.0088
3769.0,0.0089
3768.0,0.0091
3767.0,0.0091
3766.0,0.009
3765.0,0.009
3764.0,0.009
3763.0,0.0091
3762.0,0.0091
3761.0,0.0091
3760.0,0.0091
3759.0,0.0091
3758.0,0.009
3757.0,0.0089
3756.0,0.0089
3755.0,0.009
3754.0,0.0091
3753.0,0.0092
3752.0,0.0094
3751.0,0.0095
3750.0,0.0094
3749.0,0.0093
3748.0,0.0095
3747.0,0.0096
3746.0,0.0093
3745.0,0.009
3744.0,0.0089
3743.0,0.009
3742.0,0.009
3741.0,0.0089
3740.0,0.0089
3739.0,0.009
3738.0,0.009
3737.0,0.009
3736.0,0.009
3735.0,0.0091
3734.0,0.009
3733.0,0.0088
3732.0,0.0086
3731.0,0.0085
3730.0,0.0086
3729.0,0.0086
3728.0,0.0086
3727.0,0.0087
3726.0,0.0088
3725.0,0.009
3724.0,0.0091
3723.0,0.0091
3722.0,0.0092
3721.0,0.0092
3720.0,0.0092
3719.0,0.0092
3718.0,0.0092
3717.0,0.0092
3716.0,0.0093
3715.0,0.0092
3714.0,0.0091
3713.0,0.0089
3712.0,0.0089
3711.0,0.009
3710.0,0.0092
3709.0,0.0092
3708.0,0.0092
3707.0,0.0091
3706.0,0.0091
3705.0,0.0092
3704.0,0.0094
3703.0,0.0095
3702.0,0.0096
3701.0,0.0097
3700.0,0.0098
3699.0,0.0099
3698.0,0.01
3697.0,0.0101
3696.0,0.0102
3695.0,0.0103
3694.0,0.0104
3693.0,0.0105
3692.0,0.0106
3691.0,0.0109
3690.0,0.011
3689.0,0.0111
3688.0,0.0111
3687.0,0.0111
3686.0,0.0111
3685.0,0.0111
3684.0,0.011
3683.0,0.011
3682.0,0.0109
3681.0,0.0108
3680.0,0.011
3679.0,0.0114
3678.0,0.0117
3677.0,0.0117
3676.0,0.0117
3675.0,0.0117
3674.0,0.0118
3673.0,0.0119
3672.0,0.0118
3671.0,0.0116
3670.0,0.0116
3669.0,0.0116
3668.0,0.0116
3667.0,0.0116
3666.0,0.0115
3665.0,0.0115
3664.0,0.0115
3663.0,0.0115
3662.0,0.0114
3661.0,0.0114
3660.0,0.0114
3659.0,0.0115
3658.0,0.0114
3657.0,0.0112
3656.0,0.0111
3655.0,0.0112
3654.0,0.0113
3653.0,0.0115
3652.0,0.0114
3651.0,0.0113
3650.0,0.0112
3649.0,0.0113
3648.0,0.0113
3647.0,0.0112
3646.0,0.0112
3645.0,0.0111
3644.0,0.0109
3643.0,0.0107
3642.0,0.0106
3641.0,0.0105
3640.0,0.0105
3639.0,0.0104
3638.0,0.0104
3637.0,0.0104
3636.0,0.0103
3635.0,0.0102
3634.0,0.0101
3633.0,0.0101
3632.0,0.0102
3631.0,0.0101
3630.0,0.0099
3629.0,0.01
3628.0,0.0102
3627.0,0.0103
3626.0,0.0102
3625.0,0.0101
3624.0,0.01
3623.0,0.01
3622.0,0.0101
3621.0,0.0102
3620.0,0.0103
3619.0,0.0104
3618.0,0.0105
3617.0,0.0105
3616.0,0.0105
3615.0,0.0104
3614.0,0.0105
3613.0,0.0105
3612.0,0.0106
3611.0,0.0105
3610.0,0.0104
3609.0,0.0102
3608.0,0.0102
3607.0,0.0102
3606.0,0.0102
3605.0,0.0102
3604.0,0.0102
3603.0,0.0103
3602.0,0.0104
3601.0,0.0105
3600.0,0.0106
3599.0,0.0107
3598.0,0.0107
3597.0,0.0107
3596.0,0.0106
3595.0,0.0105
3594.0,0.0104
3593.0,0.0103
3592.0,0.0102
3591.0,0.0103
3590.0,0.0104
3589.0,0.0106
3588.0,0.0108
3587.0,0.011
3586.0,0.011
3585.0,0.0109
3584.0,0.0108
3583.0,0.0108
3582.0,0.0109
3581.0,0.011
3580.0,0.0111
3579.0,0.0111
3578.0,0.011
3577.0,0.0109
3576.0,0.0108
3575.0,0.0108
3574.0,0.0108
3573.0,0.0108
3572.0,0.0108
3571.0,0.0109
3570.0,0.011
3569.0,0.011
3568.0,0.0112
3567.0,0.0114
3566.0,0.0116
3565.0,0.0116
3564.0,0.0115
3563.0,0.0114
3562.0,0.0113
3561.0,0.0112
3560.0,0.0112
3559.0,0.0112
3558.0,0.0111
3557.0,0.0111
3556.0,0.011
3555.0,0.011
3554.0,0.011
3553.0,0.0111
3552.0,0.0112
3551.0,0.0113
3550.0,0.0114
3549.0,0.0114
3548.0,0.0114
3547.0,0.0115
3546.0,0.0115
3545.0,0.0115
3544.0,0.0115
3543.0,0.0114
3542.0,0.0113
3541.0,0.0113
3540.0,0.0112
3539.0,0.0111
3538.0,0.0111
3537.0,0.0111
3536.0,0.0111
3535.0,0.0112
3534.0,0.0113
3533.0,0.0113
3532.0,0.0113
3531.0,0.0114
3530.0,0.0115
3529.0,0.0115
3528.0,0.0115
3527.0,0.0115
3526.0,0.0116
3525.0,0.0116
3524.0,0.0116
3523.0,0.0116
3522.0,0.0115
3521.0,0.0114
3520.0,0.0113
3519.0,0.0113
3518.0,0.0114
3517.0,0.0115
3516.0,0.0115
3515.0,0.0114
3514.0,0.0113
3513.0,0.0113
3512.0,0.0113
3511.0,0.0113
3510.0,0.0113
3509.0,0.0113
3508.0,0.0114
3507.0,0.0115
3506.0,0.0116
3505.0,0.0117
3504.0,0.0117
3503.0,0.0117
3502.0,0.0116
3501.0,0.0116
3500.0,0.0116
3499.0,0.0116
3498.0,0.0116
3497.0,0.0116
3496.0,0.0116
3495.0,0.0116
3494.0,0.0115
3493.0,0.0115
3492.0,0.0115
3491.0,0.0116
3490.0,0.0117
3489.0,0.0118
3488.0,0.0118
3487.0,0.0118
3486.0,0.0118
3485.0,0.0118
3484.0,0.0118
3483.0,0.0118
3482.0,0.0118
3481.0,0.0117
3480.0,0.0117
3479.0,0.0116
3478.0,0.0115
3477.0,0.0116
3476.0,0.0116
3475.0,0.0117
3474.0,0.0117
3473.0,0.0117
3472.0,0.0116
3471.0,0.0117
3470.0,0.0117
3469.0,0.0118
3468.0,0.0118
3467.0,0.0117
3466.0,0.0116
3465.0,0.0116
3464.0,0.0116
3463.0,0.0116
3462.0,0.0117
3461.0,0.0117
3460.0,0.0116
3459.0,0.0115
3458.0,0.0115
3457.0,0.0115
3456.0,0.0116
3455.0,0.0117
3454.0,0.0118
3453.0,0.0118
3452.0,0.0117
3451.0,0.0117
3450.0,0.0116
3449.0,0.0116
3448.0,0.0117
3447.0,0.0118
3446.0,0.0119
3445.0,0.012
3444.0,0.0119
3443.0,0.0118
3442.0,0.0118
3441.0,0.0118
3440.0,0.0118
3439.0,0.0118
3438.0,0.0117
3437.0,0.0117
3436.0,0.0117
3435.0,0.0118
3434.0,0.0118
3433.0,0.0118
3432.0,0.0118
3431.0,0.0117
3430.0,0.0116
3429.0,0.0116
3428.0,0.0116
3427.0,0.0117
3426.0,0.0118
3425.0,0.0119
3424.0,0.012
3423.0,0.012
3422.0,0.012
3421.0,0.012
3420.0,0.012
3419.0,0.012
3418.0,0.012
3417.0,0.012
3416.0,0.012
3415.0,0.012
3414.0,0.0121
3413.0,0.0121
3412.0,0.0122
3411.0,0.0121
3410.0,0.012
3409.0,0.0119
3408.0,0.0118
3407.0,0.0117
3406.0,0.0118
3405.0,0.0119
3404.0,0.012
3403.0,0.0122
3402.0,0.0122
3401.0,0.0122
3400.0,0.0121
3399.0,0.0121
3398.0,0.012
3397.0,0.012
3396.0,0.0119
3395.0,0.0119
3394.0,0.0118
3393.0,0.0118
3392.0,0.0117
3391.0,0.0117
3390.0,0.0117
3389.0,0.0117
3388.0,0.0117
3387.0,0.0117
3386.0,0.0117
3385.0,0.0117
3384.0,0.0117
3383.0,0.0117
3382.0,0.0117
3381.0,0.0117
3380.0,0.0117
3379.0,0.0117
3378.0,0.0117
3377.0,0.0116
3376.0,0.0115
3375.0,0.0115
3374.0,0.0115
3373.0,0.0116
3372.0,0.0116
3371.0,0.0116
3370.0,0.0116
3369.0,0.0115
3368.0,0.0115
3367.0,0.0115
3366.0,0.0115
3365.0,0.0116
3364.0,0.0117
3363.0,0.0117
3362.0,0.0117
3361.0,0.0117
3360.0,0.0116
3359.0,0.0116
3358.0,0.0117
3357.0,0.0117
3356.0,0.0117
3355.0,0.0117
3354.0,0.0117
3353.0,0.0117
3352.0,0.0117
3351.0,0.0117
3350.0,0.0117
3349.0,0.0117
3348.0,0.0117
3347.0,0.0117
3346.0,0.0117
3345.0,0.0117
3344.0,0.0116
3343.0,0.0116
3342.0,0.0115
3341.0,0.0115
3340.0,0.0115
3339.0,0.0115
3338.0,0.0115
3337.0,0.0116
3336.0,0.0116
3335.0,0.0116
3334.0,0.0116
3333.0,0.0116
3332.0,0.0115
3331.0,0.0115
3330.0,0.0114
3329.0,0.0114
3328.0,0.0114
3327.0,0.0115
3326.0,0.0114
3325.0,0.0114
3324.0,0.0113
3323.0,0.0113
3322.0,0.0113
3321.0,0.0113
3320.0,0.0113
3319.0,0.0113
3318.0,0.0113
3317.0,0.0114
3316.0,0.0114
3315.0,0.0114
3314.0,0.0115
3313.0,0.0115
3312.0,0.0115
3311.0,0.0115
3310.0,0.0114
3309.0,0.0113
3308.0,0.0113
3307.0,0.0113
3306.0,0.0113
3305.0,0.0113
3304.0,0.0113
3303.0,0.0113
3302.0,0.0112
3301.0,0.0112
3300.0,0.0112
3299.0,0.0113
3298.0,0.0113
3297.0,0.0114
3296.0,0.0114
3295.0,0.0114
3294.0,0.0113
3293.0,0.0113
3292.0,0.0113
3291.0,0.0114
3290.0,0.0114
3289.0,0.0113
3288.0,0.0113
3287.0,0.0112
3286.0,0.0112
3285.0,0.0112
3284.0,0.0112
3283.0,0.0111
3282.0,0.0111
3281.0,0.011
3280.0,0.011
3279.0,0.0109
3278.0,0.0108
3277.0,0.0108
3276.0,0.0108
3275.0,0.0108
3274.0,0.0109
3273.0,0.0109
3272.0,0.0109
3271.0,0.0108
3270.0,0.0108
3269.0,0.0108
3268.0,0.0109
3267.0,0.011
3266.0,0.011
3265.0,0.011
3264.0,0.011
3263.0,0.0109
3262.0,0.0108
3261.0,0.0107
3260.0,0.0107
3259.0,0.0106
3258.0,0.0106
3257.0,0.0106
3256.0,0.0105
3255.0,0.0105
3254.0,0.0105
3253.0,0.0106
3252.0,0.0106
3251.0,0.0106
3250.0,0.0106
3249.0,0.0106
3248.0,0.0106
3247.0,0.0105
3246.0,0.0105
3245.0,0.0105
3244.0,0.0105
3243.0,0.0105
3242.0,0.0105
3241.0,0.0104
3240.0,0.0104
3239.0,0.0104
3238.0,0.0104
3237.0,0.0104
3236.0,0.0104
3235.0,0.0104
3234.0,0.0104
3233.0,0.0104
3232.0,0.0103
3231.0,0.0103
3230.0,0.0103
3229.0,0.0104
3228.0,0.0104
3227.0,0.0104
3226.0,0.0104
3225.0,0.0104
3224.0,0.0105
3223.0,0.0105
3222.0,0.0105
3221.0,0.0105
3220.0,0.0104
3219.0,0.0104
3218.0,0.0104
3217.0,0.0104
3216.0,0.0104
3215.0,0.0103
3214.0,0.0103
3213.0,0.0103
3212.0,0.0103
3211.0,0.0104
3210.0,0.0104
3209.0,0.0105
3208.0,0.0105
3207.0,0.0105
3206.0,0.0105
3205.0,0.0105
3204.0,0.0105
3203.0,0.0104
3202.0,0.0104
3201.0,0.0104
3200.0,0.0104
3199.0,0.0103
3198.0,0.0103
3197.0,0.0102
3196.0,0.0102
3195.0,0.0102
3194.0,0.0101
3193.0,0.0101
3192.0,0.01
3191.0,0.0101
3190.0,0.0102
3189.0,0.0102
3188.0,0.0103
3187.0,0.0103
3186.0,0.0103
3185.0,0.0102
3184.0,0.0102
3183.0,0.0101
3182.0,0.01
3181.0,0.0099
3180.0,0.0098
3179.0,0.0098
3178.0,0.0098
3177.0,0.0098
3176.0,0.0098
3175.0,0.0097
3174.0,0.0097
3173.0,0.0097
3172.0,0.0096
3171.0,0.0096
3170.0,0.0096
3169.0,0.0096
3168.0,0.0096
3167.0,0.0095
3166.0,0.0095
3165.0,0.0095
3164.0,0.0096
3163.0,0.0096
3162.0,0.0096
3161.0,0.0095
3160.0,0.0094
3159.0,0.0094
3158.0,0.0094
3157.0,0.0095
3156.0,0.0096
3155.0,0.0096
3154.0,0.0095
3153.0,0.0094
3152.0,0.0094
3151.0,0.0094
3150.0,0.0094
3149.0,0.0095
3148.0,0.0095
3147.0,0.0095
3146.0,0.0094
3145.0,0.0092
3144.0,0.0092
3143.0,0.0091
3142.0,0.0091
3141.0,0.0091
3140.0,0.0092
3139.0,0.0092
3138.0,0.0091
3137.0,0.0091
3136.0,0.009
3135.0,0.009
3134.0,0.0089
3133.0,0.0088
3132.0,0.0088
3131.0,0.0087
3130.0,0.0087
3129.0,0.0088
3128.0,0.0088
3127.0,0.0089
3126.0,0.0089
3125.0,0.0088
3124.0,0.0087
3123.0,0.0085
3122.0,0.0084
3121.0,0.0084
3120.0,0.0083
3119.0,0.0083
3118.0,0.0083
3117.0,0.0083
3116.0,0.0084
3115.0,0.0084
3114.0,0.0084
3113.0,0.0084
3112.0,0.0083
3111.0,0.0083
3110.0,0.0082
3109.0,0.0082
3108.0,0.0082
3107.0,0.0081
3106.0,0.0081
3105.0,0.008
3104.0,0.0079
3103.0,0.0079
3102.0,0.0079
3101.0,0.0079
3100.0,0.0079
3099.0,0.0079
3098.0,0.0078
3097.0,0.0077
3096.0,0.0076
3095.0,0.0076
3094.0,0.0076
3093.0,0.0076
3092.0,0.0076
3091.0,0.0077
3090.0,0.0077
3089.0,0.0078
3088.0,0.0077
3087.0,0.0077
3086.0,0.0077
3085.0,0.0076
3084.0,0.0076
3083.0,0.0075
3082.0,0.0074
3081.0,0.0073
3080.0,0.0073
3079.0,0.0073
3078.0,0.0072
3077.0,0.0071
3076.0,0.0071
3075.0,0.007
3074.0,0.007
3073.0,0.007
3072.0,0.007
3071.0,0.0069
3070.0,0.0069
3069.0,0.0069
3068.0,0.0068
3067.0,0.0068
3066.0,0.0068
3065.0,0.0067
3064.0,0.0067
3063.0,0.0067
3062.0,0.0068
3061.0,0.0068
3060.0,0.0068
3059.0,0.0068
3058.0,0.0067
3057.0,0.0065
3056.0,0.0064
3055.0,0.0064
3054.0,0.0064
3053.0,0.0064
3052.0,0.0064
3051.0,0.0064
3050.0,0.0063
3049.0,0.0062
3048.0,0.0061
3047.0,0.0061
3046.0,0.0061
3045.0,0.006
3044.0,0.006
3043.0,0.0059
3042.0,0.0058
3041.0,0.0058
3040.0,0.0059
3039.0,0.006
3038.0,0.0061
3037.0,0.0061
3036.0,0.0061
3035.0,0.0061
3034.0,0.0061
3033.0,0.0062
3032.0,0.0063
3031.0,0.0063
3030.0,0.0064
3029.0,0.0064
3028.0,0.0065
3027.0,0.0066
3026.0,0.0067
3025.0,0.0068
3024.0,0.0067
3023.0,0.0067
3022.0,0.0066
3021.0,0.0067
3020.0,0.0067
3019.0,0.0068
3018.0,0.007
3017.0,0.0071
3016.0,0.0072
3015.0,0.0073
3014.0,0.0074
3013.0,0.0074
3012.0,0.0075
3011.0,0.0076
3010.0,0.0078
3009.0,0.008
3008.0,0.0082
3007.0,0.0084
3006.0,0.0085
3005.0,0.0087
3004.0,0.0089
3003.0,0.0091
3002.0,0.0093
3001.0,0.0095
3000.0,0.0097
2999.0,0.0099
2998.0,0.01
2997.0,0.0101
2996.0,0.0102
2995.0,0.0103
2994.0,0.0106
2993.0,0.011
2992.0,0.0115
2991.0,0.0122
2990.0,0.0128
2989.0,0.0133
2988.0,0.0137
2987.0,0.014
2986.0,0.0143
2985.0,0.0147
2984.0,0.0152
2983.0,0.016
2982.0,0.017
2981.0,0.0181
2980.0,0.0194
2979.0,0.0209
2978.0,0.0226
2977.0,0.0246
2976.0,0.0268
2975.0,0.0293
2974.0,0.0323
2973.0,0.0356
2972.0,0.0393
2971.0,0.0433
2970.0,0.0478
2969.0,0.0526
2968.0,0.0576
2967.0,0.0628
2966.0,0.0682
2965.0,0.0736
2964.0,0.0787
2963.0,0.0833
2962.0,0.087
2961.0,0.0898
2960.0,0.0919
2959.0,0.0937
2958.0,0.0958
2957.0,0.0987
2956.0,0.1025
2955.0,0.1074
2954.0,0.1133
2953.0,0.1194
2952.0,0.125
2951.0,0.1291
2950.0,0.1308
2949.0,0.1298
2948.0,0.1259
2947.0,0.1198
2946.0,0.1121
2945.0,0.1038
2944.0,0.0958
2943.0,0.0887
2942.0,0.083
2941.0,0.0788
2940.0,0.0761
2939.0,0.0747
2938.0,0.0747
2937.0,0.076
2936.0,0.0783
2935.0,0.0817
2934.0,0.086
2933.0,0.0912
2932.0,0.0971
2931.0,0.1038
2930.0,0.1109
2929.0,0.1185
2928.0,0.1261
2927.0,0.1337
2926.0,0.1411
2925.0,0.1485
2924.0,0.1559
2923.0,0.1636
2922.0,0.1714
2921.0,0.1792
2920.0,0.1862
2919.0,0.1918
2918.0,0.1952
2917.0,0.1956
2916.0,0.1931
2915.0,0.1882
2914.0,0.1816
2913.0,0.1745
2912.0,0.1676
2911.0,0.1614
2910.0,0.156
2909.0,0.1512
2908.0,0.1469
2907.0,0.1428
2906.0,0.1389
2905.0,0.1351
2904.0,0.1312
2903.0,0.1274
2902.0,0.1235
2901.0,0.1196
2900.0,0.1158
2899.0,0.112
2898.0,0.1085
2897.0,0.1052
2896.0,0.1024
2895.0,0.1
2894.0,0.0979
2893.0,0.0961
2892.0,0.0947
2891.0,0.0935
2890.0,0.0927
2889.0,0.0923
2888.0,0.0921
2887.0,0.0922
2886.0,0.0923
2885.0,0.0927
2884.0,0.0933
2883.0,0.0941
2882.0,0.0952
2881.0,0.0964
2880.0,0.0976
2879.0,0.0985
2878.0,0.0989
2877.0,0.0987
2876.0,0.0981
2875.0,0.0974
2874.0,0.0969
2873.0,0.0968
2872.0,0.0973
2871.0,0.0983
2870.0,0.0996
2869.0,0.101
2868.0,0.102
2867.0,0.1021
2866.0,0.1007
2865.0,0.0977
2864.0,0.0934
2863.0,0.0884
2862.0,0.0833
2861.0,0.0787
2860.0,0.0751
2859.0,0.0726
2858.0,0.0711
2857.0,0.0706
2856.0,0.071
2855.0,0.0724
2854.0,0.0745
2853.0,0.0773
2852.0,0.0801
2851.0,0.0824
2850.0,0.0839
2849.0,0.0842
2848.0,0.0838
2847.0,0.0835
2846.0,0.0838
2845.0,0.085
2844.0,0.0872
2843.0,0.0902
2842.0,0.0935
2841.0,0.0966
2840.0,0.0991
2839.0,0.1005
2838.0,0.1004
2837.0,0.0985
2836.0,0.0949
2835.0,0.0899
2834.0,0.0841
2833.0,0.0782
2832.0,0.0726
2831.0,0.0676
2830.0,0.0633
2829.0,0.0596
2828.0,0.0566
2827.0,0.054
2826.0,0.0518
2825.0,0.05
2824.0,0.0484
2823.0,0.047
2822.0,0.0457
2821.0,0.0446
2820.0,0.0436
2819.0,0.0426
2818.0,0.0418
2817.0,0.041
2816.0,0.0404
2815.0,0.0398
2814.0,0.0393
2813.0,0.0388
2812.0,0.0383
2811.0,0.0378
2810.0,0.0372
2809.0,0.0367
2808.0,0.0362
2807.0,0.0357
2806.0,0.0352
2805.0,0.0346
2804.0,0.0341
2803.0,0.0335
2802.0,0.033
2801.0,0.0326
2800.0,0.0322
2799.0,0.0319
2798.0,0.0315
2797.0,0.0313
2796.0,0.031
2795.0,0.0308
2794.0,0.0305
2793.0,0.0302
2792.0,0.0299
2791.0,0.0296
2790.0,0.0293
2789.0,0.029
2788.0,0.0288
2787.0,0.0285
2786.0,0.0282
2785.0,0.0278
2784.0,0.0275
2783.0,0.0272
2782.0,0.0269
2781.0,0.0267
2780.0,0.0265
2779.0,0.0263
2778.0,0.0261
2777.0,0.0259
2776.0,0.0257
2775.0,0.0255
2774.0,0.0254
2773.0,0.0252
2772.0,0.025
2771.0,0.0249
2770.0,0.0249
2769.0,0.0248
2768.0,0.0247
2767.0,0.0246
2766.0,0.0245
2765.0,0.0244
2764.0,0.0243
2763.0,0.0241
2762.0,0.024
2761.0,0.0239
2760.0,0.0238
2759.0,0.0238
2758.0,0.0237
2757.0,0.0236
2756.0,0.0235
2755.0,0.0235
2754.0,0.0233
2753.0,0.0232
2752.0,0.0232
2751.0,0.0231
2750.0,0.0231
2749.0,0.0231
2748.0,0.023
2747.0,0.0229
2746.0,0.0228
2745.0,0.0228
2744.0,0.0228
2743.0,0.0228
2742.0,0.0229
2741.0,0.023
2740.0,0.0231
2739.0,0.0231
2738.0,0.0232
2737.0,0.0232
2736.0,0.0232
2735.0,0.0232
2734.0,0.0232
2733.0,0.0232
2732.0,0.0233
2731.0,0.0234
2730.0,0.0236
2729.0,0.0237
2728.0,0.0239
2727.0,0.0241
2726.0,0.0243
2725.0,0.0246
2724.0,0.0248
2723.0,0.0248
2722.0,0.0248
2721.0,0.0246
2720.0,0.0244
2719.0,0.0241
2718.0,0.0239
2717.0,0.0237
2716.0,0.0235
2715.0,0.0233
2714.0,0.0231
2713.0,0.0229
2712.0,0.0227
2711.0,0.0226
2710.0,0.0225
2709.0,0.0224
2708.0,0.0222
2707.0,0.022
2706.0,0.0218
2705.0,0.0216
2704.0,0.0215
2703.0,0.0213
2702.0,0.0212
2701.0,0.0211
2700.0,0.0211
2699.0,0.021
2698.0,0.021
2697.0,0.0209
2696.0,0.0208
2695.0,0.0208
2694.0,0.0208
2693.0,0.0208
2692.0,0.0208
2691.0,0.0207
2690.0,0.0207
2689.0,0.0207
2688.0,0.0207
2687.0,0.0207
2686.0,0.0207
2685.0,0.0207
2684.0,0.0207
2683.0,0.0206
2682.0,0.0205
2681.0,0.0205
2680.0,0.0205
2679.0,0.0205
2678.0,0.0205
2677.0,0.0205
2676.0,0.0205
2675.0,0.0205
2674.0,0.0205
2673.0,0.0204
2672.0,0.0203
2671.0,0.0203
2670.0,0.0203
2669.0,0.0202
2668.0,0.0202
2667.0,0.0202
2666.0,0.0202
2665.0,0.0203
2664.0,0.0203
2663.0,0.0203
2662.0,0.0203
2661.0,0.0202
2660.0,0.0201
2659.0,0.0201
2658.0,0.0201
2657.0,0.02
2656.0,0.02
2655.0,0.02
2654.0,0.0199
2653.0,0.0198
2652.0,0.0198
2651.0,0.0198
2650.0,0.0197
2649.0,0.0197
2648.0,0.0196
2647.0,0.0195
2646.0,0.0195
2645.0,0.0194
2644.0,0.0194
2643.0,0.0193
2642.0,0.0192
2641.0,0.0192
2640.0,0.0191
2639.0,0.019
2638.0,0.019
2637.0,0.0189
2636.0,0.0189
2635.0,0.0189
2634.0,0.0189
2633.0,0.0189
2632.0,0.0189
2631.0,0.0189
2630.0,0.019
2629.0,0.019
2628.0,0.019
2627.0,0.019
2626.0,0.019
2625.0,0.019
2624.0,0.0189
2623.0,0.0189
2622.0,0.019
2621.0,0.0191
2620.0,0.0192
2619.0,0.0192
2618.0,0.0192
2617.0,0.0192
2616.0,0.0191
2615.0,0.019
2614.0,0.019
2613.0,0.019
2612.0,0.019
2611.0,0.0189
2610.0,0.0189
2609.0,0.0188
2608.0,0.0187
2607.0,0.0186
2606.0,0.0186
2605.0,0.0185
2604.0,0.0184
2603.0,0.0184
2602.0,0.0184
2601.0,0.0183
2600.0,0.0183
2599.0,0.0182
2598.0,0.0182
2597.0,0.0181
2596.0,0.0181
2595.0,0.0181
2594.0,0.0182
2593.0,0.0183
2592.0,0.0183
2591.0,0.0184
2590.0,0.0185
2589.0,0.0185
2588.0,0.0186
2587.0,0.0187
2586.0,0.0188
2585.0,0.0188
2584.0,0.0188
2583.0,0.0188
2582.0,0.0188
2581.0,0.0188
2580.0,0.0188
2579.0,0.0188
2578.0,0.0187
2577.0,0.0186
2576.0,0.0185
2575.0,0.0184
2574.0,0.0183
2573.0,0.0182
2572.0,0.0182
2571.0,0.0181
2570.0,0.0181
2569.0,0.018
2568.0,0.0179
2567.0,0.0179
2566.0,0.0178
2565.0,0.0177
2564.0,0.0176
2563.0,0.0176
2562.0,0.0176
2561.0,0.0175
2560.0,0.0175
2559.0,0.0174
2558.0,0.0173
2557.0,0.0173
2556.0,0.0173
2555.0,0.0174
2554.0,0.0174
2553.0,0.0175
2552.0,0.0175
2551.0,0.0175
2550.0,0.0174
2549.0,0.0173
2548.0,0.0173
2547.0,0.0172
2546.0,0.0172
2545.0,0.0172
2544.0,0.0172
2543.0,0.0171
2542.0,0.0171
2541.0,0.017
2540.0,0.017
2539.0,0.0169
2538.0,0.0168
2537.0,0.0168
2536.0,0.0168
2535.0,0.0168
2534.0,0.0168
2533.0,0.0168
2532.0,0.0168
2531.0,0.0168
2530.0,0.0168
2529.0,0.0168
2528.0,0.0168
2527.0,0.0167
2526.0,0.0166
2525.0,0.0165
2524.0,0.0165
2523.0,0.0165
2522.0,0.0165
2521.0,0.0164
2520.0,0.0164
2519.0,0.0163
2518.0,0.0163
2517.0,0.0163
2516.0,0.0162
2515.0,0.0162
2514.0,0.0162
2513.0,0.0161
2512.0,0.0161
2511.0,0.0161
2510.0,0.0162
2509.0,0.0162
2508.0,0.0162
2507.0,0.0161
2506.0,0.016
2505.0,0.016
2504.0,0.016
2503.0,0.016
2502.0,0.016
2501.0,0.016
2500.0,0.016
2499.0,0.0161
2498.0,0.0161
2497.0,0.016
2496.0,0.016
2495.0,0.016
2494.0,0.016
2493.0,0.016
2492.0,0.0161
2491.0,0.0161
2490.0,0.016
2489.0,0.016
2488.0,0.0159
2487.0,0.016
2486.0,0.016
2485.0,0.016
2484.0,0.016
2483.0,0.016
2482.0,0.016
2481.0,0.016
2480.0,0.016
2479.0,0.0159
2478.0,0.0159
2477.0,0.0159
2476.0,0.0159
2475.0,0.0159
2474.0,0.0158
2473.0,0.0158
2472.0,0.0157
2471.0,0.0156
2470.0,0.0156
2469.0,0.0157
2468.0,0.0158
2467.0,0.0158
2466.0,0.0158
2465.0,0.0158
2464.0,0.0157
2463.0,0.0157
2462.0,0.0157
2461.0,0.0157
2460.0,0.0157
2459.0,0.0157
2458.0,0.0157
2457.0,0.0158
2456.0,0.0157
2455.0,0.0157
2454.0,0.0156
2453.0,0.0156
2452.0,0.0155
2451.0,0.0155
2450.0,0.0155
2449.0,0.0155
2448.0,0.0156
2447.0,0.0156
2446.0,0.0156
2445.0,0.0156
2444.0,0.0157
2443.0,0.0156
2442.0,0.0156
2441.0,0.0156
2440.0,0.0156
2439.0,0.0155
2438.0,0.0155
2437.0,0.0155
2436.0,0.0155
2435.0,0.0155
2434.0,0.0155
2433.0,0.0155
2432.0,0.0155
2431.0,0.0155
2430.0,0.0155
2429.0,0.0156
2428.0,0.0156
2427.0,0.0157
2426.0,0.0158
2425.0,0.0158
2424.0,0.0158
2423.0,0.0158
2422.0,0.0157
2421.0,0.0157
2420.0,0.0157
2419.0,0.0156
2418.0,0.0155
2417.0,0.0155
2416.0,0.0155
2415.0,0.0155
2414.0,0.0155
2413.0,0.0155
2412.0,0.0155
2411.0,0.0156
2410.0,0.0156
2409.0,0.0156
2408.0,0.0155
2407.0,0.0155
2406.0,0.0154
2405.0,0.0155
2404.0,0.0155
2403.0,0.0155
2402.0,0.0155
2401.0,0.0155
2400.0,0.0155
2399.0,0.0155
2398.0,0.0155
2397.0,0.0156
2396.0,0.0156
2395.0,0.0156
2394.0,0.0155
2393.0,0.0155
2392.0,0.0154
2391.0,0.0154
2390.0,0.0154
2389.0,0.0154
2388.0,0.0154
2387.0,0.0154
2386.0,0.0153
2385.0,0.0152
2384.0,0.015
2383.0,0.0149
2382.0,0.0147
2381.0,0.0144
2380.0,0.0142
2379.0,0.0141
2378.0,0.014
2377.0,0.014
2376.0,0.014
2375.0,0.0139
2374.0,0.0139
2373.0,0.0143
2372.0,0.0153
2371.0,0.0163
2370.0,0.0164
2369.0,0.0151
2368.0,0.013
2367.0,0.0114
2366.0,0.0111
2365.0,0.0122
2364.0,0.0143
2363.0,0.0173
2362.0,0.0214
2361.0,0.0259
2360.0,0.0293
2359.0,0.0301
2358.0,0.0278
2357.0,0.0233
2356.0,0.0187
2355.0,0.0153
2354.0,0.0135
2353.0,0.0127
2352.0,0.0126
2351.0,0.0128
2350.0,0.0128
2349.0,0.0123
2348.0,0.011
2347.0,0.0095
2346.0,0.0087
2345.0,0.009
2344.0,0.0103
2343.0,0.0114
2342.0,0.0119
2341.0,0.0125
2340.0,0.0139
2339.0,0.0152
2338.0,0.0156
2337.0,0.0147
2336.0,0.0132
2335.0,0.012
2334.0,0.0116
2333.0,0.012
2332.0,0.0128
2331.0,0.0134
2330.0,0.0134
2329.0,0.013
2328.0,0.0128
2327.0,0.0132
2326.0,0.0139
2325.0,0.0144
2324.0,0.0147
2323.0,0.0145
2322.0,0.0142
2321.0,0.0139
2320.0,0.0138
2319.0,0.0139
2318.0,0.0142
2317.0,0.0143
2316.0,0.0143
2315.0,0.0142
2314.0,0.0141
2313.0,0.014
2312.0,0.014
2311.0,0.0141
2310.0,0.0141
2309.0,0.0141
2308.0,0.0141
2307.0,0.0142
2306.0,0.0142
2305.0,0.0143
2304.0,0.0142
2303.0,0.0142
2302.0,0.0142
2301.0,0.0143
2300.0,0.0142
2299.0,0.0142
2298.0,0.0142
2297.0,0.0142
2296.0,0.0143
2295.0,0.0143
2294.0,0.0143
2293.0,0.0144
2292.0,0.0144
2291.0,0.0144
2290.0,0.0144
2289.0,0.0145
2288.0,0.0145
2287.0,0.0146
2286.0,0.0146
2285.0,0.0146
2284.0,0.0145
2283.0,0.0144
2282.0,0.0143
2281.0,0.0142
2280.0,0.0141
2279.0,0.0141
2278.0,0.0141
2277.0,0.0142
2276.0,0.0142
2275.0,0.0142
2274.0,0.0142
2273.0,0.0143
2272.0,0.0143
2271.0,0.0143
2270.0,0.0143
2269.0,0.0143
2268.0,0.0143
2267.0,0.0143
2266.0,0.0144
2265.0,0.0144
2264.0,0.0144
2263.0,0.0144
2262.0,0.0144
2261.0,0.0144
2260.0,0.0144
2259.0,0.0144
2258.0,0.0143
2257.0,0.0143
2256.0,0.0143
2255.0,0.0144
2254.0,0.0145
2253.0,0.0145
2252.0,0.0145
2251.0,0.0144
2250.0,0.0143
2249.0,0.0143
2248.0,0.0143
2247.0,0.0143
2246.0,0.0143
2245.0,0.0143
2244.0,0.0144
2243.0,0.0144
2242.0,0.0144
2241.0,0.0143
2240.0,0.0143
2239.0,0.0143
2238.0,0.0143
2237.0,0.0143
2236.0,0.0143
2235.0,0.0143
2234.0,0.0143
2233.0,0.0143
2232.0,0.0143
2231.0,0.0143
2230.0,0.0143
2229.0,0.0143
2228.0,0.0143
2227.0,0.0143
2226.0,0.0143
2225.0,0.0143
2224.0,0.0143
2223.0,0.0143
2222.0,0.0143
2221.0,0.0143
2220.0,0.0143
2219.0,0.0142
2218.0,0.0142
2217.0,0.0142
2216.0,0.0142
2215.0,0.0142
2214.0,0.0142
2213.0,0.0141
2212.0,0.0141
2211.0,0.0142
2210.0,0.0143
2209.0,0.0143
2208.0,0.0143
2207.0,0.0142
2206.0,0.0142
2205.0,0.0142
2204.0,0.0142
2203.0,0.0143
2202.0,0.0142
2201.0,0.0142
2200.0,0.0142
2199.0,0.0142
2198.0,0.0141
2197.0,0.0141
2196.0,0.0141
2195.0,0.0142
2194.0,0.0142
2193.0,0.0142
2192.0,0.0143
2191.0,0.0143
2190.0,0.0142
2189.0,0.0142
2188.0,0.0142
2187.0,0.0142
2186.0,0.0142
2185.0,0.0143
2184.0,0.0143
2183.0,0.0143
2182.0,0.0144
2181.0,0.0144
2180.0,0.0143
2179.0,0.0143
2178.0,0.0143
2177.0,0.0143
2176.0,0.0143
2175.0,0.0143
2174.0,0.0143
2173.0,0.0142
2172.0,0.0142
2171.0,0.0142
2170.0,0.0142
2169.0,0.0142
2168.0,0.0142
2167.0,0.0142
2166.0,0.0143
2165.0,0.0143
2164.0,0.0143
2163.0,0.0143
2162.0,0.0143
2161.0,0.0143
2160.0,0.0142
2159.0,0.0141
2158.0,0.0141
2157.0,0.0141
2156.0,0.0141
2155.0,0.0141
2154.0,0.0141
2153.0,0.0141
2152.0,0.0141
2151.0,0.014
2150.0,0.014
2149.0,0.014
2148.0,0.014
2147.0,0.0141
2146.0,0.0141
2145.0,0.0141
2144.0,0.0141
2143.0,0.0141
2142.0,0.0141
2141.0,0.0141
2140.0,0.0141
2139.0,0.0141
2138.0,0.0141
2137.0,0.0141
2136.0,0.0141
2135.0,0.0141
2134.0,0.014
2133.0,0.014
2132.0,0.014
2131.0,0.014
2130.0,0.014
2129.0,0.014
2128.0,0.0141
2127.0,0.0142
2126.0,0.0142
2125.0,0.0142
2124.0,0.0141
2123.0,0.014
2122.0,0.0139
2121.0,0.0139
2120.0,0.0139
2119.0,0.0139
2118.0,0.0139
2117.0,0.0139
2116.0,0.014
2115.0,0.0139
2114.0,0.0139
2113.0,0.0139
2112.0,0.0139
2111.0,0.0139
2110.0,0.0139
2109.0,0.0139
2108.0,0.0139
2107.0,0.0139
2106.0,0.0139
2105.0,0.0139
2104.0,0.0138
2103.0,0.0138
2102.0,0.0138
2101.0,0.0138
2100.0,0.0137
2099.0,0.0137
2098.0,0.0137
2097.0,0.0137
2096.0,0.0137
2095.0,0.0138
2094.0,0.0138
2093.0,0.0138
2092.0,0.0138
2091.0,0.0138
2090.0,0.0138
2089.0,0.0138
2088.0,0.0139
2087.0,0.0139
2086.0,0.0139
2085.0,0.0138
2084.0,0.0138
2083.0,0.0138
2082.0,0.0137
2081.0,0.0137
2080.0,0.0137
2079.0,0.0137
2078.0,0.0137
2077.0,0.0137
2076.0,0.0137
2075.0,0.0137
2074.0,0.0137
2073.0,0.0137
2072.0,0.0137
2071.0,0.0137
2070.0,0.0137
2069.0,0.0137
2068.0,0.0136
2067.0,0.0136
2066.0,0.0135
2065.0,0.0136
2064.0,0.0136
2063.0,0.0136
2062.0,0.0136
2061.0,0.0136
2060.0,0.0136
2059.0,0.0135
2058.0,0.0135
2057.0,0.0135
2056.0,0.0135
2055.0,0.0136
2054.0,0.0136
2053.0,0.0136
2052.0,0.0136
2051.0,0.0136
2050.0,0.0137
2049.0,0.0137
2048.0,0.0137
2047.0,0.0137
2046.0,0.0136
2045.0,0.0136
2044.0,0.0136
2043.0,0.0136
2042.0,0.0136
2041.0,0.0136
2040.0,0.0136
2039.0,0.0137
2038.0,0.0137
2037.0,0.0137
2036.0,0.0137
2035.0,0.0137
2034.0,0.0138
2033.0,0.0137
2032.0,0.0137
2031.0,0.0137
2030.0,0.0137
2029.0,0.0137
2028.0,0.0137
2027.0,0.0137
2026.0,0.0136
2025.0,0.0136
2024.0,0.0137
2023.0,0.0137
2022.0,0.0137
2021.0,0.0138
2020.0,0.0137
2019.0,0.0137
2018.0,0.0136
2017.0,0.0135
2016.0,0.0135
2015.0,0.0135
2014.0,0.0135
2013.0,0.0135
2012.0,0.0135
2011.0,0.0135
2010.0,0.0135
2009.0,0.0136
2008.0,0.0136
2007.0,0.0136
2006.0,0.0136
2005.0,0.0136
2004.0,0.0136
2003.0,0.0136
2002.0,0.0135
2001.0,0.0135
2000.0,0.0135
1999.0,0.0135
1998.0,0.0135
1997.0,0.0136
1996.0,0.0136
1995.0,0.0136
1994.0,0.0136
1993.0,0.0136
1992.0,0.0137
1991.0,0.0137
1990.0,0.0137
1989.0,0.0136
1988.0,0.0136
1987.0,0.0136
1986.0,0.0136
1985.0,0.0136
1984.0,0.0136
1983.0,0.0136
1982.0,0.0136
1981.0,0.0136
1980.0,0.0136
1979.0,0.0136
1978.0,0.0136
1977.0,0.0136
1976.0,0.0136
1975.0,0.0136
1974.0,0.0136
1973.0,0.0136
1972.0,0.0136
1971.0,0.0136
1970.0,0.0136
1969.0,0.0137
1968.0,0.0137
1967.0,0.0137
1966.0,0.0137
1965.0,0.0137
1964.0,0.0137
1963.0,0.0137
1962.0,0.0137
1961.0,0.0137
1960.0,0.0137
1959.0,0.0136
1958.0,0.0136
1957.0,0.0136
1956.0,0.0137
1955.0,0.0137
1954.0,0.0137
1953.0,0.0138
1952.0,0.0138
1951.0,0.0138
1950.0,0.0138
1949.0,0.0138
1948.0,0.0138
1947.0,0.0138
1946.0,0.0137
1945.0,0.0137
1944.0,0.0137
1943.0,0.0137
1942.0,0.0138
1941.0,0.0138
1940.0,0.0138
1939.0,0.0138
1938.0,0.0138
1937.0,0.0138
1936.0,0.0138
1935.0,0.0138
1934.0,0.0138
1933.0,0.0138
1932.0,0.0138
1931.0,0.0138
1930.0,0.0138
1929.0,0.0138
1928.0,0.0138
1927.0,0.0137
1926.0,0.0137
1925.0,0.0138
1924.0,0.0138
1923.0,0.0138
1922.0,0.0138
1921.0,0.0138
1920.0,0.0138
1919.0,0.0137
1918.0,0.0137
1917.0,0.0138
1916.0,0.0138
1915.0,0.0138
1914.0,0.0139
1913.0,0.0139
1912.0,0.0139
1911.0,0.0138
1910.0,0.0138
1909.0,0.0138
1908.0,0.0138
1907.0,0.0138
1906.0,0.0138
1905.0,0.0138
1904.0,0.0138
1903.0,0.0138
1902.0,0.0138
1901.0,0.0138
1900.0,0.0138
1899.0,0.0137
1898.0,0.0137
1897.0,0.0137
1896.0,0.0137
1895.0,0.0138
1894.0,0.0138
1893.0,0.0137
1892.0,0.0137
1891.0,0.0136
1890.0,0.0136
1889.0,0.0137
1888.0,0.0137
1887.0,0.0137
1886.0,0.0137
1885.0,0.0137
1884.0,0.0137
1883.0,0.0136
1882.0,0.0136
1881.0,0.0136
1880.0,0.0136
1879.0,0.0137
1878.0,0.0137
1877.0,0.0137
1876.0,0.0137
1875.0,0.0136
1874.0,0.0136
1873.0,0.0136
1872.0,0.0136
1871.0,0.0136
1870.0,0.0136
1869.0,0.0136
1868.0,0.0136
1867.0,0.0137
1866.0,0.0137
1865.0,0.0137
1864.0,0.0137
1863.0,0.0136
1862.0,0.0136
1861.0,0.0137
1860.0,0.0137
1859.0,0.0137
1858.0,0.0137
1857.0,0.0137
1856.0,0.0136
1855.0,0.0136
1854.0,0.0136
1853.0,0.0136
1852.0,0.0136
1851.0,0.0137
1850.0,0.0137
1849.0,0.0137
1848.0,0.0136
1847.0,0.0136
1846.0,0.0136
1845.0,0.0136
1844.0,0.0136
1843.0,0.0136
1842.0,0.0136
1841.0,0.0136
1840.0,0.0136
1839.0,0.0136
1838.0,0.0137
1837.0,0.0137
1836.0,0.0137
1835.0,0.0137
1834.0,0.0137
1833.0,0.0137
1832.0,0.0137
1831.0,0.0137
1830.0,0.0136
1829.0,0.0136
1828.0,0.0137
1827.0,0.0137
1826.0,0.0137
1825.0,0.0136
1824.0,0.0136
1823.0,0.0136
1822.0,0.0136
1821.0,0.0136
1820.0,0.0136
1819.0,0.0136
1818.0,0.0136
1817.0,0.0136
1816.0,0.0136
1815.0,0.0136
1814.0,0.0136
1813.0,0.0136
1812.0,0.0136
1811.0,0.0136
1810.0,0.0137
1809.0,0.0137
1808.0,0.0137
1807.0,0.0136
1806.0,0.0136
1805.0,0.0135
1804.0,0.0135
1803.0,0.0136
1802.0,0.0136
1801.0,0.0136
1800.0,0.0137
1799.0,0.0137
1798.0,0.0137
1797.0,0.0137
1796.0,0.0137
1795.0,0.0136
1794.0,0.0136
1793.0,0.0136
1792.0,0.0136
1791.0,0.0137
1790.0,0.0136
1789.0,0.0136
1788.0,0.0137
1787.0,0.0136
1786.0,0.0136
1785.0,0.0136
1784.0,0.0136
1783.0,0.0136
1782.0,0.0136
1781.0,0.0136
1780.0,0.0136
1779.0,0.0136
1778.0,0.0136
1777.0,0.0136
1776.0,0.0136
1775.0,0.0136
1774.0,0.0137
1773.0,0.0137
1772.0,0.0137
1771.0,0.0138
1770.0,0.0138
1769.0,0.0138
1768.0,0.0138
1767.0,0.0138
1766.0,0.0138
1765.0,0.0139
1764.0,0.0139
1763.0,0.0139
1762.0,0.0138
1761.0,0.0138
1760.0,0.0138
1759.0,0.0139
1758.0,0.0139
1757.0,0.0141
1756.0,0.0142
1755.0,0.0142
1754.0,0.0143
1753.0,0.0143
1752.0,0.0144
1751.0,0.0146
1750.0,0.0149
1749.0,0.0151
1748.0,0.0153
1747.0,0.0153
1746.0,0.0153
1745.0,0.0154
1744.0,0.0155
1743.0,0.0155
1742.0,0.0155
1741.0,0.0154
1740.0,0.0153
1739.0,0.0152
1738.0,0.0151
1737.0,0.0151
1736.0,0.0151
1735.0,0.015
1734.0,0.0149
1733.0,0.015
1732.0,0.015
1731.0,0.0151
1730.0,0.0151
1729.0,0.0151
1728.0,0.0151
1727.0,0.0151
1726.0,0.015
1725.0,0.015
1724.0,0.015
1723.0,0.0149
1722.0,0.0149
1721.0,0.0149
1720.0,0.0149
1719.0,0.0149
1718.0,0.0149
1717.0,0.015
1716.0,0.0151
1715.0,0.0151
1714.0,0.0151
1713.0,0.0151
1712.0,0.015
1711.0,0.015
1710.0,0.0149
1709.0,0.0149
1708.0,0.015
1707.0,0.015
1706.0,0.015
1705.0,0.015
1704.0,0.015
1703.0,0.015
1702.0,0.015
1701.0,0.0149
1700.0,0.0149
1699.0,0.0149
1698.0,0.0151
1697.0,0.0152
1696.0,0.0152
1695.0,0.0152
1694.0,0.0152
1693.0,0.0153
1692.0,0.0154
1691.0,0.0154
1690.0,0.0154
1689.0,0.0155
1688.0,0.0155
1687.0,0.0156
1686.0,0.0155
1685.0,0.0156
1684.0,0.0157
1683.0,0.0158
1682.0,0.0159
1681.0,0.0159
1680.0,0.0159
1679.0,0.0159
1678.0,0.0159
1677.0,0.0159
1676.0,0.0158
1675.0,0.0159
1674.0,0.0159
1673.0,0.0159
1672.0,0.016
1671.0,0.0161
1670.0,0.0162
1669.0,0.0163
1668.0,0.0163
1667.0,0.0163
1666.0,0.0164
1665.0,0.0164
1664.0,0.0164
1663.0,0.0164
1662.0,0.0164
1661.0,0.0165
1660.0,0.0165
1659.0,0.0166
1658.0,0.0166
1657.0,0.0166
1656.0,0.0167
1655.0,0.0167
1654.0,0.0166
1653.0,0.0168
1652.0,0.0168
1651.0,0.0168
1650.0,0.0169
1649.0,0.0171
1648.0,0.0173
1647.0,0.0175
1646.0,0.0176
1645.0,0.0175
1644.0,0.0174
1643.0,0.0174
1642.0,0.0174
1641.0,0.0174
1640.0,0.0174
1639.0,0.0174
1638.0,0.0174
1637.0,0.0174
1636.0,0.0174
1635.0,0.0173
1634.0,0.0171
1633.0,0.0169
1632.0,0.0168
1631.0,0.0167
1630.0,0.0166
1629.0,0.0166
1628.0,0.0166
1627.0,0.0165
1626.0,0.0165
1625.0,0.0165
1624.0,0.0164
1623.0,0.0164
1622.0,0.0162
1621.0,0.0161
1620.0,0.016
1619.0,0.0159
1618.0,0.0159
1617.0,0.0159
1616.0,0.0159
1615.0,0.0158
1614.0,0.0158
1613.0,0.0157
1612.0,0.0157
1611.0,0.0156
1610.0,0.0156
1609.0,0.0155
1608.0,0.0155
1607.0,0.0155
1606.0,0.0155
1605.0,0.0155
1604.0,0.0156
1603.0,0.0156
1602.0,0.0156
1601.0,0.0156
1600.0,0.0155
1599.0,0.0155
1598.0,0.0154
1597.0,0.0153
1596.0,0.0153
1595.0,0.0152
1594.0,0.0151
1593.0,0.0151
1592.0,0.015
1591.0,0.0149
1590.0,0.0149
1589.0,0.0149
1588.0,0.0148
1587.0,0.0148
1586.0,0.0148
1585.0,0.0148
1584.0,0.0149
1583.0,0.0149
1582.0,0.0149
1581.0,0.0149
1580.0,0.0148
1579.0,0.0148
1578.0,0.0148
1577.0,0.0147
1576.0,0.0146
1575.0,0.0145
1574.0,0.0145
1573.0,0.0146
1572.0,0.0146
1571.0,0.0146
1570.0,0.0147
1569.0,0.0147
1568.0,0.0148
1567.0,0.0148
1566.0,0.0148
1565.0,0.0148
1564.0,0.0148
1563.0,0.0148
1562.0,0.0148
1561.0,0.0149
1560.0,0.0148
1559.0,0.0149
1558.0,0.0148
1557.0,0.0146
1556.0,0.0147
1555.0,0.0148
1554.0,0.0148
1553.0,0.0148
1552.0,0.0148
1551.0,0.0148
1550.0,0.0149
1549.0,0.0149
1548.0,0.0149
1547.0,0.0149
1546.0,0.0148
1545.0,0.0148
1544.0,0.0148
1543.0,0.0148
1542.0,0.0149
1541.0,0.0151
1540.0,0.0152
1539.0,0.0149
1538.0,0.0145
1537.0,0.0144
1536.0,0.0144
1535.0,0.0144
1534.0,0.0143
1533.0,0.0143
1532.0,0.0142
1531.0,0.0142
1530.0,0.0141
1529.0,0.0142
1528.0,0.0142
1527.0,0.0142
1526.0,0.014
1525.0,0.0139
1524.0,0.0139
1523.0,0.0139
1522.0,0.0139
1521.0,0.014
1520.0,0.0141
1519.0,0.014
1518.0,0.0139
1517.0,0.0139
1516.0,0.0139
1515.0,0.0138
1514.0,0.0137
1513.0,0.0136
1512.0,0.0136
1511.0,0.0136
1510.0,0.0137
1509.0,0.0138
1508.0,0.0141
1507.0,0.0141
1506.0,0.0138
1505.0,0.0135
1504.0,0.0134
1503.0,0.0134
1502.0,0.0134
1501.0,0.0134
1500.0,0.0135
1499.0,0.0136
1498.0,0.0138
1497.0,0.0142
1496.0,0.0146
1495.0,0.015
1494.0,0.0151
1493.0,0.0153
1492.0,0.0154
1491.0,0.0152
1490.0,0.0149
1489.0,0.0148
1488.0,0.0149
1487.0,0.0149
1486.0,0.0149
1485.0,0.0151
1484.0,0.0153
1483.0,0.0156
1482.0,0.0158
1481.0,0.0163
1480.0,0.0169
1479.0,0.0176
1478.0,0.0186
1477.0,0.0203
1476.0,0.0226
1475.0,0.0253
1474.0,0.0289
1473.0,0.0336
1472.0,0.0384
1471.0,0.0421
1470.0,0.0457
1469.0,0.0497
1468.0,0.0544
1467.0,0.0598
1466.0,0.0666
1465.0,0.0748
1464.0,0.082
1463.0,0.0864
1462.0,0.0888
1461.0,0.0902
1460.0,0.0909
1459.0,0.0913
1458.0,0.0921
1457.0,0.0937
1456.0,0.0947
1455.0,0.0947
1454.0,0.0944
1453.0,0.0937
1452.0,0.0924
1451.0,0.0903
1450.0,0.0874
1449.0,0.0832
1448.0,0.0775
1447.0,0.0716
1446.0,0.0663
1445.0,0.0618
1444.0,0.0578
1443.0,0.0543
1442.0,0.0516
1441.0,0.0497
1440.0,0.0484
1439.0,0.0479
1438.0,0.048
1437.0,0.0486
1436.0,0.0484
1435.0,0.0471
1434.0,0.0448
1433.0,0.0419
1432.0,0.0387
1431.0,0.0357
1430.0,0.0333
1429.0,0.0314
1428.0,0.0301
1427.0,0.0293
1426.0,0.0286
1425.0,0.0279
1424.0,0.0273
1423.0,0.0269
1422.0,0.0266
1421.0,0.0263
1420.0,0.0259
1419.0,0.0257
1418.0,0.0257
1417.0,0.0256
1416.0,0.0254
1415.0,0.0253
1414.0,0.0252
1413.0,0.0251
1412.0,0.0249
1411.0,0.0249
1410.0,0.0248
1409.0,0.0246
1408.0,0.0245
1407.0,0.0243
1406.0,0.0242
1405.0,0.024
1404.0,0.0237
1403.0,0.0234
1402.0,0.0232
1401.0,0.0229
1400.0,0.0225
1399.0,0.0223
1398.0,0.0223
1397.0,0.0223
1396.0,0.0225
1395.0,0.0229
1394.0,0.023
1393.0,0.0227
1392.0,0.0222
1391.0,0.022
1390.0,0.0221
1389.0,0.0225
1388.0,0.0234
1387.0,0.0251
1386.0,0.0277
1385.0,0.0312
1384.0,0.0363
1383.0,0.0436
1382.0,0.0537
1381.0,0.0669
1380.0,0.0835
1379.0,0.1028
1378.0,0.1217
1377.0,0.1361
1376.0,0.1426
1375.0,0.1386
1374.0,0.1254
1373.0,0.1092
1372.0,0.0943
1371.0,0.0816
1370.0,0.0707
1369.0,0.0618
1368.0,0.0554
1367.0,0.0512
1366.0,0.0488
1365.0,0.0475
1364.0,0.0473
1363.0,0.048
1362.0,0.0494
1361.0,0.051
1360.0,0.0521
1359.0,0.0524
1358.0,0.0517
1357.0,0.05
1356.0,0.0475
1355.0,0.0447
1354.0,0.0419
1353.0,0.0395
1352.0,0.0374
1351.0,0.0357
1350.0,0.0343
1349.0,0.0332
1348.0,0.0322
1347.0,0.0314
1346.0,0.0306
1345.0,0.0299
1344.0,0.0293
1343.0,0.0288
1342.0,0.0283
1341.0,0.0279
1340.0,0.0276
1339.0,0.0274
1338.0,0.0271
1337.0,0.027
1336.0,0.0269
1335.0,0.027
1334.0,0.0271
1333.0,0.0274
1332.0,0.0277
1331.0,0.0279
1330.0,0.028
1329.0,0.0279
1328.0,0.0277
1327.0,0.0273
1326.0,0.0269
1325.0,0.0264
1324.0,0.026
1323.0,0.0255
1322.0,0.0252
1321.0,0.0249
1320.0,0.0247
1319.0,0.0246
1318.0,0.0243
1317.0,0.0241
1316.0,0.024
1315.0,0.0239
1314.0,0.0238
1313.0,0.0237
1312.0,0.0237
1311.0,0.0237
1310.0,0.0239
1309.0,0.0242
1308.0,0.0246
1307.0,0.0253
1306.0,0.0259
1305.0,0.0263
1304.0,0.0265
1303.0,0.0264
1302.0,0.0262
1301.0,0.026
1300.0,0.0259
1299.0,0.026
1298.0,0.0261
1297.0,0.0262
1296.0,0.0263
1295.0,0.0262
1294.0,0.026
1293.0,0.0257
1292.0,0.0253
1291.0,0.025
1290.0,0.0247
1289.0,0.0245
1288.0,0.0243
1287.0,0.0241
1286.0,0.0239
1285.0,0.0238
1284.0,0.0236
1283.0,0.0235
1282.0,0.0234
1281.0,0.0233
1280.0,0.0232
1279.0,0.0232
1278.0,0.0232
1277.0,0.0231
1276.0,0.0231
1275.0,0.0231
1274.0,0.0231
1273.0,0.0231
1272.0,0.0232
1271.0,0.0232
1270.0,0.0233
1269.0,0.0234
1268.0,0.0236
1267.0,0.0238
1266.0,0.024
1265.0,0.0241
1264.0,0.0243
1263.0,0.0245
1262.0,0.0248
1261.0,0.0252
1260.0,0.0256
1259.0,0.0261
1258.0,0.0266
1257.0,0.027
1256.0,0.0273
1255.0,0.0273
1254.0,0.0271
1253.0,0.0267
1252.0,0.0263
1251.0,0.0259
1250.0,0.0256
1249.0,0.0253
1248.0,0.025
1247.0,0.0248
1246.0,0.0246
1245.0,0.0245
1244.0,0.0246
1243.0,0.0246
1242.0,0.0247
1241.0,0.0245
1240.0,0.0242
1239.0,0.024
1238.0,0.0239
1237.0,0.0238
1236.0,0.0239
1235.0,0.024
1234.0,0.024
1233.0,0.0241
1232.0,0.0241
1231.0,0.0242
1230.0,0.0242
1229.0,0.0242
1228.0,0.0242
1227.0,0.0243
1226.0,0.0243
1225.0,0.0244
1224.0,0.0246
1223.0,0.0249
1222.0,0.0251
1221.0,0.0252
1220.0,0.0253
1219.0,0.0253
1218.0,0.0252
1217.0,0.025
1216.0,0.0249
1215.0,0.0246
1214.0,0.0244
1213.0,0.0242
1212.0,0.024
1211.0,0.0238
1210.0,0.0236
1209.0,0.0235
1208.0,0.0234
1207.0,0.0234
1206.0,0.0234
1205.0,0.0233
1204.0,0.0232
1203.0,0.0232
1202.0,0.0232
1201.0,0.0232
1200.0,0.0233
1199.0,0.0233
1198.0,0.0233
1197.0,0.0233
1196.0,0.0234
1195.0,0.0234
1194.0,0.0234
1193.0,0.0235
1192.0,0.0235
1191.0,0.0235
1190.0,0.0236
1189.0,0.0237
1188.0,0.0238
1187.0,0.0239
1186.0,0.024
1185.0,0.0241
1184.0,0.0242
1183.0,0.0243
1182.0,0.0245
1181.0,0.0247
1180.0,0.0249
1179.0,0.0252
1178.0,0.0257
1177.0,0.0261
1176.0,0.0268
1175.0,0.0276
1174.0,0.0288
1173.0,0.0303
1172.0,0.0322
1171.0,0.0342
1170.0,0.0363
1169.0,0.0381
1168.0,0.0392
1167.0,0.0397
1166.0,0.0395
1165.0,0.0389
1164.0,0.0381
1163.0,0.0373
1162.0,0.0367
1161.0,0.0361
1160.0,0.0358
1159.0,0.0355
1158.0,0.0352
1157.0,0.0351
1156.0,0.035
1155.0,0.035
1154.0,0.035
1153.0,0.0349
1152.0,0.0347
1151.0,0.0344
1150.0,0.0339
1149.0,0.0332
1148.0,0.0325
1147.0,0.0319
1146.0,0.0313
1145.0,0.0307
1144.0,0.0302
1143.0,0.0296
1142.0,0.0291
1141.0,0.0288
1140.0,0.0284
1139.0,0.0281
1138.0,0.0278
1137.0,0.0276
1136.0,0.0274
1135.0,0.0272
1134.0,0.0271
1133.0,0.0269
1132.0,0.0267
1131.0,0.0266
1130.0,0.0265
1129.0,0.0265
1128.0,0.0265
1127.0,0.0264
1126.0,0.0264
1125.0,0.0265
1124.0,0.0265
1123.0,0.0266
1122.0,0.0267
1121.0,0.0267
1120.0,0.0268
1119.0,0.0269
1118.0,0.027
1117.0,0.0271
1116.0,0.0272
1115.0,0.0274
1114.0,0.0276
1113.0,0.0279
1112.0,0.0282
1111.0,0.0285
1110.0,0.0288
1109.0,0.0293
1108.0,0.0298
1107.0,0.0304
1106.0,0.031
1105.0,0.0316
1104.0,0.0322
1103.0,0.0325
1102.0,0.0326
1101.0,0.0326
1100.0,0.0324
1099.0,0.032
1098.0,0.0316
1097.0,0.0312
1096.0,0.0309
1095.0,0.0306
1094.0,0.0304
1093.0,0.0303
1092.0,0.0304
1091.0,0.0306
1090.0,0.0309
1089.0,0.0311
1088.0,0.0313
1087.0,0.0316
1086.0,0.0318
1085.0,0.032
1084.0,0.0322
1083.0,0.0325
1082.0,0.0328
1081.0,0.0331
1080.0,0.0334
1079.0,0.0336
1078.0,0.0337
1077.0,0.0338
1076.0,0.0339
1075.0,0.0339
1074.0,0.0338
1073.0,0.0337
1072.0,0.0335
1071.0,0.0333
1070.0,0.0333
1069.0,0.0335
1068.0,0.0339
1067.0,0.0343
1066.0,0.0344
1065.0,0.0342
1064.0,0.0337
1063.0,0.0333
1062.0,0.0329
1061.0,0.0329
1060.0,0.033
1059.0,0.0333
1058.0,0.0336
1057.0,0.0337
1056.0,0.0336
1055.0,0.0336
1054.0,0.0336
1053.0,0.0337
1052.0,0.0337
1051.0,0.0337
1050.0,0.0336
1049.0,0.0336
1048.0,0.0337
1047.0,0.0337
1046.0,0.0337
1045.0,0.0336
1044.0,0.0334
1043.0,0.0331
1042.0,0.0327
1041.0,0.0324
1040.0,0.0321
1039.0,0.0318
1038.0,0.0315
1037.0,0.031
1036.0,0.0304
1035.0,0.0298
1034.0,0.0293
1033.0,0.0288
1032.0,0.0285
1031.0,0.0283
1030.0,0.0283
1029.0,0.0285
1028.0,0.0286
1027.0,0.0284
1026.0,0.028
1025.0,0.0275
1024.0,0.0271
1023.0,0.0269
1022.0,0.0267
1021.0,0.0267
1020.0,0.0266
1019.0,0.0266
1018.0,0.0266
1017.0,0.0265
1016.0,0.0265
1015.0,0.0264
1014.0,0.0264
1013.0,0.0263
1012.0,0.0262
1011.0,0.0261
1010.0,0.0261
1009.0,0.0261
1008.0,0.0262
1007.0,0.0264
1006.0,0.0267
1005.0,0.0272
1004.0,0.028
1003.0,0.0293
1002.0,0.031
1001.0,0.0333
1000.0,0.0358
999.0,0.0379
998.0,0.0391
997.0,0.0389
996.0,0.0374
995.0,0.0351
994.0,0.0327
993.0,0.0306
992.0,0.0288
991.0,0.0275
990.0,0.0265
989.0,0.0257
988.0,0.0252
987.0,0.0248
986.0,0.0247
985.0,0.0247
984.0,0.0248
983.0,0.0251
982.0,0.0257
981.0,0.0267
980.0,0.0281
979.0,0.0301
978.0,0.0326
977.0,0.0356
976.0,0.0387
975.0,0.0417
974.0,0.0439
973.0,0.0447
972.0,0.0439
971.0,0.0417
970.0,0.0388
969.0,0.0359
968.0,0.0333
967.0,0.0313
966.0,0.0297
965.0,0.0285
964.0,0.0276
963.0,0.0269
962.0,0.0263
961.0,0.0259
960.0,0.0254
959.0,0.0251
958.0,0.0249
957.0,0.0247
956.0,0.0245
955.0,0.0243
954.0,0.0241
953.0,0.024
952.0,0.0238
951.0,0.0237
950.0,0.0237
949.0,0.0236
948.0,0.0235
947.0,0.0235
946.0,0.0236
945.0,0.0238
944.0,0.0242
943.0,0.0244
942.0,0.0246
941.0,0.0248
940.0,0.0248
939.0,0.0246
938.0,0.0244
937.0,0.024
936.0,0.0236
935.0,0.0232
934.0,0.0229
933.0,0.0226
932.0,0.0223
931.0,0.0221
930.0,0.0221
929.0,0.0221
928.0,0.0221
927.0,0.022
926.0,0.022
925.0,0.0219
924.0,0.0219
923.0,0.0219
922.0,0.0219
921.0,0.0219
920.0,0.0219
919.0,0.0218
918.0,0.0219
917.0,0.0219
916.0,0.022
915.0,0.022
914.0,0.0221
913.0,0.0222
912.0,0.0224
911.0,0.0226
910.0,0.0229
909.0,0.0231
908.0,0.0234
907.0,0.0238
906.0,0.0244
905.0,0.0252
904.0,0.0262
903.0,0.0276
902.0,0.0293
901.0,0.031
900.0,0.0323
899.0,0.033
898.0,0.0328
897.0,0.0318
896.0,0.0305
895.0,0.0291
894.0,0.0279
893.0,0.027
892.0,0.0263
891.0,0.0258
890.0,0.0253
889.0,0.0249
888.0,0.0245
887.0,0.0244
886.0,0.0244
885.0,0.0244
884.0,0.0244
883.0,0.0244
882.0,0.0244
881.0,0.0244
880.0,0.0245
879.0,0.0245
878.0,0.0245
877.0,0.0246
876.0,0.0247
875.0,0.0247
874.0,0.0247
873.0,0.0246
872.0,0.0245
871.0,0.0244
870.0,0.0243
869.0,0.0242
868.0,0.0241
867.0,0.024
866.0,0.024
865.0,0.024
864.0,0.0241
863.0,0.0241
862.0,0.0241
861.0,0.024
860.0,0.024
859.0,0.024
858.0,0.0241
857.0,0.0241
856.0,0.0241
855.0,0.0241
854.0,0.0241
853.0,0.0241
852.0,0.0243
851.0,0.0244
850.0,0.0247
849.0,0.0251
848.0,0.0255
847.0,0.0262
846.0,0.0273
845.0,0.0291
844.0,0.0318
843.0,0.0349
842.0,0.0375
841.0,0.0385
840.0,0.0374
839.0,0.0348
838.0,0.0319
837.0,0.0297
836.0,0.0283
835.0,0.0274
834.0,0.0268
833.0,0.0263
832.0,0.0259
831.0,0.0255
830.0,0.0253
829.0,0.0251
828.0,0.0251
827.0,0.025
826.0,0.0248
825.0,0.0247
824.0,0.0245
823.0,0.0244
822.0,0.0244
821.0,0.0244
820.0,0.0246
819.0,0.0248
818.0,0.025
817.0,0.0255
816.0,0.026
815.0,0.0269
814.0,0.028
813.0,0.0294
812.0,0.0309
811.0,0.0322
810.0,0.0332
809.0,0.0338
808.0,0.0339
807.0,0.0335
806.0,0.0326
805.0,0.0315
804.0,0.0304
803.0,0.0294
802.0,0.0287
801.0,0.0281
800.0,0.0276
799.0,0.0272
798.0,0.0269
797.0,0.0265
796.0,0.0262
795.0,0.0259
794.0,0.0257
793.0,0.0256
792.0,0.0255
791.0,0.0253
790.0,0.0251
789.0,0.0249
788.0,0.0248
787.0,0.0248
786.0,0.0248
785.0,0.0248
784.0,0.0247
783.0,0.0246
782.0,0.0243
781.0,0.0241
780.0,0.024
779.0,0.0241
778.0,0.0242
777.0,0.0243
776.0,0.0244
775.0,0.0244
774.0,0.0244
773.0,0.0245
772.0,0.0247
771.0,0.0248
770.0,0.0249
769.0,0.0249
768.0,0.0249
767.0,0.0251
766.0,0.0253
765.0,0.0256
764.0,0.0261
763.0,0.0265
762.0,0.0268
761.0,0.0269
760.0,0.027
759.0,0.0271
758.0,0.0272
757.0,0.0272
756.0,0.0271
755.0,0.027
754.0,0.027
753.0,0.027
752.0,0.0272
751.0,0.0274
750.0,0.0276
749.0,0.0278
748.0,0.0278
747.0,0.0277
746.0,0.0275
745.0,0.0273
744.0,0.0272
743.0,0.0273
742.0,0.0275
741.0,0.0278
740.0,0.0281
739.0,0.0283
738.0,0.0284
737.0,0.0285
736.0,0.0286
735.0,0.0289
734.0,0.0298
733.0,0.0313
732.0,0.0331
731.0,0.0346
730.0,0.0351
729.0,0.0348
728.0,0.034
727.0,0.0332
726.0,0.0328
725.0,0.0327
724.0,0.033
723.0,0.0337
722.0,0.0348
721.0,0.0364
720.0,0.0377
719.0,0.0381
718.0,0.0371
717.0,0.0355
716.0,0.0338
715.0,0.0326
714.0,0.0319
713.0,0.0318
712.0,0.032
711.0,0.0323
710.0,0.0325
709.0,0.0327
708.0,0.0328
707.0,0.033
706.0,0.0333
705.0,0.0339
704.0,0.0351
703.0,0.037
702.0,0.0391
701.0,0.0405
700.0,0.0411
699.0,0.0409
698.0,0.0403
697.0,0.0397
696.0,0.0388
695.0,0.0375
694.0,0.0361
693.0,0.0349
692.0,0.034
691.0,0.0332
690.0,0.0321
689.0,0.031
688.0,0.0303
687.0,0.0302
686.0,0.0304
685.0,0.0303
684.0,0.0302
683.0,0.03
682.0,0.0299
681.0,0.0299
680.0,0.0297
679.0,0.0293
678.0,0.0288
677.0,0.0283
676.0,0.0283
675.0,0.0285
674.0,0.0288
673.0,0.0291
672.0,0.0294
671.0,0.0299
670.0,0.0305
669.0,0.0309
668.0,0.0312
667.0,0.0319
666.0,0.0317
665.0,0.0307
664.0,0.03
663.0,0.0298
662.0,0.03
661.0,0.0304
660.0,0.0307
659.0,0.0307
658.0,0.0301
657.0,0.0293
656.0,0.0285
655.0,0.0282
654.0,0.0283
653.0,0.0285
652.0,0.0287
651.0,0.0288
650.0,0.0287
649.0,0.0286
648.0,0.0286
647.0,0.0287
646.0,0.0291
645.0,0.0295
644.0,0.0298
643.0,0.0299
642.0,0.0301
641.0,0.0305
640.0,0.031
639.0,0.0316
638.0,0.0322
637.0,0.033
636.0,0.0337
635.0,0.034
634.0,0.0341
633.0,0.0339
632.0,0.0335
631.0,0.033
630.0,0.0327
629.0,0.0326
628.0,0.0326
627.0,0.0324
626.0,0.0323
625.0,0.0323
624.0,0.0323
623.0,0.0319
622.0,0.0313
621.0,0.0311
620.0,0.0313
619.0,0.0318
618.0,0.0323
617.0,0.0326
616.0,0.0329
615.0,0.0328
614.0,0.0325
613.0,0.0321
612.0,0.0321
611.0,0.0323
610.0,0.0325
609.0,0.0326
608.0,0.0326
607.0,0.0326
606.0,0.0327
605.0,0.0329
604.0,0.0329
603.0,0.0324
602.0,0.0315
601.0,0.0305
600.0,0.0301
