cm-1,A
4000.0,0.0048
3999.0,0.0047
3998.0,0.0047
3997.0,0.0047
3996.0,0.0047
3995.0,0.0047
3994.0,0.0047
3993.0,0.0047
3992.0,0.0047
3991.0,0.0048
3990.0,0.0048
3989.0,0.0048
3988.0,0.0048
3987.0,0.0048
3986.0,0.0048
3985.0,0.0048
3984.0,0.0049
3983.0,0.0049
3982.0,0.0049
3981.0,0.0049
3980.0,0.0049
3979.0,0.0049
3978.0,0.0048
3977.0,0.0048
3976.0,0.0048
3975.0,0.0048
3974.0,0.0049
3973.0,0.0049
3972.0,0.0048
3971.0,0.0048
3970.0,0.0049
3969.0,0.0049
3968.0,0.005
3967.0,0.005
3966.0,0.0049
3965.0,0.0049
3964.0,0.0049
3963.0,0.0048
3962.0,0.0048
3961.0,0.0048
3960.0,0.0048
3959.0,0.0048
3958.0,0.0048
3957.0,0.0048
3956.0,0.0048
3955.0,0.0049
3954.0,0.0049
3953.0,0.0049
3952.0,0.0048
3951.0,0.0048
3950.0,0.0047
3949.0,0.0047
3948.0,0.0048
3947.0,0.0049
3946.0,0.005
3945.0,0.0051
3944.0,0.0051
3943.0,0.0051
3942.0,0.005
3941.0,0.005
3940.0,0.005
3939.0,0.005
3938.0,0.005
3937.0,0.0049
3936.0,0.0049
3935.0,0.0048
3934.0,0.0047
3933.0,0.0046
3932.0,0.0046
3931.0,0.0047
3930.0,0.0048
3929.0,0.0049
3928.0,0.005
3927.0,0.005
3926.0,0.005
3925.0,0.005
3924.0,0.005
3923.0,0.005
3922.0,0.0049
3921.0,0.0049
3920.0,0.0048
3919.0,0.0048
3918.0,0.0048
3917.0,0.0049
3916.0,0.0049
3915.0,0.005
3914.0,0.005
3913.0,0.005
3912.0,0.0051
3911.0,0.0052
3910.0,0.0053
3909.0,0.0053
3908.0,0.0053
3907.0,0.0053
3906.0,0.0053
3905.0,0.0054
3904.0,0.0054
3903.0,0.0054
3902.0,0.0053
3901.0,0.0051
3900.0,0.005
3899.0,0.0051
3898.0,0.0051
3897.0,0.0052
3896.0,0.0052
3895.0,0.0051
3894.0,0.0051
3893.0,0.005
3892.0,0.005
3891.0,0.0051
3890.0,0.0052
3889.0,0.0052
3888.0,0.0053
3887.0,0.0053
3886.0,0.0054
3885.0,0.0054
3884.0,0.0055
3883.0,0.0054
3882.0,0.0053
3881.0,0.0051
3880.0,0.0051
3879.0,0.0051
3878.0,0.0052
3877.0,0.0052
3876.0,0.0052
3875.0,0.0053
3874.0,0.0054
3873.0,0.0055
3872.0,0.0055
3871.0,0.0054
3870.0,0.0053
3869.0,0.0053
3868.0,0.0053
3867.0,0.0053
3866.0,0.0052
3865.0,0.0052
3864.0,0.0052
3863.0,0.0052
3862.0,0.0053
3861.0,0.0053
3860.0,0.0054
3859.0,0.0054
3858.0,0.0055
3857.0,0.0055
3856.0,0.0056
3855.0,0.0057
3854.0,0.0056
3853.0,0.0056
3852.0,0.0057
3851.0,0.0058
3850.0,0.0057
3849.0,0.0057
3848.0,0.0056
3847.0,0.0056
3846.0,0.0056
3845.0,0.0056
3844.0,0.0056
3843.0,0.0055
3842.0,0.0055
3841.0,0.0055
3840.0,0.0056
3839.0,0.0057
3838.0,0.0057
3837.0,0.0058
3836.0,0.0058
3835.0,0.0058
3834.0,0.0057
3833.0,0.0057
3832.0,0.0056
3831.0,0.0056
3830.0,0.0057
3829.0,0.0056
3828.0,0.0056
3827.0,0.0055
3826.0,0.0054
3825.0,0.0055
3824.0,0.0055
3823.0,0.0056
3822.0,0.0056
3821.0,0.0055
3820.0,0.0055
3819.0,0.0055
3818.0,0.0055
3817.0,0.0055
3816.0,0.0056
3815.0,0.0057
3814.0,0.0057
3813.0,0.0057
3812.0,0.0056
3811.0,0.0055
3810.0,0.0054
3809.0,0.0054
3808.0,0.0054
3807.0,0.0056
3806.0,0.0058
3805.0,0.0059
3804.0,0.0059
3803.0,0.0058
3802.0,0.0058
3801.0,0.0057
3800.0,0.0057
3799.0,0.0057
3798.0,0.0057
3797.0,0.0056
3796.0,0.0056
3795.0,0.0056
3794.0,0.0055
3793.0,0.0054
3792.0,0.0054
3791.0,0.0054
3790.0,0.0054
3789.0,0.0054
3788.0,0.0055
3787.0,0.0055
3786.0,0.0055
3785.0,0.0054
3784.0,0.0055
3783.0,0.0056
3782.0,0.0056
3781.0,0.0057
3780.0,0.0056
3779.0,0.0055
3778.0,0.0055
3777.0,0.0055
3776.0,0.0055
3775.0,0.0055
3774.0,0.0055
3773.0,0.0055
3772.0,0.0055
3771.0,0.0055
3770.0,0.0056
3769.0,0.0057
3768.0,0.0058
3767.0,0.0059
3766.0,0.0059
3765.0,0.0058
3764.0,0.0058
3763.0,0.0057
3762.0,0.0057
3761.0,0.0057
3760.0,0.0058
3759.0,0.0059
3758.0,0.0059
3757.0,0.0058
3756.0,0.0058
3755.0,0.0057
3754.0,0.0058
3753.0,0.006
3752.0,0.0063
3751.0,0.0064
3750.0,0.0063
3749.0,0.0061
3748.0,0.0059
3747.0,0.0057
3746.0,0.0058
3745.0,0.0061
3744.0,0.0064
3743.0,0.0066
3742.0,0.0067
3741.0,0.0066
3740.0,0.0067
3739.0,0.0069
3738.0,0.0073
3737.0,0.0076
3736.0,0.0078
3735.0,0.0077
3734.0,0.0075
3733.0,0.0073
3732.0,0.0072
3731.0,0.0072
3730.0,0.0072
3729.0,0.0072
3728.0,0.0072
3727.0,0.0072
3726.0,0.0073
3725.0,0.0074
3724.0,0.0074
3723.0,0.0073
3722.0,0.0072
3721.0,0.007
3720.0,0.0068
3719.0,0.0066
3718.0,0.0065
3717.0,0.0064
3716.0,0.0063
3715.0,0.0063
3714.0,0.0064
3713.0,0.0066
3712.0,0.0068
3711.0,0.007
3710.0,0.0071
3709.0,0.007
3708.0,0.007
3707.0,0.0069
3706.0,0.0068
3705.0,0.0067
3704.0,0.0066
3703.0,0.0064
3702.0,0.0064
3701.0,0.0065
3700.0,0.0066
3699.0,0.0067
3698.0,0.0067
3697.0,0.0067
3696.0,0.0068
3695.0,0.0068
3694.0,0.0069
3693.0,0.0069
3692.0,0.0069
3691.0,0.0069
3690.0,0.0068
3689.0,0.0066
3688.0,0.0066
3687.0,0.0066
3686.0,0.0066
3685.0,0.0065
3684.0,0.0064
3683.0,0.0064
3682.0,0.0064
3681.0,0.0065
3680.0,0.0065
3679.0,0.0066
3678.0,0.0067
3677.0,0.0067
3676.0,0.0067
3675.0,0.0066
3674.0,0.0067
3673.0,0.0067
3672.0,0.0066
3671.0,0.0065
3670.0,0.0064
3669.0,0.0063
3668.0,0.0063
3667.0,0.0064
3666.0,0.0065
3665.0,0.0065
3664.0,0.0065
3663.0,0.0065
3662.0,0.0065
3661.0,0.0065
3660.0,0.0065
3659.0,0.0066
3658.0,0.0067
3657.0,0.0068
3656.0,0.0068
3655.0,0.0068
3654.0,0.0068
3653.0,0.0068
3652.0,0.0068
3651.0,0.0069
3650.0,0.0069
3649.0,0.0068
3648.0,0.0067
3647.0,0.0069
3646.0,0.007
3645.0,0.0072
3644.0,0.0073
3643.0,0.0073
3642.0,0.0073
3641.0,0.0074
3640.0,0.0076
3639.0,0.0077
3638.0,0.0078
3637.0,0.0079
3636.0,0.0079
3635.0,0.0081
3634.0,0.0082
3633.0,0.0084
3632.0,0.0085
3631.0,0.0086
3630.0,0.0088
3629.0,0.0089
3628.0,0.009
3627.0,0.009
3626.0,0.009
3625.0,0.009
3624.0,0.0089
3623.0,0.0088
3622.0,0.0086
3621.0,0.0084
3620.0,0.0083
3619.0,0.0084
3618.0,0.0086
3617.0,0.0088
3616.0,0.0088
3615.0,0.0087
3614.0,0.0087
3613.0,0.0088
3612.0,0.0091
3611.0,0.0094
3610.0,0.0096
3609.0,0.0097
3608.0,0.0096
3607.0,0.0096
3606.0,0.0095
3605.0,0.0095
3604.0,0.0095
3603.0,0.0096
3602.0,0.0097
3601.0,0.0098
3600.0,0.0099
3599.0,0.01
3598.0,0.0101
3597.0,0.0102
3596.0,0.0103
3595.0,0.0105
3594.0,0.0106
3593.0,0.0106
3592.0,0.0106
3591.0,0.0106
3590.0,0.0106
3589.0,0.0106
3588.0,0.0105
3587.0,0.0104
3586.0,0.0104
3585.0,0.0103
3584.0,0.0103
3583.0,0.0103
3582.0,0.0104
3581.0,0.0104
3580.0,0.0104
3579.0,0.0104
3578.0,0.0106
3577.0,0.0107
3576.0,0.0109
3575.0,0.011
3574.0,0.011
3573.0,0.011
3572.0,0.011
3571.0,0.0111
3570.0,0.0111
3569.0,0.0112
3568.0,0.0112
3567.0,0.0112
3566.0,0.0112
3565.0,0.0111
3564.0,0.0112
3563.0,0.0112
3562.0,0.0113
3561.0,0.0113
3560.0,0.0114
3559.0,0.0115
3558.0,0.0116
3557.0,0.0118
3556.0,0.0119
3555.0,0.012
3554.0,0.0121
3553.0,0.0122
3552.0,0.0122
3551.0,0.0122
3550.0,0.0122
3549.0,0.0123
3548.0,0.0123
3547.0,0.0124
3546.0,0.0124
3545.0,0.0124
3544.0,0.0124
3543.0,0.0125
3542.0,0.0126
3541.0,0.0126
3540.0,0.0127
3539.0,0.0126
3538.0,0.0125
3537.0,0.0125
3536.0,0.0125
3535.0,0.0126
3534.0,0.0128
3533.0,0.013
3532.0,0.0132
3531.0,0.0133
3530.0,0.0134
3529.0,0.0134
3528.0,0.0135
3527.0,0.0136
3526.0,0.0137
3525.0,0.0138
3524.0,0.0138
3523.0,0.0138
3522.0,0.0138
3521.0,0.0138
3520.0,0.0139
3519.0,0.0139
3518.0,0.014
3517.0,0.0141
3516.0,0.0143
3515.0,0.0143
3514.0,0.0144
3513.0,0.0144
3512.0,0.0144
3511.0,0.0145
3510.0,0.0146
3509.0,0.0147
3508.0,0.0148
3507.0,0.0149
3506.0,0.015
3505.0,0.0151
3504.0,0.0151
3503.0,0.0151
3502.0,0.0151
3501.0,0.0151
3500.0,0.0151
3499.0,0.0152
3498.0,0.0153
3497.0,0.0154
3496.0,0.0155
3495.0,0.0156
3494.0,0.0157
3493.0,0.0158
3492.0,0.0159
3491.0,0.016
3490.0,0.0162
3489.0,0.0163
3488.0,0.0165
3487.0,0.0165
3486.0,0.0165
3485.0,0.0164
3484.0,0.0164
3483.0,0.0164
3482.0,0.0165
3481.0,0.0167
3480.0,0.0168
3479.0,0.0168
3478.0,0.0169
3477.0,0.0169
3476.0,0.017
3475.0,0.0171
3474.0,0.0172
3473.0,0.0173
3472.0,0.0173
3471.0,0.0173
3470.0,0.0173
3469.0,0.0173
3468.0,0.0174
3467.0,0.0174
3466.0,0.0175
3465.0,0.0176
3464.0,0.0177
3463.0,0.0178
3462.0,0.018
3461.0,0.0182
3460.0,0.0183
3459.0,0.0183
3458.0,0.0184
3457.0,0.0185
3456.0,0.0186
3455.0,0.0186
3454.0,0.0187
3453.0,0.0188
3452.0,0.0189
3451.0,0.019
3450.0,0.019
3449.0,0.0191
3448.0,0.0191
3447.0,0.0191
3446.0,0.0191
3445.0,0.0191
3444.0,0.0192
3443.0,0.0193
3442.0,0.0193
3441.0,0.0194
3440.0,0.0195
3439.0,0.0196
3438.0,0.0197
3437.0,0.0197
3436.0,0.0197
3435.0,0.0198
3434.0,0.0199
3433.0,0.02
3432.0,0.0201
3431.0,0.0202
3430.0,0.0203
3429.0,0.0204
3428.0,0.0206
3427.0,0.0207
3426.0,0.0209
3425.0,0.021
3424.0,0.0211
3423.0,0.0211
3422.0,0.0212
3421.0,0.0213
3420.0,0.0213
3419.0,0.0214
3418.0,0.0214
3417.0,0.0214
3416.0,0.0214
3415.0,0.0214
3414.0,0.0215
3413.0,0.0216
3412.0,0.0216
3411.0,0.0216
3410.0,0.0216
3409.0,0.0216
3408.0,0.0216
3407.0,0.0217
3406.0,0.0219
3405.0,0.022
3404.0,0.0221
3403.0,0.0221
3402.0,0.022
3401.0,0.022
3400.0,0.022
3399.0,0.0221
3398.0,0.0222
3397.0,0.0223
3396.0,0.0223
3395.0,0.0223
3394.0,0.0223
3393.0,0.0223
3392.0,0.0225
3391.0,0.0226
3390.0,0.0227
3389.0,0.0228
3388.0,0.0228
3387.0,0.0227
3386.0,0.0226
3385.0,0.0225
3384.0,0.0225
3383.0,0.0224
3382.0,0.0224
3381.0,0.0224
3380.0,0.0225
3379.0,0.0225
3378.0,0.0226
3377.0,0.0227
3376.0,0.0227
3375.0,0.0228
3374.0,0.0228
3373.0,0.0227
3372.0,0.0227
3371.0,0.0226
3370.0,0.0225
3369.0,0.0225
3368.0,0.0224
3367.0,0.0224
3366.0,0.0224
3365.0,0.0224
3364.0,0.0224
3363.0,0.0223
3362.0,0.0222
3361.0,0.0221
3360.0,0.0221
3359.0,0.0221
3358.0,0.0222
3357.0,0.0222
3356.0,0.0222
3355.0,0.0222
3354.0,0.0222
3353.0,0.0221
3352.0,0.0221
3351.0,0.022
3350.0,0.0219
3349.0,0.0219
3348.0,0.0219
3347.0,0.0219
3346.0,0.0219
3345.0,0.0219
3344.0,0.022
3343.0,0.0219
3342.0,0.0219
3341.0,0.0217
3340.0,0.0217
3339.0,0.0216
3338.0,0.0216
3337.0,0.0217
3336.0,0.0216
3335.0,0.0215
3334.0,0.0215
3333.0,0.0215
3332.0,0.0215
3331.0,0.0216
3330.0,0.0216
3329.0,0.0215
3328.0,0.0214
3327.0,0.0214
3326.0,0.0213
3325.0,0.0212
3324.0,0.0211
3323.0,0.021
3322.0,0.021
3321.0,0.021
3320.0,0.021
3319.0,0.0209
3318.0,0.0208
3317.0,0.0207
3316.0,0.0208
3315.0,0.0209
3314.0,0.021
3313.0,0.0211
3312.0,0.0211
3311.0,0.021
3310.0,0.021
3309.0,0.021
3308.0,0.021
3307.0,0.021
3306.0,0.0209
3305.0,0.0208
3304.0,0.0207
3303.0,0.0206
3302.0,0.0207
3301.0,0.0207
3300.0,0.0207
3299.0,0.0206
3298.0,0.0205
3297.0,0.0204
3296.0,0.0204
3295.0,0.0205
3294.0,0.0206
3293.0,0.0206
3292.0,0.0206
3291.0,0.0205
3290.0,0.0205
3289.0,0.0205
3288.0,0.0204
3287.0,0.0203
3286.0,0.0201
3285.0,0.0201
3284.0,0.0201
3283.0,0.0202
3282.0,0.0202
3281.0,0.0202
3280.0,0.0201
3279.0,0.02
3278.0,0.0199
3277.0,0.0198
3276.0,0.0198
3275.0,0.0198
3274.0,0.0198
3273.0,0.0198
3272.0,0.0198
3271.0,0.0199
3270.0,0.0199
3269.0,0.02
3268.0,0.02
3267.0,0.02
3266.0,0.02
3265.0,0.02
3264.0,0.02
3263.0,0.02
3262.0,0.0199
3261.0,0.0199
3260.0,0.0198
3259.0,0.0199
3258.0,0.02
3257.0,0.02
3256.0,0.02
3255.0,0.0199
3254.0,0.0199
3253.0,0.0198
3252.0,0.0198
3251.0,0.0198
3250.0,0.0197
3249.0,0.0197
3248.0,0.0196
3247.0,0.0196
3246.0,0.0195
3245.0,0.0195
3244.0,0.0194
3243.0,0.0194
3242.0,0.0193
3241.0,0.0194
3240.0,0.0194
3239.0,0.0194
3238.0,0.0194
3237.0,0.0194
3236.0,0.0193
3235.0,0.0192
3234.0,0.0191
3233.0,0.0192
3232.0,0.0192
3231.0,0.0193
3230.0,0.0193
3229.0,0.0192
3228.0,0.019
3227.0,0.0189
3226.0,0.0188
3225.0,0.0188
3224.0,0.0188
3223.0,0.0187
3222.0,0.0187
3221.0,0.0186
3220.0,0.0186
3219.0,0.0186
3218.0,0.0186
3217.0,0.0187
3216.0,0.0187
3215.0,0.0187
3214.0,0.0187
3213.0,0.0186
3212.0,0.0185
3211.0,0.0184
3210.0,0.0183
3209.0,0.0181
3208.0,0.018
3207.0,0.0179
3206.0,0.0178
3205.0,0.0177
3204.0,0.0178
3203.0,0.0179
3202.0,0.0179
3201.0,0.0179
3200.0,0.0178
3199.0,0.0177
3198.0,0.0176
3197.0,0.0175
3196.0,0.0175
3195.0,0.0175
3194.0,0.0176
3193.0,0.0176
3192.0,0.0175
3191.0,0.0175
3190.0,0.0174
3189.0,0.0174
3188.0,0.0173
3187.0,0.0173
3186.0,0.0172
3185.0,0.0172
3184.0,0.0171
3183.0,0.0171
3182.0,0.0171
3181.0,0.0171
3180.0,0.017
3179.0,0.017
3178.0,0.0169
3177.0,0.0169
3176.0,0.0168
3175.0,0.0168
3174.0,0.0168
3173.0,0.0168
3172.0,0.0168
3171.0,0.0168
3170.0,0.0167
3169.0,0.0167
3168.0,0.0167
3167.0,0.0167
3166.0,0.0166
3165.0,0.0165
3164.0,0.0164
3163.0,0.0163
3162.0,0.0161
3161.0,0.016
3160.0,0.0159
3159.0,0.0159
3158.0,0.0158
3157.0,0.0158
3156.0,0.0158
3155.0,0.0158
3154.0,0.0157
3153.0,0.0156
3152.0,0.0156
3151.0,0.0155
3150.0,0.0155
3149.0,0.0155
3148.0,0.0154
3147.0,0.0154
3146.0,0.0154
3145.0,0.0154
3144.0,0.0154
3143.0,0.0153
3142.0,0.0152
3141.0,0.0152
3140.0,0.0151
3139.0,0.0151
3138.0,0.015
3137.0,0.015
3136.0,0.0149
3135.0,0.0149
3134.0,0.0148
3133.0,0.0148
3132.0,0.0148
3131.0,0.0149
3130.0,0.0149
3129.0,0.0149
3128.0,0.0148
3127.0,0.0146
3126.0,0.0145
3125.0,0.0145
3124.0,0.0144
3123.0,0.0145
3122.0,0.0145
3121.0,0.0144
3120.0,0.0144
3119.0,0.0144
3118.0,0.0145
3117.0,0.0145
3116.0,0.0145
3115.0,0.0145
3114.0,0.0144
3113.0,0.0144
3112.0,0.0143
3111.0,0.0143
3110.0,0.0143
3109.0,0.0144
3108.0,0.0144
3107.0,0.0144
3106.0,0.0143
3105.0,0.0143
3104.0,0.0143
3103.0,0.0143
3102.0,0.0143
3101.0,0.0142
3100.0,0.0142
3099.0,0.0141
3098.0,0.014
3097.0,0.014
3096.0,0.0139
3095.0,0.014
3094.0,0.014
3093.0,0.0141
3092.0,0.0142
3091.0,0.0142
3090.0,0.0142
3089.0,0.0143
3088.0,0.0144
3087.0,0.0146
3086.0,0.0148
3085.0,0.0151
3084.0,0.0153
3083.0,0.0155
3082.0,0.0156
3081.0,0.0156
3080.0,0.0155
3079.0,0.0154
3078.0,0.0152
3077.0,0.015
3076.0,0.0148
3075.0,0.0147
3074.0,0.0145
3073.0,0.0144
3072.0,0.0142
3071.0,0.0142
3070.0,0.0142
3069.0,0.0143
3068.0,0.0145
3067.0,0.0147
3066.0,0.0149
3065.0,0.0152
3064.0,0.0155
3063.0,0.0158
3062.0,0.0161
3061.0,0.0162
3060.0,0.0163
3059.0,0.0164
3058.0,0.0164
3057.0,0.0162
3056.0,0.016
3055.0,0.0157
3054.0,0.0154
3053.0,0.0151
3052.0,0.0149
3051.0,0.0148
3050.0,0.0146
3049.0,0.0144
3048.0,0.0143
3047.0,0.0142
3046.0,0.0141
3045.0,0.014
3044.0,0.0138
3043.0,0.0138
3042.0,0.0138
3041.0,0.0138
3040.0,0.0139
3039.0,0.014
3038.0,0.0141
3037.0,0.0143
3036.0,0.0146
3035.0,0.0149
3034.0,0.0153
3033.0,0.0157
3032.0,0.0163
3031.0,0.0169
3030.0,0.0177
3029.0,0.0184
3028.0,0.0191
3027.0,0.0197
3026.0,0.0201
3025.0,0.0203
3024.0,0.0202
3023.0,0.0198
3022.0,0.0193
3021.0,0.0187
3020.0,0.0181
3019.0,0.0174
3018.0,0.0169
3017.0,0.0165
3016.0,0.0161
3015.0,0.0158
3014.0,0.0155
3013.0,0.0152
3012.0,0.0149
3011.0,0.0147
3010.0,0.0145
3009.0,0.0143
3008.0,0.0143
3007.0,0.0143
3006.0,0.0144
3005.0,0.0144
3004.0,0.0143
3003.0,0.0142
3002.0,0.0142
3001.0,0.0143
3000.0,0.0143
2999.0,0.0143
2998.0,0.0143
2997.0,0.0142
2996.0,0.014
2995.0,0.0138
2994.0,0.0137
2993.0,0.0135
2992.0,0.0133
2991.0,0.0132
2990.0,0.0131
2989.0,0.0131
2988.0,0.0131
2987.0,0.013
2986.0,0.0129
2985.0,0.0128
2984.0,0.0128
2983.0,0.0128
2982.0,0.0128
2981.0,0.0128
2980.0,0.0128
2979.0,0.0128
2978.0,0.0128
2977.0,0.0127
2976.0,0.0127
2975.0,0.0126
2974.0,0.0126
2973.0,0.0125
2972.0,0.0125
2971.0,0.0125
2970.0,0.0125
2969.0,0.0125
2968.0,0.0125
2967.0,0.0125
2966.0,0.0126
2965.0,0.0126
2964.0,0.0127
2963.0,0.0129
2962.0,0.013
2961.0,0.0131
2960.0,0.0132
2959.0,0.0133
2958.0,0.0133
2957.0,0.0132
2956.0,0.0132
2955.0,0.0132
2954.0,0.0133
2953.0,0.0133
2952.0,0.0134
2951.0,0.0135
2950.0,0.0136
2949.0,0.0137
2948.0,0.0138
2947.0,0.0139
2946.0,0.0141
2945.0,0.0143
2944.0,0.0145
2943.0,0.0148
2942.0,0.015
2941.0,0.0153
2940.0,0.0156
2939.0,0.0159
2938.0,0.0163
2937.0,0.0167
2936.0,0.0171
2935.0,0.0176
2934.0,0.0182
2933.0,0.0188
2932.0,0.0193
2931.0,0.0198
2930.0,0.0202
2929.0,0.0205
2928.0,0.0209
2927.0,0.0214
2926.0,0.0218
2925.0,0.0222
2924.0,0.0225
2923.0,0.0228
2922.0,0.0229
2921.0,0.023
2920.0,0.0231
2919.0,0.0231
2918.0,0.0231
2917.0,0.023
2916.0,0.0228
2915.0,0.0225
2914.0,0.0222
2913.0,0.022
2912.0,0.0218
2911.0,0.0216
2910.0,0.0214
2909.0,0.0212
2908.0,0.0209
2907.0,0.0207
2906.0,0.0204
2905.0,0.0201
2904.0,0.0199
2903.0,0.0197
2902.0,0.0195
2901.0,0.0193
2900.0,0.019
2899.0,0.0187
2898.0,0.0184
2897.0,0.0182
2896.0,0.018
2895.0,0.0178
2894.0,0.0176
2893.0,0.0174
2892.0,0.0173
2891.0,0.0172
2890.0,0.0171
2889.0,0.017
2888.0,0.0169
2887.0,0.0168
2886.0,0.0167
2885.0,0.0166
2884.0,0.0164
2883.0,0.0163
2882.0,0.0162
2881.0,0.016
2880.0,0.0159
2879.0,0.0158
2878.0,0.0158
2877.0,0.0157
2876.0,0.0157
2875.0,0.0157
2874.0,0.0157
2873.0,0.0156
2872.0,0.0156
2871.0,0.0156
2870.0,0.0155
2869.0,0.0155
2868.0,0.0155
2867.0,0.0155
2866.0,0.0156
2865.0,0.0157
2864.0,0.0158
2863.0,0.0159
2862.0,0.016
2861.0,0.0161
2860.0,0.0163
2859.0,0.0164
2858.0,0.0166
2857.0,0.0168
2856.0,0.017
2855.0,0.0172
2854.0,0.0174
2853.0,0.0176
2852.0,0.0177
2851.0,0.0178
2850.0,0.0178
2849.0,0.0178
2848.0,0.0177
2847.0,0.0176
2846.0,0.0175
2845.0,0.0173
2844.0,0.0172
2843.0,0.017
2842.0,0.0168
2841.0,0.0165
2840.0,0.0162
2839.0,0.016
2838.0,0.0158
2837.0,0.0156
2836.0,0.0153
2835.0,0.0151
2834.0,0.0149
2833.0,0.0148
2832.0,0.0147
2831.0,0.0147
2830.0,0.0146
2829.0,0.0145
2828.0,0.0145
2827.0,0.0144
2826.0,0.0143
2825.0,0.0142
2824.0,0.0142
2823.0,0.0141
2822.0,0.0141
2821.0,0.0141
2820.0,0.0141
2819.0,0.014
2818.0,0.014
2817.0,0.014
2816.0,0.014
2815.0,0.014
2814.0,0.0139
2813.0,0.0139
2812.0,0.0138
2811.0,0.0138
2810.0,0.0138
2809.0,0.0138
2808.0,0.0139
2807.0,0.0139
2806.0,0.0138
2805.0,0.0137
2804.0,0.0137
2803.0,0.0136
2802.0,0.0136
2801.0,0.0137
2800.0,0.0137
2799.0,0.0137
2798.0,0.0137
2797.0,0.0137
2796.0,0.0137
2795.0,0.0136
2794.0,0.0136
2793.0,0.0136
2792.0,0.0136
2791.0,0.0136
2790.0,0.0136
2789.0,0.0136
2788.0,0.0136
2787.0,0.0135
2786.0,0.0134
2785.0,0.0134
2784.0,0.0134
2783.0,0.0134
2782.0,0.0134
2781.0,0.0134
2780.0,0.0134
2779.0,0.0134
2778.0,0.0134
2777.0,0.0134
2776.0,0.0134
2775.0,0.0133
2774.0,0.0133
2773.0,0.0133
2772.0,0.0134
2771.0,0.0134
2770.0,0.0134
2769.0,0.0133
2768.0,0.0133
2767.0,0.0133
2766.0,0.0133
2765.0,0.0133
2764.0,0.0133
2763.0,0.0133
2762.0,0.0133
2761.0,0.0133
2760.0,0.0133
2759.0,0.0133
2758.0,0.0133
2757.0,0.0132
2756.0,0.0132
2755.0,0.0132
2754.0,0.0132
2753.0,0.0132
2752.0,0.0132
2751.0,0.0132
2750.0,0.0132
2749.0,0.0131
2748.0,0.0131
2747.0,0.0131
2746.0,0.0132
2745.0,0.0133
2744.0,0.0133
2743.0,0.0134
2742.0,0.0134
2741.0,0.0134
2740.0,0.0133
2739.0,0.0133
2738.0,0.0133
2737.0,0.0133
2736.0,0.0132
2735.0,0.0132
2734.0,0.0132
2733.0,0.0131
2732.0,0.0131
2731.0,0.0131
2730.0,0.0131
2729.0,0.0131
2728.0,0.0131
2727.0,0.0131
2726.0,0.0131
2725.0,0.0132
2724.0,0.0132
2723.0,0.0133
2722.0,0.0133
2721.0,0.0134
2720.0,0.0134
2719.0,0.0133
2718.0,0.0132
2717.0,0.0132
2716.0,0.0131
2715.0,0.0132
2714.0,0.0132
2713.0,0.0133
2712.0,0.0133
2711.0,0.0133
2710.0,0.0132
2709.0,0.0132
2708.0,0.0132
2707.0,0.0132
2706.0,0.0132
2705.0,0.0131
2704.0,0.0131
2703.0,0.013
2702.0,0.013
2701.0,0.013
2700.0,0.0131
2699.0,0.0131
2698.0,0.0132
2697.0,0.0133
2696.0,0.0133
2695.0,0.0133
2694.0,0.0133
2693.0,0.0132
2692.0,0.0132
2691.0,0.0132
2690.0,0.0132
2689.0,0.0132
2688.0,0.0133
2687.0,0.0133
2686.0,0.0133
2685.0,0.0133
2684.0,0.0133
2683.0,0.0133
2682.0,0.0133
2681.0,0.0133
2680.0,0.0133
2679.0,0.0134
2678.0,0.0134
2677.0,0.0133
2676.0,0.0133
2675.0,0.0133
2674.0,0.0132
2673.0,0.0132
2672.0,0.0132
2671.0,0.0133
2670.0,0.0133
2669.0,0.0133
2668.0,0.0133
2667.0,0.0133
2666.0,0.0133
2665.0,0.0133
2664.0,0.0133
2663.0,0.0132
2662.0,0.0131
2661.0,0.0131
2660.0,0.0132
2659.0,0.0132
2658.0,0.0133
2657.0,0.0133
2656.0,0.0134
2655.0,0.0134
2654.0,0.0133
2653.0,0.0133
2652.0,0.0132
2651.0,0.0132
2650.0,0.0132
2649.0,0.0132
2648.0,0.0132
2647.0,0.0132
2646.0,0.0132
2645.0,0.0132
2644.0,0.0133
2643.0,0.0134
2642.0,0.0134
2641.0,0.0133
2640.0,0.0133
2639.0,0.0133
2638.0,0.0133
2637.0,0.0133
2636.0,0.0134
2635.0,0.0135
2634.0,0.0135
2633.0,0.0135
2632.0,0.0135
2631.0,0.0135
2630.0,0.0134
2629.0,0.0134
2628.0,0.0134
2627.0,0.0133
2626.0,0.0133
2625.0,0.0133
2624.0,0.0134
2623.0,0.0134
2622.0,0.0134
2621.0,0.0134
2620.0,0.0133
2619.0,0.0133
2618.0,0.0134
2617.0,0.0134
2616.0,0.0134
2615.0,0.0135
2614.0,0.0135
2613.0,0.0135
2612.0,0.0136
2611.0,0.0135
2610.0,0.0135
2609.0,0.0135
2608.0,0.0134
2607.0,0.0134
2606.0,0.0133
2605.0,0.0134
2604.0,0.0134
2603.0,0.0134
2602.0,0.0134
2601.0,0.0134
2600.0,0.0135
2599.0,0.0135
2598.0,0.0135
2597.0,0.0135
2596.0,0.0135
2595.0,0.0135
2594.0,0.0135
2593.0,0.0134
2592.0,0.0134
2591.0,0.0133
2590.0,0.0133
2589.0,0.0134
2588.0,0.0134
2587.0,0.0135
2586.0,0.0134
2585.0,0.0134
2584.0,0.0133
2583.0,0.0133
2582.0,0.0133
2581.0,0.0134
2580.0,0.0135
2579.0,0.0135
2578.0,0.0135
2577.0,0.0135
2576.0,0.0135
2575.0,0.0134
2574.0,0.0134
2573.0,0.0134
2572.0,0.0133
2571.0,0.0133
2570.0,0.0133
2569.0,0.0133
2568.0,0.0134
2567.0,0.0134
2566.0,0.0134
2565.0,0.0134
2564.0,0.0134
2563.0,0.0134
2562.0,0.0134
2561.0,0.0134
2560.0,0.0134
2559.0,0.0134
2558.0,0.0135
2557.0,0.0135
2556.0,0.0135
2555.0,0.0135
2554.0,0.0135
2553.0,0.0135
2552.0,0.0135
2551.0,0.0135
2550.0,0.0135
2549.0,0.0135
2548.0,0.0136
2547.0,0.0136
2546.0,0.0137
2545.0,0.0136
2544.0,0.0136
2543.0,0.0136
2542.0,0.0136
2541.0,0.0135
2540.0,0.0135
2539.0,0.0135
2538.0,0.0135
2537.0,0.0135
2536.0,0.0135
2535.0,0.0136
2534.0,0.0137
2533.0,0.0137
2532.0,0.0137
2531.0,0.0136
2530.0,0.0136
2529.0,0.0136
2528.0,0.0136
2527.0,0.0136
2526.0,0.0135
2525.0,0.0136
2524.0,0.0136
2523.0,0.0136
2522.0,0.0136
2521.0,0.0136
2520.0,0.0137
2519.0,0.0137
2518.0,0.0137
2517.0,0.0137
2516.0,0.0138
2515.0,0.0138
2514.0,0.0138
2513.0,0.0138
2512.0,0.0137
2511.0,0.0137
2510.0,0.0137
2509.0,0.0137
2508.0,0.0137
2507.0,0.0137
2506.0,0.0137
2505.0,0.0137
2504.0,0.0137
2503.0,0.0137
2502.0,0.0137
2501.0,0.0137
2500.0,0.0137
2499.0,0.0138
2498.0,0.0138
2497.0,0.0137
2496.0,0.0137
2495.0,0.0137
2494.0,0.0137
2493.0,0.0138
2492.0,0.0138
2491.0,0.0138
2490.0,0.0138
2489.0,0.0137
2488.0,0.0137
2487.0,0.0138
2486.0,0.0138
2485.0,0.0138
2484.0,0.0138
2483.0,0.0138
2482.0,0.0138
2481.0,0.0139
2480.0,0.0139
2479.0,0.0139
2478.0,0.0139
2477.0,0.0139
2476.0,0.0138
2475.0,0.0138
2474.0,0.0137
2473.0,0.0136
2472.0,0.0136
2471.0,0.0137
2470.0,0.0137
2469.0,0.0138
2468.0,0.0139
2467.0,0.0139
2466.0,0.0139
2465.0,0.0139
2464.0,0.0139
2463.0,0.0139
2462.0,0.0139
2461.0,0.0139
2460.0,0.0139
2459.0,0.0138
2458.0,0.0138
2457.0,0.0139
2456.0,0.0139
2455.0,0.0139
2454.0,0.0139
2453.0,0.0139
2452.0,0.0138
2451.0,0.0138
2450.0,0.0138
2449.0,0.0138
2448.0,0.0138
2447.0,0.0138
2446.0,0.0138
2445.0,0.0138
2444.0,0.0138
2443.0,0.0138
2442.0,0.0138
2441.0,0.0139
2440.0,0.0139
2439.0,0.0139
2438.0,0.014
2437.0,0.014
2436.0,0.0141
2435.0,0.0141
2434.0,0.0141
2433.0,0.0141
2432.0,0.014
2431.0,0.014
2430.0,0.0139
2429.0,0.0139
2428.0,0.0138
2427.0,0.0138
2426.0,0.0138
2425.0,0.0139
2424.0,0.0139
2423.0,0.014
2422.0,0.014
2421.0,0.014
2420.0,0.0141
2419.0,0.014
2418.0,0.014
2417.0,0.014
2416.0,0.0141
2415.0,0.0141
2414.0,0.0141
2413.0,0.0141
2412.0,0.0141
2411.0,0.0141
2410.0,0.0141
2409.0,0.0141
2408.0,0.0141
2407.0,0.0141
2406.0,0.0141
2405.0,0.0141
2404.0,0.0142
2403.0,0.0142
2402.0,0.0143
2401.0,0.0143
2400.0,0.0142
2399.0,0.0142
2398.0,0.0142
2397.0,0.0143
2396.0,0.0143
2395.0,0.0143
2394.0,0.0142
2393.0,0.0142
2392.0,0.0142
2391.0,0.0143
2390.0,0.0144
2389.0,0.0145
2388.0,0.0147
2387.0,0.0149
2386.0,0.0151
2385.0,0.0153
2384.0,0.0154
2383.0,0.0154
2382.0,0.0152
2381.0,0.0148
2380.0,0.0143
2379.0,0.0139
2378.0,0.0136
2377.0,0.0137
2376.0,0.0141
2375.0,0.0147
2374.0,0.0155
2373.0,0.016
2372.0,0.0162
2371.0,0.0164
2370.0,0.0166
2369.0,0.0167
2368.0,0.0167
2367.0,0.0167
2366.0,0.0171
2365.0,0.0181
2364.0,0.0195
2363.0,0.0204
2362.0,0.0201
2361.0,0.0191
2360.0,0.0184
2359.0,0.0188
2358.0,0.0195
2357.0,0.0197
2356.0,0.0199
2355.0,0.0205
2354.0,0.0209
2353.0,0.0204
2352.0,0.0195
2351.0,0.0187
2350.0,0.0183
2349.0,0.0179
2348.0,0.0175
2347.0,0.0174
2346.0,0.0183
2345.0,0.0199
2344.0,0.0211
2343.0,0.0213
2342.0,0.0202
2341.0,0.0184
2340.0,0.0173
2339.0,0.0174
2338.0,0.018
2337.0,0.0183
2336.0,0.0182
2335.0,0.0178
2334.0,0.0173
2333.0,0.0168
2332.0,0.0167
2331.0,0.0172
2330.0,0.018
2329.0,0.0189
2328.0,0.0197
2327.0,0.0199
2326.0,0.0197
2325.0,0.019
2324.0,0.0182
2323.0,0.0175
2322.0,0.0172
2321.0,0.0172
2320.0,0.0175
2319.0,0.0179
2318.0,0.0181
2317.0,0.018
2316.0,0.0178
2315.0,0.0176
2314.0,0.0176
2313.0,0.0179
2312.0,0.0181
2311.0,0.0183
2310.0,0.0183
2309.0,0.0182
2308.0,0.018
2307.0,0.0178
2306.0,0.0177
2305.0,0.0176
2304.0,0.0176
2303.0,0.0178
2302.0,0.0178
2301.0,0.0179
2300.0,0.0178
2299.0,0.0178
2298.0,0.0177
2297.0,0.0176
2296.0,0.0175
2295.0,0.0174
2294.0,0.0172
2293.0,0.0171
2292.0,0.0169
2291.0,0.0168
2290.0,0.0167
2289.0,0.0166
2288.0,0.0163
2287.0,0.016
2286.0,0.0158
2285.0,0.0157
2284.0,0.0156
2283.0,0.0156
2282.0,0.0156
2281.0,0.0156
2280.0,0.0156
2279.0,0.0155
2278.0,0.0155
2277.0,0.0155
2276.0,0.0155
2275.0,0.0155
2274.0,0.0155
2273.0,0.0155
2272.0,0.0155
2271.0,0.0156
2270.0,0.0156
2269.0,0.0157
2268.0,0.0158
2267.0,0.0158
2266.0,0.0157
2265.0,0.0157
2264.0,0.0156
2263.0,0.0156
2262.0,0.0156
2261.0,0.0155
2260.0,0.0154
2259.0,0.0154
2258.0,0.0154
2257.0,0.0155
2256.0,0.0155
2255.0,0.0156
2254.0,0.0155
2253.0,0.0155
2252.0,0.0154
2251.0,0.0154
2250.0,0.0154
2249.0,0.0153
2248.0,0.0153
2247.0,0.0152
2246.0,0.0152
2245.0,0.0152
2244.0,0.0153
2243.0,0.0152
2242.0,0.0152
2241.0,0.0152
2240.0,0.0151
2239.0,0.0151
2238.0,0.0151
2237.0,0.0151
2236.0,0.0151
2235.0,0.0151
2234.0,0.0151
2233.0,0.0152
2232.0,0.0152
2231.0,0.0152
2230.0,0.0152
2229.0,0.0152
2228.0,0.0151
2227.0,0.0151
2226.0,0.0151
2225.0,0.0151
2224.0,0.0152
2223.0,0.0152
2222.0,0.0152
2221.0,0.0152
2220.0,0.0152
2219.0,0.0152
2218.0,0.0152
2217.0,0.0152
2216.0,0.0153
2215.0,0.0153
2214.0,0.0153
2213.0,0.0153
2212.0,0.0153
2211.0,0.0153
2210.0,0.0153
2209.0,0.0152
2208.0,0.0151
2207.0,0.0151
2206.0,0.0151
2205.0,0.0151
2204.0,0.0152
2203.0,0.0152
2202.0,0.0152
2201.0,0.0152
2200.0,0.0152
2199.0,0.0152
2198.0,0.0152
2197.0,0.0153
2196.0,0.0153
2195.0,0.0154
2194.0,0.0154
2193.0,0.0154
2192.0,0.0154
2191.0,0.0154
2190.0,0.0154
2189.0,0.0154
2188.0,0.0153
2187.0,0.0153
2186.0,0.0153
2185.0,0.0153
2184.0,0.0153
2183.0,0.0152
2182.0,0.0153
2181.0,0.0153
2180.0,0.0154
2179.0,0.0155
2178.0,0.0155
2177.0,0.0155
2176.0,0.0155
2175.0,0.0154
2174.0,0.0154
2173.0,0.0155
2172.0,0.0155
2171.0,0.0155
2170.0,0.0155
2169.0,0.0154
2168.0,0.0154
2167.0,0.0154
2166.0,0.0154
2165.0,0.0154
2164.0,0.0155
2163.0,0.0155
2162.0,0.0156
2161.0,0.0156
2160.0,0.0156
2159.0,0.0156
2158.0,0.0155
2157.0,0.0155
2156.0,0.0155
2155.0,0.0154
2154.0,0.0154
2153.0,0.0154
2152.0,0.0154
2151.0,0.0154
2150.0,0.0155
2149.0,0.0155
2148.0,0.0156
2147.0,0.0155
2146.0,0.0155
2145.0,0.0155
2144.0,0.0156
2143.0,0.0156
2142.0,0.0156
2141.0,0.0156
2140.0,0.0156
2139.0,0.0157
2138.0,0.0157
2137.0,0.0157
2136.0,0.0157
2135.0,0.0157
2134.0,0.0157
2133.0,0.0157
2132.0,0.0157
2131.0,0.0157
2130.0,0.0157
2129.0,0.0157
2128.0,0.0157
2127.0,0.0157
2126.0,0.0157
2125.0,0.0157
2124.0,0.0157
2123.0,0.0156
2122.0,0.0156
2121.0,0.0156
2120.0,0.0157
2119.0,0.0158
2118.0,0.0158
2117.0,0.0159
2116.0,0.0159
2115.0,0.0158
2114.0,0.0158
2113.0,0.0157
2112.0,0.0156
2111.0,0.0157
2110.0,0.0157
2109.0,0.0158
2108.0,0.0158
2107.0,0.0158
2106.0,0.0158
2105.0,0.0158
2104.0,0.0158
2103.0,0.0158
2102.0,0.0158
2101.0,0.0158
2100.0,0.0159
2099.0,0.0159
2098.0,0.0159
2097.0,0.0159
2096.0,0.0159
2095.0,0.0159
2094.0,0.0159
2093.0,0.0159
2092.0,0.0159
2091.0,0.0159
2090.0,0.0159
2089.0,0.0159
2088.0,0.0159
2087.0,0.0159
2086.0,0.0159
2085.0,0.0159
2084.0,0.016
2083.0,0.0159
2082.0,0.0159
2081.0,0.0159
2080.0,0.0159
2079.0,0.0159
2078.0,0.0159
2077.0,0.0159
2076.0,0.016
2075.0,0.016
2074.0,0.016
2073.0,0.0159
2072.0,0.0159
2071.0,0.0159
2070.0,0.0159
2069.0,0.016
2068.0,0.016
2067.0,0.016
2066.0,0.016
2065.0,0.016
2064.0,0.016
2063.0,0.016
2062.0,0.016
2061.0,0.016
2060.0,0.016
2059.0,0.016
2058.0,0.016
2057.0,0.0161
2056.0,0.0162
2055.0,0.0162
2054.0,0.0162
2053.0,0.0161
2052.0,0.016
2051.0,0.016
2050.0,0.016
2049.0,0.0161
2048.0,0.0162
2047.0,0.0162
2046.0,0.0162
2045.0,0.0162
2044.0,0.0161
2043.0,0.0161
2042.0,0.0161
2041.0,0.0161
2040.0,0.0162
2039.0,0.0162
2038.0,0.0163
2037.0,0.0163
2036.0,0.0163
2035.0,0.0163
2034.0,0.0162
2033.0,0.0162
2032.0,0.0162
2031.0,0.0162
2030.0,0.0162
2029.0,0.0162
2028.0,0.0162
2027.0,0.0162
2026.0,0.0162
2025.0,0.0162
2024.0,0.0162
2023.0,0.0162
2022.0,0.0162
2021.0,0.0162
2020.0,0.0162
2019.0,0.0163
2018.0,0.0163
2017.0,0.0163
2016.0,0.0162
2015.0,0.0162
2014.0,0.0161
2013.0,0.0162
2012.0,0.0162
2011.0,0.0162
2010.0,0.0163
2009.0,0.0163
2008.0,0.0163
2007.0,0.0163
2006.0,0.0163
2005.0,0.0163
2004.0,0.0163
2003.0,0.0163
2002.0,0.0163
2001.0,0.0163
2000.0,0.0163
1999.0,0.0163
1998.0,0.0163
1997.0,0.0163
1996.0,0.0163
1995.0,0.0163
1994.0,0.0163
1993.0,0.0163
1992.0,0.0164
1991.0,0.0164
1990.0,0.0164
1989.0,0.0164
1988.0,0.0164
1987.0,0.0164
1986.0,0.0164
1985.0,0.0164
1984.0,0.0164
1983.0,0.0164
1982.0,0.0164
1981.0,0.0164
1980.0,0.0164
1979.0,0.0164
1978.0,0.0164
1977.0,0.0164
1976.0,0.0164
1975.0,0.0164
1974.0,0.0164
1973.0,0.0164
1972.0,0.0163
1971.0,0.0163
1970.0,0.0164
1969.0,0.0164
1968.0,0.0165
1967.0,0.0166
1966.0,0.0167
1965.0,0.0167
1964.0,0.0168
1963.0,0.0168
1962.0,0.0168
1961.0,0.0169
1960.0,0.0169
1959.0,0.0169
1958.0,0.0169
1957.0,0.017
1956.0,0.0171
1955.0,0.0171
1954.0,0.0172
1953.0,0.0172
1952.0,0.0172
1951.0,0.0173
1950.0,0.0173
1949.0,0.0173
1948.0,0.0173
1947.0,0.0174
1946.0,0.0175
1945.0,0.0177
1944.0,0.0178
1943.0,0.0178
1942.0,0.0178
1941.0,0.0178
1940.0,0.0178
1939.0,0.0178
1938.0,0.0177
1937.0,0.0177
1936.0,0.0176
1935.0,0.0175
1934.0,0.0175
1933.0,0.0174
1932.0,0.0174
1931.0,0.0173
1930.0,0.0173
1929.0,0.0172
1928.0,0.0171
1927.0,0.0171
1926.0,0.0171
1925.0,0.0171
1924.0,0.0171
1923.0,0.017
1922.0,0.017
1921.0,0.017
1920.0,0.017
1919.0,0.017
1918.0,0.017
1917.0,0.017
1916.0,0.017
1915.0,0.0169
1914.0,0.0169
1913.0,0.0169
1912.0,0.017
1911.0,0.017
1910.0,0.017
1909.0,0.017
1908.0,0.017
1907.0,0.0169
1906.0,0.0169
1905.0,0.0169
1904.0,0.0168
1903.0,0.0168
1902.0,0.0169
1901.0,0.0169
1900.0,0.0169
1899.0,0.017
1898.0,0.017
1897.0,0.0171
1896.0,0.0171
1895.0,0.0172
1894.0,0.0173
1893.0,0.0173
1892.0,0.0173
1891.0,0.0173
1890.0,0.0174
1889.0,0.0174
1888.0,0.0175
1887.0,0.0175
1886.0,0.0175
1885.0,0.0175
1884.0,0.0176
1883.0,0.0176
1882.0,0.0176
1881.0,0.0176
1880.0,0.0177
1879.0,0.0177
1878.0,0.0177
1877.0,0.0177
1876.0,0.0178
1875.0,0.0178
1874.0,0.0179
1873.0,0.0179
1872.0,0.018
1871.0,0.018
1870.0,0.0181
1869.0,0.0182
1868.0,0.0182
1867.0,0.0181
1866.0,0.0181
1865.0,0.0181
1864.0,0.018
1863.0,0.018
1862.0,0.0179
1861.0,0.0179
1860.0,0.0178
1859.0,0.0178
1858.0,0.0178
1857.0,0.0178
1856.0,0.0177
1855.0,0.0177
1854.0,0.0177
1853.0,0.0176
1852.0,0.0176
1851.0,0.0176
1850.0,0.0175
1849.0,0.0174
1848.0,0.0174
1847.0,0.0174
1846.0,0.0174
1845.0,0.0175
1844.0,0.0175
1843.0,0.0175
1842.0,0.0174
1841.0,0.0173
1840.0,0.0172
1839.0,0.0172
1838.0,0.0172
1837.0,0.0173
1836.0,0.0173
1835.0,0.0174
1834.0,0.0175
1833.0,0.0175
1832.0,0.0175
1831.0,0.0174
1830.0,0.0173
1829.0,0.0173
1828.0,0.0173
1827.0,0.0174
1826.0,0.0175
1825.0,0.0176
1824.0,0.0176
1823.0,0.0176
1822.0,0.0176
1821.0,0.0177
1820.0,0.0177
1819.0,0.0177
1818.0,0.0178
1817.0,0.0179
1816.0,0.0179
1815.0,0.018
1814.0,0.018
1813.0,0.018
1812.0,0.0181
1811.0,0.0181
1810.0,0.0182
1809.0,0.0182
1808.0,0.0183
1807.0,0.0183
1806.0,0.0184
1805.0,0.0185
1804.0,0.0186
1803.0,0.0187
1802.0,0.0187
1801.0,0.0187
1800.0,0.0187
1799.0,0.0187
1798.0,0.0188
1797.0,0.0188
1796.0,0.0187
1795.0,0.0185
1794.0,0.0184
1793.0,0.0183
1792.0,0.0182
1791.0,0.0182
1790.0,0.0181
1789.0,0.0181
1788.0,0.0181
1787.0,0.0181
1786.0,0.0181
1785.0,0.0181
1784.0,0.0181
1783.0,0.0181
1782.0,0.018
1781.0,0.018
1780.0,0.018
1779.0,0.018
1778.0,0.0181
1777.0,0.0181
1776.0,0.0181
1775.0,0.018
1774.0,0.0179
1773.0,0.0179
1772.0,0.0179
1771.0,0.018
1770.0,0.018
1769.0,0.0181
1768.0,0.0181
1767.0,0.0181
1766.0,0.0181
1765.0,0.018
1764.0,0.0181
1763.0,0.0181
1762.0,0.0182
1761.0,0.0182
1760.0,0.0182
1759.0,0.0182
1758.0,0.0183
1757.0,0.0183
1756.0,0.0184
1755.0,0.0185
1754.0,0.0185
1753.0,0.0185
1752.0,0.0187
1751.0,0.0189
1750.0,0.019
1749.0,0.019
1748.0,0.019
1747.0,0.019
1746.0,0.0191
1745.0,0.0191
1744.0,0.0193
1743.0,0.0193
1742.0,0.0194
1741.0,0.0194
1740.0,0.0194
1739.0,0.0195
1738.0,0.0195
1737.0,0.0195
1736.0,0.0195
1735.0,0.0195
1734.0,0.0195
1733.0,0.0194
1732.0,0.0193
1731.0,0.0193
1730.0,0.0193
1729.0,0.0193
1728.0,0.0193
1727.0,0.0193
1726.0,0.0193
1725.0,0.0193
1724.0,0.0193
1723.0,0.0193
1722.0,0.0193
1721.0,0.0193
1720.0,0.0193
1719.0,0.0193
1718.0,0.0195
1717.0,0.0196
1716.0,0.0196
1715.0,0.0195
1714.0,0.0195
1713.0,0.0195
1712.0,0.0194
1711.0,0.0194
1710.0,0.0194
1709.0,0.0194
1708.0,0.0194
1707.0,0.0194
1706.0,0.0195
1705.0,0.0197
1704.0,0.0198
1703.0,0.0199
1702.0,0.02
1701.0,0.0202
1700.0,0.0205
1699.0,0.0205
1698.0,0.0203
1697.0,0.0202
1696.0,0.0203
1695.0,0.0204
1694.0,0.0205
1693.0,0.0207
1692.0,0.0207
1691.0,0.0208
1690.0,0.0209
1689.0,0.0211
1688.0,0.0212
1687.0,0.0212
1686.0,0.0211
1685.0,0.0212
1684.0,0.0216
1683.0,0.022
1682.0,0.0223
1681.0,0.0225
1680.0,0.0226
1679.0,0.0227
1678.0,0.0228
1677.0,0.0229
1676.0,0.0231
1675.0,0.0233
1674.0,0.0234
1673.0,0.0234
1672.0,0.0235
1671.0,0.0236
1670.0,0.0239
1669.0,0.0242
1668.0,0.0244
1667.0,0.0245
1666.0,0.0246
1665.0,0.0246
1664.0,0.0247
1663.0,0.0248
1662.0,0.025
1661.0,0.0251
1660.0,0.0252
1659.0,0.0253
1658.0,0.0254
1657.0,0.0255
1656.0,0.0256
1655.0,0.0257
1654.0,0.026
1653.0,0.0261
1652.0,0.0261
1651.0,0.0261
1650.0,0.0261
1649.0,0.0261
1648.0,0.0262
1647.0,0.0265
1646.0,0.0267
1645.0,0.0269
1644.0,0.0269
1643.0,0.0269
1642.0,0.0269
1641.0,0.027
1640.0,0.027
1639.0,0.0269
1638.0,0.0268
1637.0,0.0266
1636.0,0.0265
1635.0,0.0263
1634.0,0.0262
1633.0,0.026
1632.0,0.0258
1631.0,0.0256
1630.0,0.0255
1629.0,0.0254
1628.0,0.0253
1627.0,0.0252
1626.0,0.0251
1625.0,0.025
1624.0,0.025
1623.0,0.0249
1622.0,0.0249
1621.0,0.0248
1620.0,0.0246
1619.0,0.0244
1618.0,0.0242
1617.0,0.0241
1616.0,0.024
1615.0,0.024
1614.0,0.0239
1613.0,0.0239
1612.0,0.0239
1611.0,0.0241
1610.0,0.0243
1609.0,0.0247
1608.0,0.0252
1607.0,0.026
1606.0,0.027
1605.0,0.0283
1604.0,0.0298
1603.0,0.0312
1602.0,0.0324
1601.0,0.033
1600.0,0.033
1599.0,0.0324
1598.0,0.0315
1597.0,0.0304
1596.0,0.0294
1595.0,0.0285
1594.0,0.0278
1593.0,0.0272
1592.0,0.0267
1591.0,0.0263
1590.0,0.026
1589.0,0.0258
1588.0,0.0257
1587.0,0.0257
1586.0,0.0259
1585.0,0.0262
1584.0,0.0265
1583.0,0.0267
1582.0,0.0266
1581.0,0.0262
1580.0,0.0257
1579.0,0.0251
1578.0,0.0245
1577.0,0.0241
1576.0,0.0239
1575.0,0.0239
1574.0,0.0238
1573.0,0.0237
1572.0,0.0234
1571.0,0.0231
1570.0,0.023
1569.0,0.0229
1568.0,0.0229
1567.0,0.0228
1566.0,0.0227
1565.0,0.0227
1564.0,0.0227
1563.0,0.0226
1562.0,0.0225
1561.0,0.0222
1560.0,0.0219
1559.0,0.022
1558.0,0.0222
1557.0,0.0224
1556.0,0.0225
1555.0,0.0225
1554.0,0.0225
1553.0,0.0225
1552.0,0.0224
1551.0,0.0224
1550.0,0.0224
1549.0,0.0225
1548.0,0.0226
1547.0,0.0226
1546.0,0.0226
1545.0,0.0226
1544.0,0.0227
1543.0,0.0228
1542.0,0.0228
1541.0,0.0228
1540.0,0.0225
1539.0,0.0223
1538.0,0.0222
1537.0,0.0223
1536.0,0.0223
1535.0,0.0222
1534.0,0.0222
1533.0,0.0221
1532.0,0.0221
1531.0,0.022
1530.0,0.0219
1529.0,0.0217
1528.0,0.0216
1527.0,0.0216
1526.0,0.0215
1525.0,0.0215
1524.0,0.0214
1523.0,0.0213
1522.0,0.0212
1521.0,0.0212
1520.0,0.0212
1519.0,0.0212
1518.0,0.0212
1517.0,0.0211
1516.0,0.0211
1515.0,0.021
1514.0,0.0209
1513.0,0.0208
1512.0,0.0207
1511.0,0.0206
1510.0,0.0205
1509.0,0.0203
1508.0,0.0202
1507.0,0.0201
1506.0,0.02
1505.0,0.02
1504.0,0.02
1503.0,0.02
1502.0,0.0201
1501.0,0.0203
1500.0,0.0209
1499.0,0.022
1498.0,0.0246
1497.0,0.0292
1496.0,0.0353
1495.0,0.0411
1494.0,0.0455
1493.0,0.0481
1492.0,0.0486
1491.0,0.0465
1490.0,0.0422
1489.0,0.0379
1488.0,0.0347
1487.0,0.0326
1486.0,0.031
1485.0,0.0298
1484.0,0.0287
1483.0,0.0278
1482.0,0.027
1481.0,0.0263
1480.0,0.0259
1479.0,0.0255
1478.0,0.0251
1477.0,0.0249
1476.0,0.0246
1475.0,0.0243
1474.0,0.0241
1473.0,0.024
1472.0,0.0239
1471.0,0.0239
1470.0,0.0239
1469.0,0.0239
1468.0,0.0239
1467.0,0.0239
1466.0,0.0238
1465.0,0.0238
1464.0,0.0238
1463.0,0.0237
1462.0,0.0236
1461.0,0.0235
1460.0,0.0236
1459.0,0.024
1458.0,0.0262
1457.0,0.0313
1456.0,0.037
1455.0,0.0417
1454.0,0.0456
1453.0,0.0487
1452.0,0.0503
1451.0,0.0502
1450.0,0.0487
1449.0,0.0467
1448.0,0.0447
1447.0,0.043
1446.0,0.0417
1445.0,0.0406
1444.0,0.0395
1443.0,0.0384
1442.0,0.0374
1441.0,0.0365
1440.0,0.0357
1439.0,0.0349
1438.0,0.0341
1437.0,0.0332
1436.0,0.0323
1435.0,0.0315
1434.0,0.0308
1433.0,0.0302
1432.0,0.0296
1431.0,0.029
1430.0,0.0285
1429.0,0.0281
1428.0,0.0278
1427.0,0.0276
1426.0,0.0273
1425.0,0.0271
1424.0,0.027
1423.0,0.0268
1422.0,0.0267
1421.0,0.0266
1420.0,0.0265
1419.0,0.0264
1418.0,0.0264
1417.0,0.0263
1416.0,0.0261
1415.0,0.026
1414.0,0.0259
1413.0,0.0258
1412.0,0.0258
1411.0,0.0258
1410.0,0.0258
1409.0,0.0258
1408.0,0.0258
1407.0,0.0257
1406.0,0.0256
1405.0,0.0255
1404.0,0.0254
1403.0,0.0254
1402.0,0.0253
1401.0,0.0253
1400.0,0.0253
1399.0,0.0253
1398.0,0.0253
1397.0,0.0254
1396.0,0.0254
1395.0,0.0255
1394.0,0.0255
1393.0,0.0255
1392.0,0.0256
1391.0,0.0256
1390.0,0.0258
1389.0,0.026
1388.0,0.0262
1387.0,0.0264
1386.0,0.0267
1385.0,0.0268
1384.0,0.027
1383.0,0.0272
1382.0,0.0275
1381.0,0.0277
1380.0,0.028
1379.0,0.0282
1378.0,0.0284
1377.0,0.0285
1376.0,0.0287
1375.0,0.0289
1374.0,0.0291
1373.0,0.0292
1372.0,0.0292
1371.0,0.0292
1370.0,0.0292
1369.0,0.0291
1368.0,0.0291
1367.0,0.0291
1366.0,0.0291
1365.0,0.029
1364.0,0.029
1363.0,0.029
1362.0,0.029
1361.0,0.0289
1360.0,0.0288
1359.0,0.0287
1358.0,0.0286
1357.0,0.0285
1356.0,0.0284
1355.0,0.0283
1354.0,0.0282
1353.0,0.0282
1352.0,0.0282
1351.0,0.0282
1350.0,0.0282
1349.0,0.0282
1348.0,0.0282
1347.0,0.0282
1346.0,0.0281
1345.0,0.028
1344.0,0.0279
1343.0,0.0278
1342.0,0.0277
1341.0,0.0276
1340.0,0.0276
1339.0,0.0276
1338.0,0.0275
1337.0,0.0275
1336.0,0.0276
1335.0,0.0277
1334.0,0.0278
1333.0,0.0279
1332.0,0.028
1331.0,0.0282
1330.0,0.0283
1329.0,0.0284
1328.0,0.0284
1327.0,0.0285
1326.0,0.0285
1325.0,0.0285
1324.0,0.0285
1323.0,0.0284
1322.0,0.0283
1321.0,0.0283
1320.0,0.0282
1319.0,0.0282
1318.0,0.0283
1317.0,0.0284
1316.0,0.0284
1315.0,0.0285
1314.0,0.0286
1313.0,0.0286
1312.0,0.0287
1311.0,0.0287
1310.0,0.0287
1309.0,0.0287
1308.0,0.0287
1307.0,0.0286
1306.0,0.0286
1305.0,0.0285
1304.0,0.0284
1303.0,0.0283
1302.0,0.0282
1301.0,0.0281
1300.0,0.028
1299.0,0.028
1298.0,0.028
1297.0,0.028
1296.0,0.028
1295.0,0.028
1294.0,0.028
1293.0,0.028
1292.0,0.028
1291.0,0.028
1290.0,0.028
1289.0,0.0279
1288.0,0.0279
1287.0,0.0279
1286.0,0.0279
1285.0,0.0279
1284.0,0.0279
1283.0,0.0279
1282.0,0.028
1281.0,0.028
1280.0,0.028
1279.0,0.0281
1278.0,0.028
1277.0,0.028
1276.0,0.0279
1275.0,0.0279
1274.0,0.0278
1273.0,0.0278
1272.0,0.0278
1271.0,0.0277
1270.0,0.0277
1269.0,0.0277
1268.0,0.0277
1267.0,0.0277
1266.0,0.0277
1265.0,0.0277
1264.0,0.0277
1263.0,0.0277
1262.0,0.0277
1261.0,0.0277
1260.0,0.0277
1259.0,0.0277
1258.0,0.0277
1257.0,0.0277
1256.0,0.0277
1255.0,0.0277
1254.0,0.0277
1253.0,0.0277
1252.0,0.0277
1251.0,0.0277
1250.0,0.0277
1249.0,0.0277
1248.0,0.0277
1247.0,0.0278
1246.0,0.0278
1245.0,0.0278
1244.0,0.0278
1243.0,0.0278
1242.0,0.0278
1241.0,0.0277
1240.0,0.0277
1239.0,0.0277
1238.0,0.0277
1237.0,0.0277
1236.0,0.0277
1235.0,0.0277
1234.0,0.0278
1233.0,0.0279
1232.0,0.028
1231.0,0.0281
1230.0,0.0282
1229.0,0.0283
1228.0,0.0284
1227.0,0.0285
1226.0,0.0287
1225.0,0.0288
1224.0,0.0289
1223.0,0.029
1222.0,0.029
1221.0,0.029
1220.0,0.029
1219.0,0.0291
1218.0,0.0292
1217.0,0.0292
1216.0,0.0293
1215.0,0.0293
1214.0,0.0293
1213.0,0.0292
1212.0,0.0292
1211.0,0.0292
1210.0,0.0292
1209.0,0.0292
1208.0,0.0293
1207.0,0.0293
1206.0,0.0294
1205.0,0.0295
1204.0,0.0295
1203.0,0.0296
1202.0,0.0296
1201.0,0.0297
1200.0,0.0299
1199.0,0.0301
1198.0,0.0303
1197.0,0.0304
1196.0,0.0304
1195.0,0.0304
1194.0,0.0304
1193.0,0.0305
1192.0,0.0306
1191.0,0.0307
1190.0,0.0307
1189.0,0.0308
1188.0,0.031
1187.0,0.0311
1186.0,0.0314
1185.0,0.0317
1184.0,0.0321
1183.0,0.0325
1182.0,0.0329
1181.0,0.0332
1180.0,0.0333
1179.0,0.0332
1178.0,0.0329
1177.0,0.0327
1176.0,0.0324
1175.0,0.0321
1174.0,0.0318
1173.0,0.0316
1172.0,0.0315
1171.0,0.0315
1170.0,0.0315
1169.0,0.0315
1168.0,0.0314
1167.0,0.0314
1166.0,0.0313
1165.0,0.0313
1164.0,0.0313
1163.0,0.0315
1162.0,0.0317
1161.0,0.032
1160.0,0.0324
1159.0,0.0328
1158.0,0.0333
1157.0,0.0338
1156.0,0.0343
1155.0,0.0347
1154.0,0.0349
1153.0,0.0349
1152.0,0.0348
1151.0,0.0345
1150.0,0.0342
1149.0,0.0338
1148.0,0.0336
1147.0,0.0334
1146.0,0.0333
1145.0,0.0332
1144.0,0.0332
1143.0,0.0331
1142.0,0.0331
1141.0,0.033
1140.0,0.0329
1139.0,0.0328
1138.0,0.0327
1137.0,0.0327
1136.0,0.0326
1135.0,0.0327
1134.0,0.0327
1133.0,0.0328
1132.0,0.0328
1131.0,0.0328
1130.0,0.0327
1129.0,0.0327
1128.0,0.0327
1127.0,0.0327
1126.0,0.0327
1125.0,0.0328
1124.0,0.0328
1123.0,0.0329
1122.0,0.0329
1121.0,0.033
1120.0,0.033
1119.0,0.033
1118.0,0.0331
1117.0,0.0333
1116.0,0.0334
1115.0,0.0334
1114.0,0.0335
1113.0,0.0336
1112.0,0.0337
1111.0,0.0337
1110.0,0.0338
1109.0,0.0338
1108.0,0.0338
1107.0,0.0338
1106.0,0.0338
1105.0,0.0338
1104.0,0.0338
1103.0,0.0338
1102.0,0.0338
1101.0,0.0338
1100.0,0.0338
1099.0,0.0338
1098.0,0.0339
1097.0,0.0339
1096.0,0.0338
1095.0,0.0337
1094.0,0.0338
1093.0,0.0338
1092.0,0.0338
1091.0,0.0338
1090.0,0.0338
1089.0,0.0338
1088.0,0.0339
1087.0,0.034
1086.0,0.0341
1085.0,0.0342
1084.0,0.0343
1083.0,0.0344
1082.0,0.0345
1081.0,0.0346
1080.0,0.0347
1079.0,0.0348
1078.0,0.035
1077.0,0.0352
1076.0,0.0354
1075.0,0.0357
1074.0,0.036
1073.0,0.0362
1072.0,0.0365
1071.0,0.0367
1070.0,0.0369
1069.0,0.0371
1068.0,0.0371
1067.0,0.0371
1066.0,0.0369
1065.0,0.0366
1064.0,0.0364
1063.0,0.0361
1062.0,0.0358
1061.0,0.0356
1060.0,0.0353
1059.0,0.0351
1058.0,0.0348
1057.0,0.0346
1056.0,0.0344
1055.0,0.0342
1054.0,0.034
1053.0,0.0339
1052.0,0.0337
1051.0,0.0335
1050.0,0.0333
1049.0,0.0332
1048.0,0.0331
1047.0,0.0329
1046.0,0.0328
1045.0,0.0327
1044.0,0.0326
1043.0,0.0325
1042.0,0.0324
1041.0,0.0323
1040.0,0.0322
1039.0,0.0323
1038.0,0.0325
1037.0,0.0329
1036.0,0.0335
1035.0,0.0344
1034.0,0.0357
1033.0,0.0372
1032.0,0.0388
1031.0,0.0404
1030.0,0.042
1029.0,0.0432
1028.0,0.0438
1027.0,0.0439
1026.0,0.0434
1025.0,0.0426
1024.0,0.0418
1023.0,0.041
1022.0,0.0403
1021.0,0.0397
1020.0,0.0391
1019.0,0.0387
1018.0,0.0383
1017.0,0.038
1016.0,0.0377
1015.0,0.0373
1014.0,0.0369
1013.0,0.0366
1012.0,0.0364
1011.0,0.0362
1010.0,0.036
1009.0,0.0359
1008.0,0.0359
1007.0,0.0359
1006.0,0.0361
1005.0,0.0363
1004.0,0.0365
1003.0,0.0365
1002.0,0.0365
1001.0,0.0364
1000.0,0.0361
999.0,0.0357
998.0,0.0353
997.0,0.035
996.0,0.0349
995.0,0.0348
994.0,0.0347
993.0,0.0347
992.0,0.0347
991.0,0.0347
990.0,0.0348
989.0,0.0348
988.0,0.035
987.0,0.0351
986.0,0.0352
985.0,0.0353
984.0,0.0354
983.0,0.0356
982.0,0.0358
981.0,0.036
980.0,0.0361
979.0,0.0361
978.0,0.0361
977.0,0.0361
976.0,0.0359
975.0,0.0357
974.0,0.0355
973.0,0.0354
972.0,0.0354
971.0,0.0356
970.0,0.0358
969.0,0.036
968.0,0.0363
967.0,0.0366
966.0,0.0368
965.0,0.0371
964.0,0.0373
963.0,0.0373
962.0,0.0373
961.0,0.0372
960.0,0.037
959.0,0.0368
958.0,0.0365
957.0,0.0363
956.0,0.0362
955.0,0.036
954.0,0.0359
953.0,0.0359
952.0,0.036
951.0,0.0361
950.0,0.0363
949.0,0.0364
948.0,0.0365
947.0,0.0367
946.0,0.0369
945.0,0.0371
944.0,0.0372
943.0,0.0373
942.0,0.0373
941.0,0.0373
940.0,0.0373
939.0,0.0372
938.0,0.037
937.0,0.0369
936.0,0.0367
935.0,0.0365
934.0,0.0364
933.0,0.0364
932.0,0.0364
931.0,0.0363
930.0,0.0362
929.0,0.0361
928.0,0.036
927.0,0.036
926.0,0.036
925.0,0.036
924.0,0.036
923.0,0.0361
922.0,0.0362
921.0,0.0364
920.0,0.0366
919.0,0.0367
918.0,0.0369
917.0,0.0371
916.0,0.0375
915.0,0.038
914.0,0.0387
913.0,0.0395
912.0,0.0404
911.0,0.0413
910.0,0.0422
909.0,0.043
908.0,0.0438
907.0,0.0444
906.0,0.0447
905.0,0.0449
904.0,0.0448
903.0,0.0444
902.0,0.0439
901.0,0.0433
900.0,0.0427
899.0,0.0421
898.0,0.0416
897.0,0.0411
896.0,0.0407
895.0,0.0402
894.0,0.0399
893.0,0.0396
892.0,0.0394
891.0,0.0392
890.0,0.0392
889.0,0.0393
888.0,0.0393
887.0,0.0393
886.0,0.0392
885.0,0.0392
884.0,0.0392
883.0,0.0391
882.0,0.0389
881.0,0.0388
880.0,0.0388
879.0,0.039
878.0,0.039
877.0,0.039
876.0,0.0389
875.0,0.0389
874.0,0.0389
873.0,0.0389
872.0,0.039
871.0,0.039
870.0,0.039
869.0,0.0391
868.0,0.0391
867.0,0.0389
866.0,0.0388
865.0,0.0387
864.0,0.0386
863.0,0.0387
862.0,0.0387
861.0,0.0387
860.0,0.0387
859.0,0.0387
858.0,0.0387
857.0,0.0388
856.0,0.0389
855.0,0.0391
854.0,0.0391
853.0,0.039
852.0,0.039
851.0,0.0392
850.0,0.0394
849.0,0.0395
848.0,0.0396
847.0,0.0398
846.0,0.0401
845.0,0.0405
844.0,0.041
843.0,0.0414
842.0,0.0417
841.0,0.0419
840.0,0.042
839.0,0.0418
838.0,0.0416
837.0,0.0414
836.0,0.0411
835.0,0.0408
834.0,0.0404
833.0,0.0402
832.0,0.0401
831.0,0.0401
830.0,0.04
829.0,0.0399
828.0,0.0398
827.0,0.0397
826.0,0.0396
825.0,0.0395
824.0,0.0394
823.0,0.0394
822.0,0.0395
821.0,0.0395
820.0,0.0394
819.0,0.0393
818.0,0.0393
817.0,0.0393
816.0,0.0393
815.0,0.0393
814.0,0.0393
813.0,0.0392
812.0,0.0392
811.0,0.0392
810.0,0.0393
809.0,0.0393
808.0,0.0393
807.0,0.0393
806.0,0.0392
805.0,0.0391
804.0,0.039
803.0,0.0389
802.0,0.0389
801.0,0.0389
800.0,0.039
799.0,0.0391
798.0,0.0392
797.0,0.0394
796.0,0.0395
795.0,0.0396
794.0,0.0396
793.0,0.0396
792.0,0.0397
791.0,0.0398
790.0,0.04
789.0,0.0402
788.0,0.0404
787.0,0.0407
786.0,0.041
785.0,0.0413
784.0,0.0415
783.0,0.0417
782.0,0.042
781.0,0.0424
780.0,0.0429
779.0,0.0435
778.0,0.0443
777.0,0.0452
776.0,0.0464
775.0,0.0477
774.0,0.0492
773.0,0.0509
772.0,0.0529
771.0,0.0551
770.0,0.0576
769.0,0.0602
768.0,0.063
767.0,0.0656
766.0,0.0682
765.0,0.0707
764.0,0.0732
763.0,0.0759
762.0,0.0787
761.0,0.0817
760.0,0.0847
759.0,0.0876
758.0,0.09
757.0,0.0921
756.0,0.0937
755.0,0.0947
754.0,0.0953
753.0,0.0955
752.0,0.0956
751.0,0.0959
750.0,0.0964
749.0,0.0972
748.0,0.0979
747.0,0.098
746.0,0.0973
745.0,0.0957
744.0,0.0932
743.0,0.0902
742.0,0.0867
741.0,0.0834
740.0,0.0802
739.0,0.0773
738.0,0.0746
737.0,0.072
736.0,0.0696
735.0,0.0673
734.0,0.0652
733.0,0.0633
732.0,0.0614
731.0,0.0596
730.0,0.0578
729.0,0.0561
728.0,0.0545
727.0,0.0531
726.0,0.0519
725.0,0.051
724.0,0.0502
723.0,0.0494
722.0,0.0486
721.0,0.0478
720.0,0.0469
719.0,0.0459
718.0,0.0449
717.0,0.0438
716.0,0.0426
715.0,0.0414
714.0,0.0403
713.0,0.0397
712.0,0.0397
711.0,0.0404
710.0,0.0422
709.0,0.0455
708.0,0.0506
707.0,0.0581
706.0,0.0683
705.0,0.0815
704.0,0.0977
703.0,0.1167
702.0,0.1381
701.0,0.1618
700.0,0.1875
699.0,0.2145
698.0,0.2408
697.0,0.2629
696.0,0.2761
695.0,0.276
694.0,0.2623
693.0,0.2394
692.0,0.2134
691.0,0.1888
690.0,0.1681
689.0,0.1522
688.0,0.1404
687.0,0.1317
686.0,0.1252
685.0,0.1201
684.0,0.1157
683.0,0.1114
682.0,0.1071
681.0,0.1032
680.0,0.1
679.0,0.0975
678.0,0.0957
677.0,0.0947
676.0,0.0941
675.0,0.0933
674.0,0.0924
673.0,0.0914
672.0,0.0898
671.0,0.0868
670.0,0.0818
669.0,0.0761
668.0,0.0733
667.0,0.0757
666.0,0.0795
665.0,0.0817
664.0,0.0821
663.0,0.0817
662.0,0.0811
661.0,0.0805
660.0,0.0798
659.0,0.079
658.0,0.0783
657.0,0.0781
656.0,0.0782
655.0,0.0782
654.0,0.0775
653.0,0.0762
652.0,0.0747
651.0,0.0736
650.0,0.0733
649.0,0.0736
648.0,0.0738
647.0,0.0735
646.0,0.0727
645.0,0.0719
644.0,0.0716
643.0,0.0717
642.0,0.0721
641.0,0.0725
640.0,0.0728
639.0,0.0732
638.0,0.0738
637.0,0.0745
636.0,0.0753
635.0,0.0761
634.0,0.0769
633.0,0.0774
632.0,0.0772
631.0,0.0762
630.0,0.0751
629.0,0.0743
628.0,0.074
627.0,0.0739
626.0,0.0741
625.0,0.0745
624.0,0.0751
623.0,0.0756
622.0,0.0761
621.0,0.0763
620.0,0.076
619.0,0.0753
618.0,0.0747
617.0,0.0748
616.0,0.0754
615.0,0.0761
614.0,0.0767
613.0,0.0771
612.0,0.0772
611.0,0.0766
610.0,0.0753
609.0,0.0738
608.0,0.0722
607.0,0.0713
606.0,0.0713
605.0,0.0721
604.0,0.0731
603.0,0.0741
602.0,0.075
601.0,0.076
600.0,0.0766
