cm-1,A
4000.0,0.0053
3999.0,0.0053
3998.0,0.0053
3997.0,0.0053
3996.0,0.0053
3995.0,0.0052
3994.0,0.0052
3993.0,0.0053
3992.0,0.0053
3991.0,0.0054
3990.0,0.0055
3989.0,0.0055
3988.0,0.0055
3987.0,0.0055
3986.0,0.0055
3985.0,0.0055
3984.0,0.0054
3983.0,0.0054
3982.0,0.0054
3981.0,0.0054
3980.0,0.0054
3979.0,0.0054
3978.0,0.0054
3977.0,0.0054
3976.0,0.0054
3975.0,0.0054
3974.0,0.0054
3973.0,0.0054
3972.0,0.0054
3971.0,0.0054
3970.0,0.0054
3969.0,0.0054
3968.0,0.0053
3967.0,0.0053
3966.0,0.0052
3965.0,0.0052
3964.0,0.0052
3963.0,0.0053
3962.0,0.0054
3961.0,0.0054
3960.0,0.0055
3959.0,0.0055
3958.0,0.0054
3957.0,0.0053
3956.0,0.0053
3955.0,0.0053
3954.0,0.0053
3953.0,0.0054
3952.0,0.0055
3951.0,0.0056
3950.0,0.0056
3949.0,0.0056
3948.0,0.0056
3947.0,0.0056
3946.0,0.0056
3945.0,0.0056
3944.0,0.0057
3943.0,0.0057
3942.0,0.0057
3941.0,0.0057
3940.0,0.0057
3939.0,0.0056
3938.0,0.0056
3937.0,0.0055
3936.0,0.0055
3935.0,0.0054
3934.0,0.0054
3933.0,0.0054
3932.0,0.0055
3931.0,0.0057
3930.0,0.0058
3929.0,0.0058
3928.0,0.0058
3927.0,0.0057
3926.0,0.0056
3925.0,0.0056
3924.0,0.0056
3923.0,0.0056
3922.0,0.0056
3921.0,0.0056
3920.0,0.0056
3919.0,0.0056
3918.0,0.0056
3917.0,0.0056
3916.0,0.0056
3915.0,0.0055
3914.0,0.0054
3913.0,0.0053
3912.0,0.0053
3911.0,0.0053
3910.0,0.0053
3909.0,0.0054
3908.0,0.0055
3907.0,0.0055
3906.0,0.0056
3905.0,0.0056
3904.0,0.0057
3903.0,0.0058
3902.0,0.0059
3901.0,0.0058
3900.0,0.0057
3899.0,0.0056
3898.0,0.0056
3897.0,0.0056
3896.0,0.0056
3895.0,0.0056
3894.0,0.0056
3893.0,0.0055
3892.0,0.0055
3891.0,0.0055
3890.0,0.0054
3889.0,0.0054
3888.0,0.0055
3887.0,0.0054
3886.0,0.0054
3885.0,0.0055
3884.0,0.0057
3883.0,0.0059
3882.0,0.006
3881.0,0.0059
3880.0,0.0058
3879.0,0.0057
3878.0,0.0058
3877.0,0.0059
3876.0,0.0058
3875.0,0.0056
3874.0,0.0054
3873.0,0.0053
3872.0,0.0054
3871.0,0.0055
3870.0,0.0056
3869.0,0.0057
3868.0,0.0058
3867.0,0.0058
3866.0,0.0058
3865.0,0.0058
3864.0,0.0059
3863.0,0.006
3862.0,0.0061
3861.0,0.006
3860.0,0.0058
3859.0,0.0056
3858.0,0.0054
3857.0,0.0053
3856.0,0.0054
3855.0,0.0055
3854.0,0.0056
3853.0,0.0056
3852.0,0.0057
3851.0,0.0057
3850.0,0.0058
3849.0,0.0058
3848.0,0.0058
3847.0,0.0058
3846.0,0.0058
3845.0,0.0058
3844.0,0.0057
3843.0,0.0058
3842.0,0.0059
3841.0,0.0059
3840.0,0.0059
3839.0,0.0058
3838.0,0.0058
3837.0,0.0059
3836.0,0.0059
3835.0,0.006
3834.0,0.006
3833.0,0.0059
3832.0,0.0058
3831.0,0.0057
3830.0,0.0058
3829.0,0.0059
3828.0,0.0059
3827.0,0.0059
3826.0,0.0057
3825.0,0.0057
3824.0,0.0058
3823.0,0.0059
3822.0,0.0059
3821.0,0.0058
3820.0,0.0058
3819.0,0.0059
3818.0,0.006
3817.0,0.006
3816.0,0.0059
3815.0,0.0058
3814.0,0.0058
3813.0,0.0057
3812.0,0.0056
3811.0,0.0055
3810.0,0.0054
3809.0,0.0054
3808.0,0.0055
3807.0,0.0055
3806.0,0.0055
3805.0,0.0057
3804.0,0.0059
3803.0,0.0059
3802.0,0.0058
3801.0,0.0057
3800.0,0.0058
3799.0,0.0059
3798.0,0.0059
3797.0,0.0059
3796.0,0.0059
3795.0,0.0058
3794.0,0.0058
3793.0,0.0058
3792.0,0.0058
3791.0,0.0058
3790.0,0.0058
3789.0,0.0059
3788.0,0.0059
3787.0,0.0059
3786.0,0.0059
3785.0,0.0059
3784.0,0.0059
3783.0,0.0059
3782.0,0.0059
3781.0,0.0059
3780.0,0.0058
3779.0,0.0058
3778.0,0.0058
3777.0,0.0058
3776.0,0.0058
3775.0,0.0057
3774.0,0.0056
3773.0,0.0056
3772.0,0.0056
3771.0,0.0056
3770.0,0.0057
3769.0,0.0057
3768.0,0.0058
3767.0,0.0057
3766.0,0.0056
3765.0,0.0055
3764.0,0.0056
3763.0,0.0057
3762.0,0.0058
3761.0,0.0059
3760.0,0.0059
3759.0,0.0059
3758.0,0.0058
3757.0,0.0057
3756.0,0.0056
3755.0,0.0055
3754.0,0.0054
3753.0,0.0052
3752.0,0.005
3751.0,0.005
3750.0,0.0049
3749.0,0.0049
3748.0,0.005
3747.0,0.0051
3746.0,0.0053
3745.0,0.0053
3744.0,0.0053
3743.0,0.0053
3742.0,0.0054
3741.0,0.0054
3740.0,0.0053
3739.0,0.0053
3738.0,0.0052
3737.0,0.0051
3736.0,0.005
3735.0,0.005
3734.0,0.0049
3733.0,0.0048
3732.0,0.0046
3731.0,0.0045
3730.0,0.0045
3729.0,0.0045
3728.0,0.0045
3727.0,0.0045
3726.0,0.0047
3725.0,0.0049
3724.0,0.005
3723.0,0.0052
3722.0,0.0053
3721.0,0.0053
3720.0,0.0054
3719.0,0.0054
3718.0,0.0054
3717.0,0.0055
3716.0,0.0055
3715.0,0.0056
3714.0,0.0055
3713.0,0.0052
3712.0,0.005
3711.0,0.0049
3710.0,0.0051
3709.0,0.0052
3708.0,0.0053
3707.0,0.0053
3706.0,0.0053
3705.0,0.0054
3704.0,0.0055
3703.0,0.0056
3702.0,0.0057
3701.0,0.0057
3700.0,0.0057
3699.0,0.0057
3698.0,0.0057
3697.0,0.0056
3696.0,0.0056
3695.0,0.0055
3694.0,0.0055
3693.0,0.0055
3692.0,0.0056
3691.0,0.0058
3690.0,0.006
3689.0,0.0061
3688.0,0.006
3687.0,0.006
3686.0,0.0061
3685.0,0.0063
3684.0,0.0064
3683.0,0.0064
3682.0,0.0065
3681.0,0.0064
3680.0,0.0063
3679.0,0.0063
3678.0,0.0065
3677.0,0.0066
3676.0,0.0068
3675.0,0.0069
3674.0,0.007
3673.0,0.0073
3672.0,0.0074
3671.0,0.0074
3670.0,0.0074
3669.0,0.0075
3668.0,0.0075
3667.0,0.0076
3666.0,0.0076
3665.0,0.0077
3664.0,0.0078
3663.0,0.0079
3662.0,0.0079
3661.0,0.0078
3660.0,0.0078
3659.0,0.0079
3658.0,0.0079
3657.0,0.008
3656.0,0.0081
3655.0,0.0082
3654.0,0.0084
3653.0,0.0086
3652.0,0.0088
3651.0,0.0089
3650.0,0.009
3649.0,0.0092
3648.0,0.0093
3647.0,0.0094
3646.0,0.0094
3645.0,0.0094
3644.0,0.0095
3643.0,0.0095
3642.0,0.0095
3641.0,0.0096
3640.0,0.0097
3639.0,0.0098
3638.0,0.0098
3637.0,0.0098
3636.0,0.0098
3635.0,0.0099
3634.0,0.0099
3633.0,0.01
3632.0,0.0101
3631.0,0.0102
3630.0,0.0102
3629.0,0.0101
3628.0,0.0102
3627.0,0.0103
3626.0,0.0105
3625.0,0.0107
3624.0,0.0109
3623.0,0.0111
3622.0,0.0114
3621.0,0.0117
3620.0,0.0119
3619.0,0.0121
3618.0,0.0123
3617.0,0.0126
3616.0,0.0129
3615.0,0.0132
3614.0,0.0133
3613.0,0.0134
3612.0,0.0134
3611.0,0.0133
3610.0,0.0133
3609.0,0.0134
3608.0,0.0135
3607.0,0.0137
3606.0,0.0139
3605.0,0.014
3604.0,0.014
3603.0,0.0141
3602.0,0.0142
3601.0,0.0144
3600.0,0.0145
3599.0,0.0146
3598.0,0.0147
3597.0,0.0147
3596.0,0.0148
3595.0,0.0149
3594.0,0.0151
3593.0,0.0153
3592.0,0.0155
3591.0,0.0158
3590.0,0.016
3589.0,0.0162
3588.0,0.0165
3587.0,0.0169
3586.0,0.0171
3585.0,0.0173
3584.0,0.0174
3583.0,0.0176
3582.0,0.0177
3581.0,0.0178
3580.0,0.0179
3579.0,0.018
3578.0,0.0182
3577.0,0.0184
3576.0,0.0185
3575.0,0.0187
3574.0,0.0188
3573.0,0.0189
3572.0,0.0191
3571.0,0.0193
3570.0,0.0196
3569.0,0.0199
3568.0,0.0202
3567.0,0.0205
3566.0,0.0207
3565.0,0.0207
3564.0,0.0207
3563.0,0.0208
3562.0,0.0208
3561.0,0.0209
3560.0,0.0211
3559.0,0.0213
3558.0,0.0215
3557.0,0.0218
3556.0,0.0219
3555.0,0.0221
3554.0,0.0222
3553.0,0.0223
3552.0,0.0225
3551.0,0.0228
3550.0,0.023
3549.0,0.0231
3548.0,0.0233
3547.0,0.0235
3546.0,0.0237
3545.0,0.024
3544.0,0.0242
3543.0,0.0243
3542.0,0.0245
3541.0,0.0246
3540.0,0.0246
3539.0,0.0247
3538.0,0.0248
3537.0,0.0249
3536.0,0.0251
3535.0,0.0252
3534.0,0.0254
3533.0,0.0257
3532.0,0.0259
3531.0,0.0261
3530.0,0.0263
3529.0,0.0265
3528.0,0.0266
3527.0,0.0268
3526.0,0.0268
3525.0,0.0268
3524.0,0.0269
3523.0,0.027
3522.0,0.0272
3521.0,0.0274
3520.0,0.0275
3519.0,0.0277
3518.0,0.0278
3517.0,0.0279
3516.0,0.0281
3515.0,0.0282
3514.0,0.0284
3513.0,0.0286
3512.0,0.0288
3511.0,0.0289
3510.0,0.029
3509.0,0.0292
3508.0,0.0295
3507.0,0.0298
3506.0,0.03
3505.0,0.0303
3504.0,0.0305
3503.0,0.0307
3502.0,0.0309
3501.0,0.0312
3500.0,0.0313
3499.0,0.0315
3498.0,0.0316
3497.0,0.0318
3496.0,0.032
3495.0,0.0322
3494.0,0.0324
3493.0,0.0326
3492.0,0.0328
3491.0,0.0329
3490.0,0.033
3489.0,0.0331
3488.0,0.0332
3487.0,0.0335
3486.0,0.0338
3485.0,0.0341
3484.0,0.0344
3483.0,0.0346
3482.0,0.0348
3481.0,0.035
3480.0,0.0352
3479.0,0.0355
3478.0,0.0357
3477.0,0.036
3476.0,0.0363
3475.0,0.0365
3474.0,0.0367
3473.0,0.0369
3472.0,0.0371
3471.0,0.0374
3470.0,0.0377
3469.0,0.0379
3468.0,0.0381
3467.0,0.0383
3466.0,0.0385
3465.0,0.0388
3464.0,0.0391
3463.0,0.0394
3462.0,0.0397
3461.0,0.04
3460.0,0.0402
3459.0,0.0405
3458.0,0.0407
3457.0,0.041
3456.0,0.0413
3455.0,0.0415
3454.0,0.0418
3453.0,0.0421
3452.0,0.0424
3451.0,0.0427
3450.0,0.0429
3449.0,0.0431
3448.0,0.0433
3447.0,0.0435
3446.0,0.0438
3445.0,0.0441
3444.0,0.0444
3443.0,0.0447
3442.0,0.045
3441.0,0.0454
3440.0,0.0458
3439.0,0.0463
3438.0,0.0466
3437.0,0.0469
3436.0,0.0471
3435.0,0.0474
3434.0,0.0477
3433.0,0.048
3432.0,0.0484
3431.0,0.0487
3430.0,0.0491
3429.0,0.0493
3428.0,0.0496
3427.0,0.0499
3426.0,0.0503
3425.0,0.0507
3424.0,0.0512
3423.0,0.0516
3422.0,0.052
3421.0,0.0524
3420.0,0.0527
3419.0,0.0531
3418.0,0.0534
3417.0,0.0537
3416.0,0.0541
3415.0,0.0544
3414.0,0.0547
3413.0,0.0549
3412.0,0.0552
3411.0,0.0555
3410.0,0.0558
3409.0,0.0561
3408.0,0.0563
3407.0,0.0566
3406.0,0.0568
3405.0,0.0571
3404.0,0.0574
3403.0,0.0576
3402.0,0.0579
3401.0,0.0581
3400.0,0.0584
3399.0,0.0586
3398.0,0.0587
3397.0,0.0589
3396.0,0.059
3395.0,0.0592
3394.0,0.0594
3393.0,0.0596
3392.0,0.0598
3391.0,0.0599
3390.0,0.06
3389.0,0.0601
3388.0,0.0602
3387.0,0.0603
3386.0,0.0605
3385.0,0.0607
3384.0,0.0608
3383.0,0.061
3382.0,0.0611
3381.0,0.0611
3380.0,0.0611
3379.0,0.0611
3378.0,0.0611
3377.0,0.0611
3376.0,0.0612
3375.0,0.0612
3374.0,0.0611
3373.0,0.061
3372.0,0.0609
3371.0,0.0608
3370.0,0.0606
3369.0,0.0605
3368.0,0.0603
3367.0,0.0601
3366.0,0.06
3365.0,0.0599
3364.0,0.0598
3363.0,0.0596
3362.0,0.0595
3361.0,0.0594
3360.0,0.0593
3359.0,0.0592
3358.0,0.0591
3357.0,0.0589
3356.0,0.0587
3355.0,0.0586
3354.0,0.0585
3353.0,0.0584
3352.0,0.0583
3351.0,0.058
3350.0,0.0577
3349.0,0.0574
3348.0,0.0572
3347.0,0.0571
3346.0,0.057
3345.0,0.057
3344.0,0.0569
3343.0,0.0567
3342.0,0.0566
3341.0,0.0564
3340.0,0.0562
3339.0,0.0561
3338.0,0.056
3337.0,0.0559
3336.0,0.0559
3335.0,0.0558
3334.0,0.0557
3333.0,0.0554
3332.0,0.0551
3331.0,0.0548
3330.0,0.0545
3329.0,0.0543
3328.0,0.0541
3327.0,0.054
3326.0,0.0537
3325.0,0.0535
3324.0,0.0533
3323.0,0.0532
3322.0,0.0531
3321.0,0.0529
3320.0,0.0526
3319.0,0.0523
3318.0,0.052
3317.0,0.0518
3316.0,0.0518
3315.0,0.0517
3314.0,0.0517
3313.0,0.0517
3312.0,0.0516
3311.0,0.0514
3310.0,0.0512
3309.0,0.051
3308.0,0.0509
3307.0,0.0507
3306.0,0.0505
3305.0,0.0503
3304.0,0.0501
3303.0,0.0498
3302.0,0.0495
3301.0,0.0493
3300.0,0.0492
3299.0,0.0491
3298.0,0.049
3297.0,0.0489
3296.0,0.0487
3295.0,0.0485
3294.0,0.0484
3293.0,0.0483
3292.0,0.0482
3291.0,0.0482
3290.0,0.0481
3289.0,0.0481
3288.0,0.0481
3287.0,0.0481
3286.0,0.0481
3285.0,0.0481
3284.0,0.0479
3283.0,0.0476
3282.0,0.0474
3281.0,0.0473
3280.0,0.0472
3279.0,0.0471
3278.0,0.0471
3277.0,0.047
3276.0,0.0469
3275.0,0.0468
3274.0,0.0468
3273.0,0.0468
3272.0,0.0467
3271.0,0.0467
3270.0,0.0466
3269.0,0.0465
3268.0,0.0465
3267.0,0.0464
3266.0,0.0464
3265.0,0.0464
3264.0,0.0464
3263.0,0.0464
3262.0,0.0464
3261.0,0.0464
3260.0,0.0465
3259.0,0.0465
3258.0,0.0466
3257.0,0.0466
3256.0,0.0467
3255.0,0.0468
3254.0,0.0468
3253.0,0.0468
3252.0,0.0469
3251.0,0.047
3250.0,0.0471
3249.0,0.0472
3248.0,0.0473
3247.0,0.0474
3246.0,0.0475
3245.0,0.0475
3244.0,0.0475
3243.0,0.0474
3242.0,0.0472
3241.0,0.0471
3240.0,0.0469
3239.0,0.0468
3238.0,0.0466
3237.0,0.0465
3236.0,0.0462
3235.0,0.046
3234.0,0.0458
3233.0,0.0455
3232.0,0.0453
3231.0,0.0451
3230.0,0.0449
3229.0,0.0446
3228.0,0.0443
3227.0,0.0441
3226.0,0.0439
3225.0,0.0437
3224.0,0.0435
3223.0,0.0433
3222.0,0.043
3221.0,0.0427
3220.0,0.0424
3219.0,0.0421
3218.0,0.0419
3217.0,0.0417
3216.0,0.0416
3215.0,0.0414
3214.0,0.0413
3213.0,0.0411
3212.0,0.0409
3211.0,0.0407
3210.0,0.0405
3209.0,0.0402
3208.0,0.04
3207.0,0.0398
3206.0,0.0395
3205.0,0.0393
3204.0,0.0391
3203.0,0.0388
3202.0,0.0385
3201.0,0.0383
3200.0,0.0381
3199.0,0.038
3198.0,0.0379
3197.0,0.0377
3196.0,0.0376
3195.0,0.0374
3194.0,0.0372
3193.0,0.0371
3192.0,0.0369
3191.0,0.0368
3190.0,0.0367
3189.0,0.0366
3188.0,0.0363
3187.0,0.0361
3186.0,0.0358
3185.0,0.0356
3184.0,0.0354
3183.0,0.0353
3182.0,0.0351
3181.0,0.0349
3180.0,0.0347
3179.0,0.0346
3178.0,0.0344
3177.0,0.0343
3176.0,0.0341
3175.0,0.0339
3174.0,0.0338
3173.0,0.0337
3172.0,0.0335
3171.0,0.0333
3170.0,0.0331
3169.0,0.0329
3168.0,0.0327
3167.0,0.0325
3166.0,0.0323
3165.0,0.0322
3164.0,0.0322
3163.0,0.0321
3162.0,0.0319
3161.0,0.0317
3160.0,0.0315
3159.0,0.0314
3158.0,0.0312
3157.0,0.0311
3156.0,0.031
3155.0,0.0309
3154.0,0.0308
3153.0,0.0306
3152.0,0.0303
3151.0,0.0301
3150.0,0.03
3149.0,0.0299
3148.0,0.0298
3147.0,0.0297
3146.0,0.0296
3145.0,0.0294
3144.0,0.0293
3143.0,0.0291
3142.0,0.0289
3141.0,0.0286
3140.0,0.0284
3139.0,0.0284
3138.0,0.0283
3137.0,0.0283
3136.0,0.0281
3135.0,0.0279
3134.0,0.0277
3133.0,0.0276
3132.0,0.0276
3131.0,0.0276
3130.0,0.0276
3129.0,0.0276
3128.0,0.0275
3127.0,0.0274
3126.0,0.0272
3125.0,0.0271
3124.0,0.0269
3123.0,0.0268
3122.0,0.0266
3121.0,0.0265
3120.0,0.0263
3119.0,0.0262
3118.0,0.0261
3117.0,0.0259
3116.0,0.0258
3115.0,0.0257
3114.0,0.0256
3113.0,0.0255
3112.0,0.0255
3111.0,0.0254
3110.0,0.0254
3109.0,0.0253
3108.0,0.0252
3107.0,0.0251
3106.0,0.025
3105.0,0.025
3104.0,0.025
3103.0,0.0249
3102.0,0.0249
3101.0,0.0248
3100.0,0.0246
3099.0,0.0245
3098.0,0.0243
3097.0,0.0241
3096.0,0.0239
3095.0,0.0238
3094.0,0.0237
3093.0,0.0236
3092.0,0.0236
3091.0,0.0235
3090.0,0.0234
3089.0,0.0234
3088.0,0.0234
3087.0,0.0234
3086.0,0.0234
3085.0,0.0234
3084.0,0.0234
3083.0,0.0233
3082.0,0.0232
3081.0,0.0232
3080.0,0.0231
3079.0,0.023
3078.0,0.0229
3077.0,0.0228
3076.0,0.0227
3075.0,0.0226
3074.0,0.0225
3073.0,0.0224
3072.0,0.0223
3071.0,0.0222
3070.0,0.0221
3069.0,0.022
3068.0,0.022
3067.0,0.022
3066.0,0.0219
3065.0,0.0218
3064.0,0.0218
3063.0,0.0217
3062.0,0.0216
3061.0,0.0215
3060.0,0.0214
3059.0,0.0213
3058.0,0.0213
3057.0,0.0213
3056.0,0.0213
3055.0,0.0212
3054.0,0.0211
3053.0,0.021
3052.0,0.0209
3051.0,0.0207
3050.0,0.0205
3049.0,0.0203
3048.0,0.0201
3047.0,0.0199
3046.0,0.0198
3045.0,0.0196
3044.0,0.0195
3043.0,0.0193
3042.0,0.0191
3041.0,0.0191
3040.0,0.019
3039.0,0.019
3038.0,0.0189
3037.0,0.0188
3036.0,0.0187
3035.0,0.0186
3034.0,0.0186
3033.0,0.0185
3032.0,0.0184
3031.0,0.0183
3030.0,0.0183
3029.0,0.0183
3028.0,0.0183
3027.0,0.0183
3026.0,0.0182
3025.0,0.0181
3024.0,0.018
3023.0,0.018
3022.0,0.018
3021.0,0.0181
3020.0,0.0182
3019.0,0.0182
3018.0,0.0181
3017.0,0.0181
3016.0,0.0181
3015.0,0.0182
3014.0,0.0183
3013.0,0.0184
3012.0,0.0184
3011.0,0.0184
3010.0,0.0184
3009.0,0.0184
3008.0,0.0184
3007.0,0.0185
3006.0,0.0185
3005.0,0.0186
3004.0,0.0187
3003.0,0.0188
3002.0,0.0189
3001.0,0.0189
3000.0,0.0188
2999.0,0.0187
2998.0,0.0187
2997.0,0.0187
2996.0,0.0187
2995.0,0.0187
2994.0,0.0187
2993.0,0.0187
2992.0,0.0188
2991.0,0.0188
2990.0,0.0189
2989.0,0.0191
2988.0,0.0192
2987.0,0.0193
2986.0,0.0194
2985.0,0.0194
2984.0,0.0195
2983.0,0.0196
2982.0,0.0197
2981.0,0.0199
2980.0,0.02
2979.0,0.0202
2978.0,0.0204
2977.0,0.0205
2976.0,0.0207
2975.0,0.0209
2974.0,0.021
2973.0,0.0211
2972.0,0.0212
2971.0,0.0213
2970.0,0.0214
2969.0,0.0216
2968.0,0.0217
2967.0,0.0219
2966.0,0.022
2965.0,0.0221
2964.0,0.0221
2963.0,0.0221
2962.0,0.0221
2961.0,0.0221
2960.0,0.022
2959.0,0.0219
2958.0,0.0218
2957.0,0.0216
2956.0,0.0215
2955.0,0.0215
2954.0,0.0214
2953.0,0.0212
2952.0,0.0211
2951.0,0.0209
2950.0,0.0206
2949.0,0.0203
2948.0,0.02
2947.0,0.0196
2946.0,0.0194
2945.0,0.0192
2944.0,0.019
2943.0,0.0188
2942.0,0.0186
2941.0,0.0184
2940.0,0.0181
2939.0,0.0179
2938.0,0.0177
2937.0,0.0175
2936.0,0.0174
2935.0,0.0174
2934.0,0.0173
2933.0,0.0172
2932.0,0.0172
2931.0,0.0171
2930.0,0.017
2929.0,0.0169
2928.0,0.0169
2927.0,0.0168
2926.0,0.0167
2925.0,0.0167
2924.0,0.0166
2923.0,0.0166
2922.0,0.0166
2921.0,0.0166
2920.0,0.0165
2919.0,0.0165
2918.0,0.0165
2917.0,0.0165
2916.0,0.0164
2915.0,0.0165
2914.0,0.0165
2913.0,0.0166
2912.0,0.0166
2911.0,0.0166
2910.0,0.0166
2909.0,0.0165
2908.0,0.0165
2907.0,0.0165
2906.0,0.0164
2905.0,0.0164
2904.0,0.0164
2903.0,0.0163
2902.0,0.0162
2901.0,0.0161
2900.0,0.0159
2899.0,0.0159
2898.0,0.0159
2897.0,0.016
2896.0,0.016
2895.0,0.0161
2894.0,0.0161
2893.0,0.0161
2892.0,0.016
2891.0,0.0159
2890.0,0.0159
2889.0,0.0159
2888.0,0.0158
2887.0,0.0158
2886.0,0.0156
2885.0,0.0155
2884.0,0.0153
2883.0,0.0153
2882.0,0.0152
2881.0,0.0152
2880.0,0.0151
2879.0,0.0151
2878.0,0.015
2877.0,0.015
2876.0,0.015
2875.0,0.015
2874.0,0.0149
2873.0,0.0148
2872.0,0.0148
2871.0,0.0148
2870.0,0.0147
2869.0,0.0147
2868.0,0.0147
2867.0,0.0146
2866.0,0.0146
2865.0,0.0145
2864.0,0.0145
2863.0,0.0145
2862.0,0.0144
2861.0,0.0144
2860.0,0.0144
2859.0,0.0144
2858.0,0.0143
2857.0,0.0143
2856.0,0.0143
2855.0,0.0142
2854.0,0.0141
2853.0,0.014
2852.0,0.0139
2851.0,0.0139
2850.0,0.0138
2849.0,0.0138
2848.0,0.0137
2847.0,0.0136
2846.0,0.0134
2845.0,0.0133
2844.0,0.0132
2843.0,0.0131
2842.0,0.013
2841.0,0.013
2840.0,0.0129
2839.0,0.0129
2838.0,0.0129
2837.0,0.0128
2836.0,0.0128
2835.0,0.0127
2834.0,0.0126
2833.0,0.0124
2832.0,0.0124
2831.0,0.0124
2830.0,0.0124
2829.0,0.0125
2828.0,0.0125
2827.0,0.0125
2826.0,0.0124
2825.0,0.0123
2824.0,0.0123
2823.0,0.0122
2822.0,0.0122
2821.0,0.0122
2820.0,0.0121
2819.0,0.0121
2818.0,0.0121
2817.0,0.012
2816.0,0.012
2815.0,0.012
2814.0,0.012
2813.0,0.0119
2812.0,0.012
2811.0,0.012
2810.0,0.012
2809.0,0.0121
2808.0,0.012
2807.0,0.012
2806.0,0.0119
2805.0,0.0119
2804.0,0.0118
2803.0,0.0118
2802.0,0.0117
2801.0,0.0117
2800.0,0.0117
2799.0,0.0117
2798.0,0.0117
2797.0,0.0117
2796.0,0.0116
2795.0,0.0116
2794.0,0.0115
2793.0,0.0115
2792.0,0.0115
2791.0,0.0115
2790.0,0.0115
2789.0,0.0115
2788.0,0.0114
2787.0,0.0114
2786.0,0.0113
2785.0,0.0113
2784.0,0.0113
2783.0,0.0112
2782.0,0.0113
2781.0,0.0113
2780.0,0.0113
2779.0,0.0114
2778.0,0.0113
2777.0,0.0113
2776.0,0.0113
2775.0,0.0112
2774.0,0.0112
2773.0,0.0112
2772.0,0.0111
2771.0,0.0111
2770.0,0.0111
2769.0,0.0111
2768.0,0.0111
2767.0,0.0111
2766.0,0.0111
2765.0,0.0111
2764.0,0.011
2763.0,0.011
2762.0,0.011
2761.0,0.011
2760.0,0.011
2759.0,0.011
2758.0,0.011
2757.0,0.011
2756.0,0.011
2755.0,0.0109
2754.0,0.0109
2753.0,0.0109
2752.0,0.0109
2751.0,0.0109
2750.0,0.0109
2749.0,0.0108
2748.0,0.0108
2747.0,0.0108
2746.0,0.0108
2745.0,0.0109
2744.0,0.0109
2743.0,0.0108
2742.0,0.0107
2741.0,0.0107
2740.0,0.0107
2739.0,0.0108
2738.0,0.0108
2737.0,0.0108
2736.0,0.0107
2735.0,0.0106
2734.0,0.0106
2733.0,0.0106
2732.0,0.0106
2731.0,0.0107
2730.0,0.0107
2729.0,0.0106
2728.0,0.0106
2727.0,0.0105
2726.0,0.0105
2725.0,0.0105
2724.0,0.0105
2723.0,0.0105
2722.0,0.0105
2721.0,0.0105
2720.0,0.0104
2719.0,0.0104
2718.0,0.0103
2717.0,0.0103
2716.0,0.0103
2715.0,0.0103
2714.0,0.0103
2713.0,0.0103
2712.0,0.0102
2711.0,0.0103
2710.0,0.0104
2709.0,0.0104
2708.0,0.0104
2707.0,0.0104
2706.0,0.0103
2705.0,0.0102
2704.0,0.0101
2703.0,0.0101
2702.0,0.01
2701.0,0.0101
2700.0,0.0101
2699.0,0.0101
2698.0,0.0101
2697.0,0.01
2696.0,0.01
2695.0,0.01
2694.0,0.01
2693.0,0.01
2692.0,0.01
2691.0,0.01
2690.0,0.01
2689.0,0.01
2688.0,0.0099
2687.0,0.0099
2686.0,0.0099
2685.0,0.0099
2684.0,0.01
2683.0,0.01
2682.0,0.01
2681.0,0.0099
2680.0,0.0099
2679.0,0.0098
2678.0,0.0098
2677.0,0.0097
2676.0,0.0097
2675.0,0.0097
2674.0,0.0097
2673.0,0.0098
2672.0,0.0098
2671.0,0.0098
2670.0,0.0098
2669.0,0.0098
2668.0,0.0097
2667.0,0.0097
2666.0,0.0097
2665.0,0.0097
2664.0,0.0096
2663.0,0.0096
2662.0,0.0095
2661.0,0.0095
2660.0,0.0096
2659.0,0.0096
2658.0,0.0096
2657.0,0.0096
2656.0,0.0095
2655.0,0.0095
2654.0,0.0095
2653.0,0.0094
2652.0,0.0094
2651.0,0.0094
2650.0,0.0094
2649.0,0.0094
2648.0,0.0094
2647.0,0.0094
2646.0,0.0094
2645.0,0.0095
2644.0,0.0095
2643.0,0.0095
2642.0,0.0095
2641.0,0.0095
2640.0,0.0095
2639.0,0.0096
2638.0,0.0096
2637.0,0.0096
2636.0,0.0095
2635.0,0.0095
2634.0,0.0095
2633.0,0.0095
2632.0,0.0095
2631.0,0.0095
2630.0,0.0095
2629.0,0.0095
2628.0,0.0095
2627.0,0.0096
2626.0,0.0096
2625.0,0.0096
2624.0,0.0096
2623.0,0.0095
2622.0,0.0095
2621.0,0.0095
2620.0,0.0095
2619.0,0.0094
2618.0,0.0094
2617.0,0.0095
2616.0,0.0095
2615.0,0.0095
2614.0,0.0095
2613.0,0.0094
2612.0,0.0093
2611.0,0.0093
2610.0,0.0093
2609.0,0.0093
2608.0,0.0094
2607.0,0.0095
2606.0,0.0095
2605.0,0.0095
2604.0,0.0095
2603.0,0.0094
2602.0,0.0094
2601.0,0.0093
2600.0,0.0092
2599.0,0.0092
2598.0,0.0092
2597.0,0.0093
2596.0,0.0094
2595.0,0.0095
2594.0,0.0095
2593.0,0.0095
2592.0,0.0095
2591.0,0.0095
2590.0,0.0095
2589.0,0.0094
2588.0,0.0094
2587.0,0.0094
2586.0,0.0093
2585.0,0.0093
2584.0,0.0093
2583.0,0.0093
2582.0,0.0094
2581.0,0.0094
2580.0,0.0095
2579.0,0.0095
2578.0,0.0094
2577.0,0.0094
2576.0,0.0094
2575.0,0.0094
2574.0,0.0093
2573.0,0.0093
2572.0,0.0093
2571.0,0.0093
2570.0,0.0093
2569.0,0.0093
2568.0,0.0093
2567.0,0.0093
2566.0,0.0093
2565.0,0.0093
2564.0,0.0093
2563.0,0.0092
2562.0,0.0092
2561.0,0.0092
2560.0,0.0092
2559.0,0.0093
2558.0,0.0093
2557.0,0.0092
2556.0,0.0092
2555.0,0.0092
2554.0,0.0093
2553.0,0.0093
2552.0,0.0094
2551.0,0.0094
2550.0,0.0094
2549.0,0.0094
2548.0,0.0093
2547.0,0.0093
2546.0,0.0093
2545.0,0.0093
2544.0,0.0093
2543.0,0.0093
2542.0,0.0093
2541.0,0.0093
2540.0,0.0093
2539.0,0.0093
2538.0,0.0093
2537.0,0.0093
2536.0,0.0092
2535.0,0.0092
2534.0,0.0092
2533.0,0.0092
2532.0,0.0093
2531.0,0.0092
2530.0,0.0092
2529.0,0.0092
2528.0,0.0092
2527.0,0.0092
2526.0,0.0092
2525.0,0.0092
2524.0,0.0091
2523.0,0.0091
2522.0,0.0091
2521.0,0.0091
2520.0,0.0091
2519.0,0.0091
2518.0,0.0092
2517.0,0.0092
2516.0,0.0092
2515.0,0.0092
2514.0,0.0092
2513.0,0.0092
2512.0,0.0091
2511.0,0.009
2510.0,0.009
2509.0,0.0089
2508.0,0.009
2507.0,0.0091
2506.0,0.0091
2505.0,0.0092
2504.0,0.0092
2503.0,0.0091
2502.0,0.0091
2501.0,0.009
2500.0,0.009
2499.0,0.009
2498.0,0.009
2497.0,0.009
2496.0,0.0091
2495.0,0.0091
2494.0,0.0091
2493.0,0.009
2492.0,0.0089
2491.0,0.0089
2490.0,0.0089
2489.0,0.0089
2488.0,0.0089
2487.0,0.009
2486.0,0.009
2485.0,0.009
2484.0,0.009
2483.0,0.0089
2482.0,0.0089
2481.0,0.0089
2480.0,0.0088
2479.0,0.0088
2478.0,0.0088
2477.0,0.0088
2476.0,0.0088
2475.0,0.0088
2474.0,0.0088
2473.0,0.0087
2472.0,0.0087
2471.0,0.0087
2470.0,0.0087
2469.0,0.0086
2468.0,0.0086
2467.0,0.0086
2466.0,0.0087
2465.0,0.0087
2464.0,0.0087
2463.0,0.0087
2462.0,0.0087
2461.0,0.0088
2460.0,0.0088
2459.0,0.0088
2458.0,0.0087
2457.0,0.0087
2456.0,0.0087
2455.0,0.0086
2454.0,0.0086
2453.0,0.0086
2452.0,0.0086
2451.0,0.0086
2450.0,0.0087
2449.0,0.0087
2448.0,0.0087
2447.0,0.0087
2446.0,0.0087
2445.0,0.0087
2444.0,0.0087
2443.0,0.0087
2442.0,0.0087
2441.0,0.0086
2440.0,0.0086
2439.0,0.0086
2438.0,0.0086
2437.0,0.0086
2436.0,0.0085
2435.0,0.0086
2434.0,0.0086
2433.0,0.0086
2432.0,0.0087
2431.0,0.0087
2430.0,0.0087
2429.0,0.0087
2428.0,0.0087
2427.0,0.0087
2426.0,0.0087
2425.0,0.0088
2424.0,0.0088
2423.0,0.0089
2422.0,0.0089
2421.0,0.0088
2420.0,0.0088
2419.0,0.0088
2418.0,0.0088
2417.0,0.0088
2416.0,0.0088
2415.0,0.0088
2414.0,0.0088
2413.0,0.0088
2412.0,0.0088
2411.0,0.0088
2410.0,0.0088
2409.0,0.0089
2408.0,0.0089
2407.0,0.0089
2406.0,0.0089
2405.0,0.0089
2404.0,0.009
2403.0,0.009
2402.0,0.0091
2401.0,0.0091
2400.0,0.0091
2399.0,0.0091
2398.0,0.0091
2397.0,0.009
2396.0,0.009
2395.0,0.009
2394.0,0.009
2393.0,0.0091
2392.0,0.0091
2391.0,0.009
2390.0,0.0089
2389.0,0.0087
2388.0,0.0085
2387.0,0.0082
2386.0,0.0079
2385.0,0.0076
2384.0,0.0073
2383.0,0.0072
2382.0,0.0071
2381.0,0.0071
2380.0,0.007
2379.0,0.0069
2378.0,0.0066
2377.0,0.0064
2376.0,0.0062
2375.0,0.0062
2374.0,0.0061
2373.0,0.0059
2372.0,0.0056
2371.0,0.0053
2370.0,0.005
2369.0,0.0049
2368.0,0.005
2367.0,0.005
2366.0,0.0051
2365.0,0.0058
2364.0,0.0072
2363.0,0.0086
2362.0,0.0085
2361.0,0.0067
2360.0,0.0042
2359.0,0.0028
2358.0,0.0029
2357.0,0.0036
2356.0,0.0035
2355.0,0.0028
2354.0,0.0025
2353.0,0.0029
2352.0,0.0036
2351.0,0.0039
2350.0,0.0039
2349.0,0.0038
2348.0,0.0037
2347.0,0.0037
2346.0,0.0037
2345.0,0.0041
2344.0,0.0048
2343.0,0.0051
2342.0,0.0047
2341.0,0.004
2340.0,0.0033
2339.0,0.0026
2338.0,0.002
2337.0,0.0017
2336.0,0.002
2335.0,0.0027
2334.0,0.0035
2333.0,0.004
2332.0,0.0041
2331.0,0.0038
2330.0,0.0032
2329.0,0.0028
2328.0,0.0026
2327.0,0.0026
2326.0,0.003
2325.0,0.0036
2324.0,0.0045
2323.0,0.0051
2322.0,0.0055
2321.0,0.0056
2320.0,0.0055
2319.0,0.0053
2318.0,0.0052
2317.0,0.0051
2316.0,0.0052
2315.0,0.0053
2314.0,0.0053
2313.0,0.0051
2312.0,0.0048
2311.0,0.0044
2310.0,0.0043
2309.0,0.0044
2308.0,0.0047
2307.0,0.0051
2306.0,0.0055
2305.0,0.0057
2304.0,0.0059
2303.0,0.006
2302.0,0.006
2301.0,0.0061
2300.0,0.0062
2299.0,0.0063
2298.0,0.0063
2297.0,0.0064
2296.0,0.0065
2295.0,0.0068
2294.0,0.007
2293.0,0.0072
2292.0,0.0075
2291.0,0.0077
2290.0,0.0079
2289.0,0.0081
2288.0,0.0083
2287.0,0.0085
2286.0,0.0086
2285.0,0.0087
2284.0,0.0087
2283.0,0.0087
2282.0,0.0087
2281.0,0.0087
2280.0,0.0087
2279.0,0.0087
2278.0,0.0087
2277.0,0.0087
2276.0,0.0087
2275.0,0.0086
2274.0,0.0086
2273.0,0.0085
2272.0,0.0085
2271.0,0.0084
2270.0,0.0085
2269.0,0.0085
2268.0,0.0085
2267.0,0.0085
2266.0,0.0085
2265.0,0.0086
2264.0,0.0086
2263.0,0.0087
2262.0,0.0087
2261.0,0.0087
2260.0,0.0088
2259.0,0.0088
2258.0,0.0088
2257.0,0.0088
2256.0,0.0089
2255.0,0.0089
2254.0,0.0088
2253.0,0.0088
2252.0,0.0088
2251.0,0.0088
2250.0,0.0089
2249.0,0.0088
2248.0,0.0088
2247.0,0.0088
2246.0,0.0088
2245.0,0.0088
2244.0,0.0088
2243.0,0.0088
2242.0,0.0088
2241.0,0.0088
2240.0,0.0088
2239.0,0.0088
2238.0,0.0088
2237.0,0.0089
2236.0,0.0089
2235.0,0.0089
2234.0,0.0089
2233.0,0.0088
2232.0,0.0088
2231.0,0.0087
2230.0,0.0086
2229.0,0.0086
2228.0,0.0086
2227.0,0.0086
2226.0,0.0086
2225.0,0.0086
2224.0,0.0086
2223.0,0.0086
2222.0,0.0085
2221.0,0.0085
2220.0,0.0084
2219.0,0.0084
2218.0,0.0085
2217.0,0.0084
2216.0,0.0084
2215.0,0.0083
2214.0,0.0083
2213.0,0.0083
2212.0,0.0083
2211.0,0.0083
2210.0,0.0084
2209.0,0.0083
2208.0,0.0083
2207.0,0.0082
2206.0,0.0082
2205.0,0.0081
2204.0,0.0081
2203.0,0.0081
2202.0,0.0082
2201.0,0.0082
2200.0,0.0082
2199.0,0.0082
2198.0,0.0081
2197.0,0.0081
2196.0,0.0081
2195.0,0.0081
2194.0,0.0081
2193.0,0.008
2192.0,0.0079
2191.0,0.0079
2190.0,0.0079
2189.0,0.0079
2188.0,0.0079
2187.0,0.0078
2186.0,0.0078
2185.0,0.0077
2184.0,0.0077
2183.0,0.0077
2182.0,0.0077
2181.0,0.0077
2180.0,0.0077
2179.0,0.0077
2178.0,0.0076
2177.0,0.0076
2176.0,0.0076
2175.0,0.0076
2174.0,0.0077
2173.0,0.0077
2172.0,0.0077
2171.0,0.0077
2170.0,0.0077
2169.0,0.0076
2168.0,0.0076
2167.0,0.0076
2166.0,0.0076
2165.0,0.0076
2164.0,0.0076
2163.0,0.0076
2162.0,0.0076
2161.0,0.0076
2160.0,0.0076
2159.0,0.0076
2158.0,0.0076
2157.0,0.0076
2156.0,0.0075
2155.0,0.0075
2154.0,0.0075
2153.0,0.0075
2152.0,0.0075
2151.0,0.0075
2150.0,0.0075
2149.0,0.0075
2148.0,0.0074
2147.0,0.0074
2146.0,0.0074
2145.0,0.0074
2144.0,0.0074
2143.0,0.0074
2142.0,0.0074
2141.0,0.0074
2140.0,0.0074
2139.0,0.0075
2138.0,0.0075
2137.0,0.0075
2136.0,0.0074
2135.0,0.0074
2134.0,0.0074
2133.0,0.0075
2132.0,0.0075
2131.0,0.0075
2130.0,0.0075
2129.0,0.0075
2128.0,0.0075
2127.0,0.0074
2126.0,0.0073
2125.0,0.0073
2124.0,0.0074
2123.0,0.0074
2122.0,0.0074
2121.0,0.0074
2120.0,0.0074
2119.0,0.0074
2118.0,0.0074
2117.0,0.0075
2116.0,0.0075
2115.0,0.0075
2114.0,0.0075
2113.0,0.0074
2112.0,0.0074
2111.0,0.0074
2110.0,0.0073
2109.0,0.0073
2108.0,0.0073
2107.0,0.0073
2106.0,0.0073
2105.0,0.0073
2104.0,0.0073
2103.0,0.0073
2102.0,0.0073
2101.0,0.0073
2100.0,0.0073
2099.0,0.0073
2098.0,0.0073
2097.0,0.0073
2096.0,0.0072
2095.0,0.0072
2094.0,0.0071
2093.0,0.007
2092.0,0.007
2091.0,0.0071
2090.0,0.0071
2089.0,0.0071
2088.0,0.0071
2087.0,0.007
2086.0,0.0069
2085.0,0.0069
2084.0,0.0069
2083.0,0.0069
2082.0,0.007
2081.0,0.007
2080.0,0.007
2079.0,0.007
2078.0,0.0069
2077.0,0.0068
2076.0,0.0068
2075.0,0.0067
2074.0,0.0067
2073.0,0.0067
2072.0,0.0067
2071.0,0.0067
2070.0,0.0066
2069.0,0.0066
2068.0,0.0065
2067.0,0.0065
2066.0,0.0065
2065.0,0.0064
2064.0,0.0064
2063.0,0.0064
2062.0,0.0064
2061.0,0.0064
2060.0,0.0063
2059.0,0.0062
2058.0,0.0061
2057.0,0.0061
2056.0,0.006
2055.0,0.006
2054.0,0.006
2053.0,0.0059
2052.0,0.0059
2051.0,0.006
2050.0,0.006
2049.0,0.006
2048.0,0.0059
2047.0,0.0059
2046.0,0.0058
2045.0,0.0057
2044.0,0.0057
2043.0,0.0056
2042.0,0.0056
2041.0,0.0055
2040.0,0.0056
2039.0,0.0056
2038.0,0.0056
2037.0,0.0056
2036.0,0.0056
2035.0,0.0056
2034.0,0.0056
2033.0,0.0055
2032.0,0.0055
2031.0,0.0054
2030.0,0.0053
2029.0,0.0053
2028.0,0.0052
2027.0,0.0052
2026.0,0.0052
2025.0,0.0051
2024.0,0.0051
2023.0,0.0052
2022.0,0.0052
2021.0,0.0052
2020.0,0.0052
2019.0,0.0052
2018.0,0.0052
2017.0,0.0051
2016.0,0.0051
2015.0,0.0051
2014.0,0.005
2013.0,0.005
2012.0,0.005
2011.0,0.005
2010.0,0.005
2009.0,0.005
2008.0,0.0049
2007.0,0.0049
2006.0,0.0048
2005.0,0.0048
2004.0,0.0048
2003.0,0.0049
2002.0,0.0049
2001.0,0.0049
2000.0,0.0049
1999.0,0.0049
1998.0,0.0049
1997.0,0.0049
1996.0,0.005
1995.0,0.005
1994.0,0.005
1993.0,0.005
1992.0,0.0051
1991.0,0.0051
1990.0,0.0051
1989.0,0.0051
1988.0,0.0051
1987.0,0.0051
1986.0,0.0051
1985.0,0.005
1984.0,0.005
1983.0,0.005
1982.0,0.005
1981.0,0.005
1980.0,0.005
1979.0,0.005
1978.0,0.005
1977.0,0.005
1976.0,0.0051
1975.0,0.0051
1974.0,0.0051
1973.0,0.0052
1972.0,0.0052
1971.0,0.0052
1970.0,0.0052
1969.0,0.0053
1968.0,0.0053
1967.0,0.0053
1966.0,0.0053
1965.0,0.0053
1964.0,0.0053
1963.0,0.0054
1962.0,0.0054
1961.0,0.0055
1960.0,0.0056
1959.0,0.0057
1958.0,0.0057
1957.0,0.0058
1956.0,0.0059
1955.0,0.0059
1954.0,0.0059
1953.0,0.0059
1952.0,0.0059
1951.0,0.0058
1950.0,0.0058
1949.0,0.0058
1948.0,0.0058
1947.0,0.0057
1946.0,0.0057
1945.0,0.0057
1944.0,0.0057
1943.0,0.0056
1942.0,0.0055
1941.0,0.0053
1940.0,0.0052
1939.0,0.005
1938.0,0.0049
1937.0,0.0048
1936.0,0.0047
1935.0,0.0046
1934.0,0.0046
1933.0,0.0045
1932.0,0.0043
1931.0,0.0042
1930.0,0.0042
1929.0,0.0041
1928.0,0.004
1927.0,0.004
1926.0,0.0039
1925.0,0.0038
1924.0,0.0037
1923.0,0.0036
1922.0,0.0036
1921.0,0.0035
1920.0,0.0034
1919.0,0.0033
1918.0,0.0033
1917.0,0.0032
1916.0,0.0031
1915.0,0.0031
1914.0,0.0031
1913.0,0.003
1912.0,0.003
1911.0,0.003
1910.0,0.0029
1909.0,0.0029
1908.0,0.0028
1907.0,0.0027
1906.0,0.0026
1905.0,0.0025
1904.0,0.0025
1903.0,0.0024
1902.0,0.0023
1901.0,0.0022
1900.0,0.0022
1899.0,0.0022
1898.0,0.0022
1897.0,0.0022
1896.0,0.0021
1895.0,0.002
1894.0,0.002
1893.0,0.0019
1892.0,0.0019
1891.0,0.0018
1890.0,0.0018
1889.0,0.0017
1888.0,0.0016
1887.0,0.0015
1886.0,0.0015
1885.0,0.0015
1884.0,0.0014
1883.0,0.0014
1882.0,0.0013
1881.0,0.0012
1880.0,0.0012
1879.0,0.0011
1878.0,0.0011
1877.0,0.0011
1876.0,0.001
1875.0,0.001
1874.0,0.001
1873.0,0.0009
1872.0,0.0009
1871.0,0.0009
1870.0,0.0009
1869.0,0.0009
1868.0,0.0009
1867.0,0.0009
1866.0,0.0008
1865.0,0.0007
1864.0,0.0007
1863.0,0.0006
1862.0,0.0005
1861.0,0.0004
1860.0,0.0004
1859.0,0.0004
1858.0,0.0004
1857.0,0.0004
1856.0,0.0004
1855.0,0.0004
1854.0,0.0003
1853.0,0.0003
1852.0,0.0002
1851.0,0.0002
1850.0,0.0002
1849.0,0.0002
1848.0,0.0002
1847.0,0.0003
1846.0,0.0002
1845.0,0.0002
1844.0,0.0001
1843.0,0.0001
1842.0,0.0001
1841.0,0.0001
1840.0,0.0002
1839.0,0.0003
1838.0,0.0003
1837.0,0.0003
1836.0,0.0002
1835.0,0.0002
1834.0,0.0003
1833.0,0.0003
1832.0,0.0004
1831.0,0.0004
1830.0,0.0004
1829.0,0.0004
1828.0,0.0004
1827.0,0.0004
1826.0,0.0003
1825.0,0.0002
1824.0,0.0
1823.0,-0.0
1822.0,-0.0001
1821.0,-0.0001
1820.0,-0.0002
1819.0,-0.0002
1818.0,-0.0002
1817.0,-0.0003
1816.0,-0.0004
1815.0,-0.0005
1814.0,-0.0005
1813.0,-0.0005
1812.0,-0.0005
1811.0,-0.0006
1810.0,-0.0007
1809.0,-0.0008
1808.0,-0.0009
1807.0,-0.001
1806.0,-0.0011
1805.0,-0.0012
1804.0,-0.0013
1803.0,-0.0014
1802.0,-0.0015
1801.0,-0.0016
1800.0,-0.0018
1799.0,-0.0019
1798.0,-0.002
1797.0,-0.0021
1796.0,-0.0022
1795.0,-0.0022
1794.0,-0.0022
1793.0,-0.0024
1792.0,-0.0026
1791.0,-0.0027
1790.0,-0.0028
1789.0,-0.0028
1788.0,-0.0029
1787.0,-0.0029
1786.0,-0.003
1785.0,-0.0032
1784.0,-0.0032
1783.0,-0.0032
1782.0,-0.0031
1781.0,-0.0032
1780.0,-0.0033
1779.0,-0.0034
1778.0,-0.0034
1777.0,-0.0034
1776.0,-0.0034
1775.0,-0.0033
1774.0,-0.0033
1773.0,-0.0034
1772.0,-0.0035
1771.0,-0.0034
1770.0,-0.0033
1769.0,-0.0033
1768.0,-0.0033
1767.0,-0.0032
1766.0,-0.003
1765.0,-0.0029
1764.0,-0.0027
1763.0,-0.0025
1762.0,-0.0022
1761.0,-0.002
1760.0,-0.0018
1759.0,-0.0014
1758.0,-0.0009
1757.0,-0.0004
1756.0,0.0001
1755.0,0.0008
1754.0,0.0016
1753.0,0.0024
1752.0,0.0035
1751.0,0.0051
1750.0,0.007
1749.0,0.009
1748.0,0.0113
1747.0,0.0139
1746.0,0.0168
1745.0,0.0201
1744.0,0.024
1743.0,0.0284
1742.0,0.033
1741.0,0.038
1740.0,0.0441
1739.0,0.0503
1738.0,0.0554
1737.0,0.0593
1736.0,0.0635
1735.0,0.0705
1734.0,0.08
1733.0,0.088
1732.0,0.0937
1731.0,0.0993
1730.0,0.1056
1729.0,0.1121
1728.0,0.1183
1727.0,0.1242
1726.0,0.1301
1725.0,0.1364
1724.0,0.1429
1723.0,0.1494
1722.0,0.1551
1721.0,0.1596
1720.0,0.1633
1719.0,0.1677
1718.0,0.1731
1717.0,0.1779
1716.0,0.1803
1715.0,0.1811
1714.0,0.1806
1713.0,0.1786
1712.0,0.1749
1711.0,0.1699
1710.0,0.1639
1709.0,0.1573
1708.0,0.1503
1707.0,0.142
1706.0,0.1327
1705.0,0.1244
1704.0,0.1186
1703.0,0.1142
1702.0,0.1092
1701.0,0.1022
1700.0,0.0952
1699.0,0.0909
1698.0,0.0882
1697.0,0.0851
1696.0,0.0813
1695.0,0.078
1694.0,0.076
1693.0,0.0746
1692.0,0.0732
1691.0,0.0716
1690.0,0.0699
1689.0,0.0685
1688.0,0.0676
1687.0,0.0669
1686.0,0.0659
1685.0,0.0646
1684.0,0.0634
1683.0,0.0625
1682.0,0.0618
1681.0,0.0611
1680.0,0.0603
1679.0,0.0595
1678.0,0.0586
1677.0,0.0578
1676.0,0.057
1675.0,0.0562
1674.0,0.0556
1673.0,0.0552
1672.0,0.0548
1671.0,0.0542
1670.0,0.0535
1669.0,0.0529
1668.0,0.0526
1667.0,0.0522
1666.0,0.0517
1665.0,0.0512
1664.0,0.0507
1663.0,0.0502
1662.0,0.0498
1661.0,0.0496
1660.0,0.0494
1659.0,0.0492
1658.0,0.049
1657.0,0.0488
1656.0,0.0487
1655.0,0.0485
1654.0,0.0485
1653.0,0.0493
1652.0,0.0501
1651.0,0.0505
1650.0,0.0508
1649.0,0.0513
1648.0,0.0524
1647.0,0.0542
1646.0,0.0559
1645.0,0.0571
1644.0,0.0581
1643.0,0.0591
1642.0,0.06
1641.0,0.061
1640.0,0.0618
1639.0,0.0623
1638.0,0.0624
1637.0,0.062
1636.0,0.0613
1635.0,0.0601
1634.0,0.0588
1633.0,0.0574
1632.0,0.0561
1631.0,0.0546
1630.0,0.0531
1629.0,0.0515
1628.0,0.0499
1627.0,0.0485
1626.0,0.0472
1625.0,0.0459
1624.0,0.0447
1623.0,0.0435
1622.0,0.0427
1621.0,0.0421
1620.0,0.0416
1619.0,0.0412
1618.0,0.0409
1617.0,0.0409
1616.0,0.0412
1615.0,0.0412
1614.0,0.0409
1613.0,0.0406
1612.0,0.0401
1611.0,0.0396
1610.0,0.039
1609.0,0.0383
1608.0,0.0376
1607.0,0.0369
1606.0,0.0361
1605.0,0.0354
1604.0,0.0347
1603.0,0.034
1602.0,0.0334
1601.0,0.0327
1600.0,0.0321
1599.0,0.0315
1598.0,0.031
1597.0,0.0305
1596.0,0.03
1595.0,0.0295
1594.0,0.0291
1593.0,0.0288
1592.0,0.0285
1591.0,0.0282
1590.0,0.0279
1589.0,0.0276
1588.0,0.0274
1587.0,0.0272
1586.0,0.0272
1585.0,0.0274
1584.0,0.0279
1583.0,0.0286
1582.0,0.0295
1581.0,0.0304
1580.0,0.0313
1579.0,0.0318
1578.0,0.0318
1577.0,0.0314
1576.0,0.0305
1575.0,0.0295
1574.0,0.0287
1573.0,0.0279
1572.0,0.0271
1571.0,0.0261
1570.0,0.0251
1569.0,0.0242
1568.0,0.0236
1567.0,0.0231
1566.0,0.0226
1565.0,0.0221
1564.0,0.0216
1563.0,0.0212
1562.0,0.0209
1561.0,0.0208
1560.0,0.0207
1559.0,0.0203
1558.0,0.0198
1557.0,0.0194
1556.0,0.0191
1555.0,0.0188
1554.0,0.0186
1553.0,0.0184
1552.0,0.0183
1551.0,0.0181
1550.0,0.0178
1549.0,0.0176
1548.0,0.0174
1547.0,0.0173
1546.0,0.0172
1545.0,0.0171
1544.0,0.017
1543.0,0.0168
1542.0,0.0166
1541.0,0.0164
1540.0,0.0164
1539.0,0.0162
1538.0,0.016
1537.0,0.016
1536.0,0.0159
1535.0,0.0159
1534.0,0.0159
1533.0,0.0159
1532.0,0.0159
1531.0,0.0159
1530.0,0.0159
1529.0,0.0159
1528.0,0.0158
1527.0,0.0156
1526.0,0.0154
1525.0,0.0153
1524.0,0.0153
1523.0,0.0152
1522.0,0.015
1521.0,0.0147
1520.0,0.0145
1519.0,0.0143
1518.0,0.0141
1517.0,0.014
1516.0,0.0138
1515.0,0.0137
1514.0,0.0138
1513.0,0.014
1512.0,0.0145
1511.0,0.0152
1510.0,0.016
1509.0,0.0173
1508.0,0.0201
1507.0,0.0249
1506.0,0.0282
1505.0,0.0286
1504.0,0.0277
1503.0,0.026
1502.0,0.024
1501.0,0.0218
1500.0,0.0197
1499.0,0.0179
1498.0,0.0163
1497.0,0.015
1496.0,0.014
1495.0,0.0134
1494.0,0.0129
1493.0,0.0127
1492.0,0.0126
1491.0,0.0125
1490.0,0.0124
1489.0,0.0124
1488.0,0.0126
1487.0,0.0128
1486.0,0.0131
1485.0,0.0135
1484.0,0.014
1483.0,0.0146
1482.0,0.0152
1481.0,0.0159
1480.0,0.0166
1479.0,0.0171
1478.0,0.0175
1477.0,0.018
1476.0,0.0185
1475.0,0.0188
1474.0,0.0189
1473.0,0.0191
1472.0,0.0193
1471.0,0.0194
1470.0,0.0195
1469.0,0.0196
1468.0,0.0197
1467.0,0.02
1466.0,0.0205
1465.0,0.0213
1464.0,0.0222
1463.0,0.023
1462.0,0.0237
1461.0,0.0244
1460.0,0.0251
1459.0,0.0258
1458.0,0.0268
1457.0,0.028
1456.0,0.0287
1455.0,0.029
1454.0,0.0292
1453.0,0.0292
1452.0,0.029
1451.0,0.0288
1450.0,0.0285
1449.0,0.0281
1448.0,0.0276
1447.0,0.0272
1446.0,0.0269
1445.0,0.0267
1444.0,0.0265
1443.0,0.0263
1442.0,0.0261
1441.0,0.0259
1440.0,0.0257
1439.0,0.0253
1438.0,0.0247
1437.0,0.0238
1436.0,0.0227
1435.0,0.0218
1434.0,0.0209
1433.0,0.0199
1432.0,0.0188
1431.0,0.0175
1430.0,0.0162
1429.0,0.0151
1428.0,0.0142
1427.0,0.0136
1426.0,0.0132
1425.0,0.0129
1424.0,0.0127
1423.0,0.0126
1422.0,0.0127
1421.0,0.0131
1420.0,0.0142
1419.0,0.0162
1418.0,0.0188
1417.0,0.0218
1416.0,0.0254
1415.0,0.0299
1414.0,0.0354
1413.0,0.0421
1412.0,0.0493
1411.0,0.0562
1410.0,0.0615
1409.0,0.0649
1408.0,0.066
1407.0,0.0647
1406.0,0.0614
1405.0,0.0567
1404.0,0.052
1403.0,0.0479
1402.0,0.0445
1401.0,0.0415
1400.0,0.0385
1399.0,0.0357
1398.0,0.0333
1397.0,0.0315
1396.0,0.0298
1395.0,0.0281
1394.0,0.0266
1393.0,0.0255
1392.0,0.0246
1391.0,0.0238
1390.0,0.0231
1389.0,0.0225
1388.0,0.0219
1387.0,0.0216
1386.0,0.0213
1385.0,0.0213
1384.0,0.0214
1383.0,0.0216
1382.0,0.0219
1381.0,0.0224
1380.0,0.023
1379.0,0.0238
1378.0,0.0245
1377.0,0.0253
1376.0,0.0262
1375.0,0.0271
1374.0,0.0279
1373.0,0.0284
1372.0,0.0287
1371.0,0.0287
1370.0,0.0284
1369.0,0.0277
1368.0,0.0267
1367.0,0.0255
1366.0,0.0241
1365.0,0.0226
1364.0,0.0208
1363.0,0.019
1362.0,0.0173
1361.0,0.0161
1360.0,0.0153
1359.0,0.0148
1358.0,0.0144
1357.0,0.0141
1356.0,0.0141
1355.0,0.0142
1354.0,0.0145
1353.0,0.0151
1352.0,0.0159
1351.0,0.017
1350.0,0.0185
1349.0,0.0203
1348.0,0.0225
1347.0,0.0251
1346.0,0.0282
1345.0,0.0317
1344.0,0.0355
1343.0,0.0392
1342.0,0.0428
1341.0,0.046
1340.0,0.0485
1339.0,0.0495
1338.0,0.0486
1337.0,0.0461
1336.0,0.0423
1335.0,0.0377
1334.0,0.0328
1333.0,0.0281
1332.0,0.0239
1331.0,0.0204
1330.0,0.0177
1329.0,0.0159
1328.0,0.0147
1327.0,0.0141
1326.0,0.0139
1325.0,0.014
1324.0,0.0143
1323.0,0.0148
1322.0,0.0154
1321.0,0.0161
1320.0,0.0169
1319.0,0.0177
1318.0,0.0186
1317.0,0.0195
1316.0,0.0204
1315.0,0.0213
1314.0,0.0224
1313.0,0.0236
1312.0,0.0248
1311.0,0.0262
1310.0,0.0275
1309.0,0.0289
1308.0,0.0304
1307.0,0.0318
1306.0,0.0332
1305.0,0.0345
1304.0,0.0359
1303.0,0.0375
1302.0,0.0393
1301.0,0.0415
1300.0,0.044
1299.0,0.0469
1298.0,0.05
1297.0,0.0534
1296.0,0.0568
1295.0,0.0603
1294.0,0.0637
1293.0,0.0671
1292.0,0.0704
1291.0,0.0736
1290.0,0.0766
1289.0,0.0796
1288.0,0.0824
1287.0,0.0851
1286.0,0.0876
1285.0,0.09
1284.0,0.0922
1283.0,0.0942
1282.0,0.0961
1281.0,0.0979
1280.0,0.0996
1279.0,0.1014
1278.0,0.1031
1277.0,0.1049
1276.0,0.1071
1275.0,0.1096
1274.0,0.1125
1273.0,0.1161
1272.0,0.1203
1271.0,0.1252
1270.0,0.1304
1269.0,0.1361
1268.0,0.1421
1267.0,0.1481
1266.0,0.154
1265.0,0.1595
1264.0,0.1648
1263.0,0.1695
1262.0,0.1734
1261.0,0.1767
1260.0,0.1794
1259.0,0.1813
1258.0,0.1826
1257.0,0.1836
1256.0,0.1845
1255.0,0.1857
1254.0,0.1871
1253.0,0.189
1252.0,0.1915
1251.0,0.1943
1250.0,0.1974
1249.0,0.2009
1248.0,0.2047
1247.0,0.2085
1246.0,0.2121
1245.0,0.2155
1244.0,0.2187
1243.0,0.2211
1242.0,0.2227
1241.0,0.2235
1240.0,0.2234
1239.0,0.2222
1238.0,0.2199
1237.0,0.2167
1236.0,0.2125
1235.0,0.2075
1234.0,0.2018
1233.0,0.1956
1232.0,0.1892
1231.0,0.1827
1230.0,0.176
1229.0,0.1696
1228.0,0.1634
1227.0,0.1573
1226.0,0.1512
1225.0,0.1454
1224.0,0.1397
1223.0,0.1343
1222.0,0.1291
1221.0,0.1241
1220.0,0.1193
1219.0,0.1147
1218.0,0.1104
1217.0,0.1063
1216.0,0.1027
1215.0,0.0992
1214.0,0.0959
1213.0,0.0927
1212.0,0.0898
1211.0,0.087
1210.0,0.0844
1209.0,0.082
1208.0,0.0797
1207.0,0.0776
1206.0,0.0756
1205.0,0.0737
1204.0,0.0719
1203.0,0.07
1202.0,0.0683
1201.0,0.0666
1200.0,0.065
1199.0,0.0635
1198.0,0.062
1197.0,0.0605
1196.0,0.0591
1195.0,0.0577
1194.0,0.0564
1193.0,0.0551
1192.0,0.054
1191.0,0.0529
1190.0,0.0519
1189.0,0.051
1188.0,0.0502
1187.0,0.0495
1186.0,0.049
1185.0,0.0487
1184.0,0.0486
1183.0,0.0488
1182.0,0.0491
1181.0,0.0497
1180.0,0.0505
1179.0,0.0513
1178.0,0.0522
1177.0,0.053
1176.0,0.0536
1175.0,0.054
1174.0,0.054
1173.0,0.0537
1172.0,0.0529
1171.0,0.0517
1170.0,0.0503
1169.0,0.0487
1168.0,0.0472
1167.0,0.0458
1166.0,0.0447
1165.0,0.0438
1164.0,0.0431
1163.0,0.0425
1162.0,0.0422
1161.0,0.0419
1160.0,0.0418
1159.0,0.0417
1158.0,0.0418
1157.0,0.0419
1156.0,0.0422
1155.0,0.0427
1154.0,0.0433
1153.0,0.0442
1152.0,0.0453
1151.0,0.0466
1150.0,0.048
1149.0,0.0495
1148.0,0.0512
1147.0,0.053
1146.0,0.0549
1145.0,0.057
1144.0,0.0593
1143.0,0.0618
1142.0,0.0643
1141.0,0.0669
1140.0,0.0695
1139.0,0.0721
1138.0,0.0747
1137.0,0.0774
1136.0,0.0801
1135.0,0.0829
1134.0,0.0859
1133.0,0.0892
1132.0,0.0927
1131.0,0.0964
1130.0,0.1003
1129.0,0.1045
1128.0,0.1091
1127.0,0.114
1126.0,0.1191
1125.0,0.1244
1124.0,0.1298
1123.0,0.1353
1122.0,0.1406
1121.0,0.1456
1120.0,0.1504
1119.0,0.1545
1118.0,0.1577
1117.0,0.16
1116.0,0.1612
1115.0,0.1612
1114.0,0.1601
1113.0,0.1587
1112.0,0.1577
1111.0,0.1576
1110.0,0.1589
1109.0,0.1619
1108.0,0.1668
1107.0,0.1729
1106.0,0.18
1105.0,0.1877
1104.0,0.1959
1103.0,0.2039
1102.0,0.2115
1101.0,0.2187
1100.0,0.2256
1099.0,0.2316
1098.0,0.2368
1097.0,0.2412
1096.0,0.2447
1095.0,0.2472
1094.0,0.2485
1093.0,0.2489
1092.0,0.2484
1091.0,0.2469
1090.0,0.2446
1089.0,0.242
1088.0,0.2393
1087.0,0.2362
1086.0,0.2327
1085.0,0.2292
1084.0,0.2254
1083.0,0.221
1082.0,0.2161
1081.0,0.2107
1080.0,0.2049
1079.0,0.1985
1078.0,0.1916
1077.0,0.1845
1076.0,0.1773
1075.0,0.1702
1074.0,0.1633
1073.0,0.1567
1072.0,0.1506
1071.0,0.1449
1070.0,0.1394
1069.0,0.1345
1068.0,0.1301
1067.0,0.126
1066.0,0.1222
1065.0,0.1186
1064.0,0.1153
1063.0,0.1122
1062.0,0.1092
1061.0,0.1065
1060.0,0.1042
1059.0,0.1021
1058.0,0.1003
1057.0,0.0989
1056.0,0.098
1055.0,0.0973
1054.0,0.0968
1053.0,0.0966
1052.0,0.0968
1051.0,0.0971
1050.0,0.0976
1049.0,0.0981
1048.0,0.0988
1047.0,0.0994
1046.0,0.0998
1045.0,0.1001
1044.0,0.1001
1043.0,0.0999
1042.0,0.0994
1041.0,0.0987
1040.0,0.0979
1039.0,0.0969
1038.0,0.0957
1037.0,0.0945
1036.0,0.0932
1035.0,0.0918
1034.0,0.0905
1033.0,0.0892
1032.0,0.088
1031.0,0.0867
1030.0,0.0855
1029.0,0.0846
1028.0,0.0841
1027.0,0.0845
1026.0,0.0859
1025.0,0.089
1024.0,0.0942
1023.0,0.1018
1022.0,0.1119
1021.0,0.1241
1020.0,0.1373
1019.0,0.1498
1018.0,0.1595
1017.0,0.1644
1016.0,0.1634
1015.0,0.1568
1014.0,0.1466
1013.0,0.1352
1012.0,0.1245
1011.0,0.1154
1010.0,0.1079
1009.0,0.1018
1008.0,0.097
1007.0,0.093
1006.0,0.0897
1005.0,0.087
1004.0,0.0848
1003.0,0.0828
1002.0,0.0811
1001.0,0.0796
1000.0,0.0783
999.0,0.0771
998.0,0.0759
997.0,0.0749
996.0,0.0741
995.0,0.0733
994.0,0.0726
993.0,0.0719
992.0,0.0714
991.0,0.0709
990.0,0.0704
989.0,0.0701
988.0,0.0699
987.0,0.0697
986.0,0.0698
985.0,0.07
984.0,0.0703
983.0,0.0707
982.0,0.071
981.0,0.0715
980.0,0.072
979.0,0.0726
978.0,0.0732
977.0,0.074
976.0,0.0747
975.0,0.0752
974.0,0.0756
973.0,0.0759
972.0,0.076
971.0,0.076
970.0,0.0757
969.0,0.0751
968.0,0.0745
967.0,0.0737
966.0,0.0727
965.0,0.0717
964.0,0.0707
963.0,0.0695
962.0,0.0684
961.0,0.0672
960.0,0.0661
959.0,0.065
958.0,0.064
957.0,0.0631
956.0,0.0622
955.0,0.0615
954.0,0.0608
953.0,0.0602
952.0,0.0596
951.0,0.059
950.0,0.0584
949.0,0.0578
948.0,0.0573
947.0,0.0569
946.0,0.0565
945.0,0.0561
944.0,0.0557
943.0,0.0553
942.0,0.0549
941.0,0.0545
940.0,0.0541
939.0,0.0538
938.0,0.0535
937.0,0.0533
936.0,0.0531
935.0,0.0528
934.0,0.0525
933.0,0.0523
932.0,0.052
931.0,0.0518
930.0,0.0515
929.0,0.0513
928.0,0.0511
927.0,0.0508
926.0,0.0505
925.0,0.0502
924.0,0.0499
923.0,0.0495
922.0,0.0492
921.0,0.0488
920.0,0.0486
919.0,0.0484
918.0,0.0482
917.0,0.0481
916.0,0.0482
915.0,0.0483
914.0,0.0486
913.0,0.049
912.0,0.0494
911.0,0.0498
910.0,0.0502
909.0,0.0509
908.0,0.0517
907.0,0.0526
906.0,0.0535
905.0,0.0545
904.0,0.0555
903.0,0.0565
902.0,0.0574
901.0,0.0583
900.0,0.059
899.0,0.0596
898.0,0.06
897.0,0.0601
896.0,0.0601
895.0,0.0599
894.0,0.0597
893.0,0.0594
892.0,0.0591
891.0,0.0588
890.0,0.0587
889.0,0.0588
888.0,0.0592
887.0,0.0598
886.0,0.0607
885.0,0.0621
884.0,0.064
883.0,0.0665
882.0,0.0696
881.0,0.0733
880.0,0.0776
879.0,0.0823
878.0,0.0876
877.0,0.0932
876.0,0.0989
875.0,0.1042
874.0,0.1083
873.0,0.1107
872.0,0.1109
871.0,0.1087
870.0,0.1047
869.0,0.0999
868.0,0.0951
867.0,0.0907
866.0,0.087
865.0,0.0841
864.0,0.0818
863.0,0.08
862.0,0.0785
861.0,0.0774
860.0,0.0766
859.0,0.0759
858.0,0.0753
857.0,0.0748
856.0,0.0745
855.0,0.0743
854.0,0.0741
853.0,0.074
852.0,0.0741
851.0,0.0743
850.0,0.0744
849.0,0.0745
848.0,0.0747
847.0,0.0748
846.0,0.0749
845.0,0.0748
844.0,0.0747
843.0,0.0744
842.0,0.0739
841.0,0.0734
840.0,0.0729
839.0,0.0724
838.0,0.0719
837.0,0.0712
836.0,0.0705
835.0,0.0696
834.0,0.0686
833.0,0.0676
832.0,0.0667
831.0,0.0658
830.0,0.065
829.0,0.0643
828.0,0.0636
827.0,0.0629
826.0,0.0624
825.0,0.0621
824.0,0.0617
823.0,0.0613
822.0,0.0609
821.0,0.0606
820.0,0.0605
819.0,0.0603
818.0,0.0602
817.0,0.0601
816.0,0.06
815.0,0.0599
814.0,0.0597
813.0,0.0597
812.0,0.0596
811.0,0.0595
810.0,0.0593
809.0,0.0591
808.0,0.0589
807.0,0.0587
806.0,0.0584
805.0,0.058
804.0,0.0576
803.0,0.0572
802.0,0.0569
801.0,0.0567
800.0,0.0567
799.0,0.0571
798.0,0.0583
797.0,0.0603
796.0,0.0629
795.0,0.0654
794.0,0.0672
793.0,0.0679
792.0,0.0677
791.0,0.0666
790.0,0.0651
789.0,0.0636
788.0,0.0621
787.0,0.0606
786.0,0.0592
785.0,0.0579
784.0,0.0568
783.0,0.0558
782.0,0.0549
781.0,0.0543
780.0,0.0539
779.0,0.0534
778.0,0.0528
777.0,0.0521
776.0,0.0515
775.0,0.051
774.0,0.0505
773.0,0.05
772.0,0.0494
771.0,0.0487
770.0,0.0478
769.0,0.0469
768.0,0.046
767.0,0.0451
766.0,0.0442
765.0,0.0434
764.0,0.0426
763.0,0.0418
762.0,0.041
761.0,0.0402
760.0,0.0395
759.0,0.0387
758.0,0.0378
757.0,0.037
756.0,0.0362
755.0,0.0354
754.0,0.0345
753.0,0.0336
752.0,0.0327
751.0,0.0319
750.0,0.031
749.0,0.0303
748.0,0.0298
747.0,0.0295
746.0,0.0295
745.0,0.03
744.0,0.0313
743.0,0.0336
742.0,0.0371
741.0,0.0424
740.0,0.0497
739.0,0.0589
738.0,0.0696
737.0,0.0817
736.0,0.0947
735.0,0.108
734.0,0.1218
733.0,0.1367
732.0,0.1529
731.0,0.1703
730.0,0.1887
729.0,0.2087
728.0,0.2301
727.0,0.2514
726.0,0.2701
725.0,0.284
724.0,0.2913
723.0,0.2912
722.0,0.2843
721.0,0.2727
720.0,0.2589
719.0,0.2448
718.0,0.2312
717.0,0.2184
716.0,0.2067
715.0,0.1963
714.0,0.1875
713.0,0.1803
712.0,0.1745
711.0,0.1697
710.0,0.1654
709.0,0.1616
708.0,0.158
707.0,0.1543
706.0,0.1507
705.0,0.1473
704.0,0.1445
703.0,0.1421
702.0,0.1395
701.0,0.1365
700.0,0.1331
699.0,0.1294
698.0,0.1257
697.0,0.1225
696.0,0.1199
695.0,0.1178
694.0,0.116
693.0,0.1145
692.0,0.1133
691.0,0.1123
690.0,0.1113
689.0,0.1105
688.0,0.1095
687.0,0.1085
686.0,0.1076
685.0,0.1078
684.0,0.1088
683.0,0.1096
682.0,0.1095
681.0,0.1085
680.0,0.1072
679.0,0.106
678.0,0.1048
677.0,0.1038
676.0,0.1031
675.0,0.1029
674.0,0.1027
673.0,0.1025
672.0,0.1025
671.0,0.1033
670.0,0.1054
669.0,0.1086
668.0,0.1103
667.0,0.1077
666.0,0.1028
665.0,0.0993
664.0,0.0978
663.0,0.0973
662.0,0.0971
661.0,0.0969
660.0,0.0971
659.0,0.0972
658.0,0.0971
657.0,0.0969
656.0,0.0968
655.0,0.0968
654.0,0.0967
653.0,0.097
652.0,0.0976
651.0,0.0982
650.0,0.0986
649.0,0.0991
648.0,0.0996
647.0,0.0997
646.0,0.099
645.0,0.098
644.0,0.0973
643.0,0.0975
642.0,0.0984
641.0,0.0999
640.0,0.1015
639.0,0.1028
638.0,0.1037
637.0,0.1048
636.0,0.1063
635.0,0.1078
634.0,0.1089
633.0,0.1098
632.0,0.1102
631.0,0.1098
630.0,0.1084
629.0,0.107
628.0,0.1056
627.0,0.1041
626.0,0.1021
625.0,0.1005
624.0,0.0996
623.0,0.0992
622.0,0.099
621.0,0.0988
620.0,0.0989
619.0,0.099
618.0,0.0992
617.0,0.0992
616.0,0.0989
615.0,0.0981
614.0,0.0971
613.0,0.0965
612.0,0.0968
611.0,0.0969
610.0,0.0963
609.0,0.0952
608.0,0.0946
607.0,0.0947
606.0,0.0952
605.0,0.0954
604.0,0.0949
603.0,0.0942
602.0,0.0935
601.0,0.0934
600.0,0.0933
