cm-1,A
4000.0,-0.0003
3999.0,-0.0003
3998.0,-0.0003
3997.0,-0.0004
3996.0,-0.0004
3995.0,-0.0005
3994.0,-0.0005
3993.0,-0.0005
3992.0,-0.0005
3991.0,-0.0004
3990.0,-0.0004
3989.0,-0.0003
3988.0,-0.0003
3987.0,-0.0004
3986.0,-0.0004
3985.0,-0.0005
3984.0,-0.0005
3983.0,-0.0004
3982.0,-0.0005
3981.0,-0.0005
3980.0,-0.0005
3979.0,-0.0005
3978.0,-0.0006
3977.0,-0.0006
3976.0,-0.0006
3975.0,-0.0006
3974.0,-0.0005
3973.0,-0.0005
3972.0,-0.0005
3971.0,-0.0006
3970.0,-0.0006
3969.0,-0.0006
3968.0,-0.0007
3967.0,-0.0007
3966.0,-0.0007
3965.0,-0.0006
3964.0,-0.0005
3963.0,-0.0005
3962.0,-0.0004
3961.0,-0.0004
3960.0,-0.0005
3959.0,-0.0005
3958.0,-0.0004
3957.0,-0.0004
3956.0,-0.0004
3955.0,-0.0003
3954.0,-0.0003
3953.0,-0.0003
3952.0,-0.0002
3951.0,-0.0003
3950.0,-0.0003
3949.0,-0.0004
3948.0,-0.0005
3947.0,-0.0005
3946.0,-0.0005
3945.0,-0.0006
3944.0,-0.0006
3943.0,-0.0006
3942.0,-0.0006
3941.0,-0.0005
3940.0,-0.0005
3939.0,-0.0005
3938.0,-0.0006
3937.0,-0.0006
3936.0,-0.0005
3935.0,-0.0004
3934.0,-0.0004
3933.0,-0.0003
3932.0,-0.0004
3931.0,-0.0004
3930.0,-0.0004
3929.0,-0.0004
3928.0,-0.0004
3927.0,-0.0003
3926.0,-0.0003
3925.0,-0.0004
3924.0,-0.0004
3923.0,-0.0005
3922.0,-0.0005
3921.0,-0.0005
3920.0,-0.0005
3919.0,-0.0004
3918.0,-0.0004
3917.0,-0.0004
3916.0,-0.0004
3915.0,-0.0004
3914.0,-0.0004
3913.0,-0.0004
3912.0,-0.0003
3911.0,-0.0003
3910.0,-0.0003
3909.0,-0.0004
3908.0,-0.0004
3907.0,-0.0005
3906.0,-0.0006
3905.0,-0.0006
3904.0,-0.0006
3903.0,-0.0006
3902.0,-0.0005
3901.0,-0.0004
3900.0,-0.0004
3899.0,-0.0004
3898.0,-0.0004
3897.0,-0.0003
3896.0,-0.0003
3895.0,-0.0003
3894.0,-0.0002
3893.0,-0.0002
3892.0,-0.0002
3891.0,-0.0003
3890.0,-0.0002
3889.0,-0.0002
3888.0,-0.0001
3887.0,-0.0001
3886.0,-0.0001
3885.0,-0.0001
3884.0,-0.0001
3883.0,-0.0
3882.0,-0.0
3881.0,-0.0001
3880.0,-0.0001
3879.0,-0.0001
3878.0,-0.0001
3877.0,-0.0001
3876.0,-0.0001
3875.0,-0.0002
3874.0,-0.0002
3873.0,-0.0002
3872.0,-0.0001
3871.0,0.0
3870.0,0.0
3869.0,0.0
3868.0,0.0
3867.0,0.0
3866.0,-0.0001
3865.0,-0.0002
3864.0,-0.0004
3863.0,-0.0005
3862.0,-0.0005
3861.0,-0.0005
3860.0,-0.0004
3859.0,-0.0003
3858.0,-0.0002
3857.0,-0.0002
3856.0,-0.0001
3855.0,-0.0001
3854.0,-0.0001
3853.0,-0.0002
3852.0,-0.0002
3851.0,-0.0002
3850.0,-0.0002
3849.0,-0.0003
3848.0,-0.0003
3847.0,-0.0003
3846.0,-0.0002
3845.0,-0.0002
3844.0,-0.0002
3843.0,-0.0002
3842.0,-0.0001
3841.0,-0.0001
3840.0,-0.0001
3839.0,-0.0002
3838.0,-0.0002
3837.0,-0.0003
3836.0,-0.0003
3835.0,-0.0003
3834.0,-0.0004
3833.0,-0.0004
3832.0,-0.0004
3831.0,-0.0004
3830.0,-0.0003
3829.0,-0.0003
3828.0,-0.0004
3827.0,-0.0004
3826.0,-0.0004
3825.0,-0.0004
3824.0,-0.0003
3823.0,-0.0001
3822.0,-0.0
3821.0,-0.0
3820.0,-0.0001
3819.0,-0.0002
3818.0,-0.0004
3817.0,-0.0006
3816.0,-0.0006
3815.0,-0.0005
3814.0,-0.0003
3813.0,-0.0002
3812.0,-0.0002
3811.0,-0.0002
3810.0,-0.0003
3809.0,-0.0003
3808.0,-0.0004
3807.0,-0.0003
3806.0,-0.0002
3805.0,-0.0
3804.0,0.0001
3803.0,-0.0
3802.0,-0.0002
3801.0,-0.0003
3800.0,-0.0003
3799.0,-0.0003
3798.0,-0.0002
3797.0,-0.0003
3796.0,-0.0003
3795.0,-0.0003
3794.0,-0.0003
3793.0,-0.0003
3792.0,-0.0003
3791.0,-0.0003
3790.0,-0.0003
3789.0,-0.0003
3788.0,-0.0003
3787.0,-0.0004
3786.0,-0.0004
3785.0,-0.0004
3784.0,-0.0003
3783.0,-0.0002
3782.0,-0.0002
3781.0,-0.0003
3780.0,-0.0005
3779.0,-0.0006
3778.0,-0.0006
3777.0,-0.0005
3776.0,-0.0004
3775.0,-0.0004
3774.0,-0.0003
3773.0,-0.0003
3772.0,-0.0003
3771.0,-0.0004
3770.0,-0.0004
3769.0,-0.0004
3768.0,-0.0003
3767.0,-0.0003
3766.0,-0.0002
3765.0,-0.0002
3764.0,-0.0002
3763.0,-0.0003
3762.0,-0.0003
3761.0,-0.0004
3760.0,-0.0005
3759.0,-0.0004
3758.0,-0.0003
3757.0,-0.0002
3756.0,-0.0001
3755.0,-0.0001
3754.0,-0.0
3753.0,0.0001
3752.0,0.0002
3751.0,0.0002
3750.0,0.0001
3749.0,0.0001
3748.0,0.0
3747.0,-0.0001
3746.0,-0.0002
3745.0,-0.0002
3744.0,-0.0002
3743.0,0.0
3742.0,0.0002
3741.0,0.0003
3740.0,0.0003
3739.0,0.0003
3738.0,0.0003
3737.0,0.0002
3736.0,0.0
3735.0,-0.0001
3734.0,-0.0002
3733.0,-0.0002
3732.0,-0.0002
3731.0,-0.0002
3730.0,-0.0002
3729.0,-0.0002
3728.0,-0.0002
3727.0,-0.0002
3726.0,-0.0002
3725.0,-0.0002
3724.0,-0.0001
3723.0,-0.0
3722.0,-0.0
3721.0,-0.0
3720.0,-0.0001
3719.0,-0.0002
3718.0,-0.0003
3717.0,-0.0003
3716.0,-0.0002
3715.0,-0.0002
3714.0,-0.0002
3713.0,-0.0002
3712.0,-0.0002
3711.0,-0.0002
3710.0,-0.0002
3709.0,-0.0002
3708.0,-0.0002
3707.0,-0.0002
3706.0,-0.0004
3705.0,-0.0005
3704.0,-0.0005
3703.0,-0.0005
3702.0,-0.0005
3701.0,-0.0004
3700.0,-0.0003
3699.0,-0.0003
3698.0,-0.0002
3697.0,-0.0002
3696.0,-0.0002
3695.0,-0.0003
3694.0,-0.0003
3693.0,-0.0003
3692.0,-0.0003
3691.0,-0.0003
3690.0,-0.0003
3689.0,-0.0003
3688.0,-0.0002
3687.0,-0.0001
3686.0,0.0
3685.0,0.0
3684.0,-0.0
3683.0,-0.0001
3682.0,-0.0001
3681.0,-0.0001
3680.0,-0.0001
3679.0,0.0
3678.0,0.0002
3677.0,0.0003
3676.0,0.0002
3675.0,0.0
3674.0,0.0
3673.0,0.0001
3672.0,0.0001
3671.0,0.0001
3670.0,0.0
3669.0,-0.0001
3668.0,-0.0001
3667.0,-0.0001
3666.0,-0.0001
3665.0,-0.0002
3664.0,-0.0003
3663.0,-0.0004
3662.0,-0.0004
3661.0,-0.0004
3660.0,-0.0004
3659.0,-0.0003
3658.0,-0.0003
3657.0,-0.0003
3656.0,-0.0003
3655.0,-0.0003
3654.0,-0.0002
3653.0,-0.0001
3652.0,0.0
3651.0,0.0002
3650.0,0.0003
3649.0,0.0003
3648.0,0.0001
3647.0,-0.0
3646.0,-0.0001
3645.0,-0.0001
3644.0,-0.0001
3643.0,-0.0001
3642.0,-0.0001
3641.0,-0.0001
3640.0,-0.0
3639.0,-0.0001
3638.0,-0.0001
3637.0,-0.0002
3636.0,-0.0002
3635.0,-0.0002
3634.0,-0.0001
3633.0,-0.0
3632.0,0.0
3631.0,0.0
3630.0,0.0
3629.0,-0.0001
3628.0,-0.0001
3627.0,-0.0001
3626.0,-0.0001
3625.0,-0.0002
3624.0,-0.0003
3623.0,-0.0003
3622.0,-0.0003
3621.0,-0.0002
3620.0,-0.0001
3619.0,-0.0001
3618.0,-0.0
3617.0,0.0
3616.0,0.0
3615.0,-0.0
3614.0,-0.0001
3613.0,-0.0001
3612.0,-0.0
3611.0,0.0001
3610.0,0.0002
3609.0,0.0002
3608.0,0.0002
3607.0,0.0001
3606.0,0.0001
3605.0,0.0
3604.0,-0.0
3603.0,-0.0
3602.0,-0.0001
3601.0,-0.0001
3600.0,-0.0002
3599.0,-0.0002
3598.0,-0.0002
3597.0,-0.0001
3596.0,-0.0001
3595.0,-0.0002
3594.0,-0.0002
3593.0,-0.0002
3592.0,-0.0002
3591.0,-0.0002
3590.0,-0.0002
3589.0,-0.0002
3588.0,-0.0001
3587.0,-0.0
3586.0,0.0
3585.0,0.0001
3584.0,0.0001
3583.0,0.0001
3582.0,0.0001
3581.0,0.0001
3580.0,0.0001
3579.0,0.0001
3578.0,0.0
3577.0,0.0
3576.0,-0.0
3575.0,-0.0
3574.0,-0.0001
3573.0,-0.0001
3572.0,-0.0001
3571.0,-0.0001
3570.0,-0.0001
3569.0,-0.0001
3568.0,-0.0001
3567.0,-0.0
3566.0,-0.0
3565.0,-0.0
3564.0,-0.0
3563.0,-0.0001
3562.0,-0.0002
3561.0,-0.0003
3560.0,-0.0004
3559.0,-0.0004
3558.0,-0.0003
3557.0,-0.0002
3556.0,-0.0001
3555.0,-0.0
3554.0,0.0001
3553.0,0.0001
3552.0,0.0
3551.0,-0.0
3550.0,-0.0
3549.0,-0.0
3548.0,0.0
3547.0,0.0
3546.0,0.0
3545.0,0.0
3544.0,-0.0
3543.0,-0.0
3542.0,0.0
3541.0,0.0
3540.0,-0.0
3539.0,-0.0
3538.0,-0.0
3537.0,-0.0
3536.0,0.0
3535.0,0.0001
3534.0,0.0001
3533.0,0.0
3532.0,-0.0
3531.0,-0.0
3530.0,-0.0
3529.0,-0.0001
3528.0,-0.0002
3527.0,-0.0003
3526.0,-0.0003
3525.0,-0.0003
3524.0,-0.0002
3523.0,-0.0002
3522.0,-0.0001
3521.0,-0.0
3520.0,0.0001
3519.0,0.0001
3518.0,0.0
3517.0,-0.0
3516.0,-0.0001
3515.0,-0.0
3514.0,0.0
3513.0,0.0001
3512.0,0.0001
3511.0,0.0002
3510.0,0.0001
3509.0,0.0001
3508.0,0.0001
3507.0,0.0001
3506.0,0.0002
3505.0,0.0002
3504.0,0.0002
3503.0,0.0001
3502.0,0.0
3501.0,-0.0
3500.0,-0.0001
3499.0,-0.0002
3498.0,-0.0002
3497.0,-0.0002
3496.0,-0.0001
3495.0,-0.0
3494.0,0.0
3493.0,0.0001
3492.0,0.0001
3491.0,0.0002
3490.0,0.0001
3489.0,0.0001
3488.0,0.0001
3487.0,0.0001
3486.0,0.0002
3485.0,0.0003
3484.0,0.0004
3483.0,0.0003
3482.0,0.0002
3481.0,0.0
3480.0,-0.0001
3479.0,-0.0001
3478.0,-0.0
3477.0,0.0001
3476.0,0.0002
3475.0,0.0002
3474.0,0.0002
3473.0,0.0002
3472.0,0.0002
3471.0,0.0002
3470.0,0.0001
3469.0,0.0001
3468.0,0.0
3467.0,0.0
3466.0,0.0
3465.0,0.0
3464.0,0.0001
3463.0,0.0001
3462.0,0.0002
3461.0,0.0003
3460.0,0.0003
3459.0,0.0003
3458.0,0.0002
3457.0,0.0001
3456.0,-0.0
3455.0,-0.0001
3454.0,-0.0
3453.0,0.0
3452.0,0.0001
3451.0,0.0002
3450.0,0.0002
3449.0,0.0002
3448.0,0.0001
3447.0,0.0001
3446.0,0.0
3445.0,-0.0
3444.0,-0.0001
3443.0,-0.0001
3442.0,-0.0001
3441.0,-0.0
3440.0,-0.0
3439.0,0.0001
3438.0,0.0001
3437.0,0.0001
3436.0,0.0001
3435.0,0.0001
3434.0,0.0001
3433.0,0.0001
3432.0,0.0001
3431.0,0.0002
3430.0,0.0002
3429.0,0.0003
3428.0,0.0003
3427.0,0.0003
3426.0,0.0003
3425.0,0.0002
3424.0,0.0001
3423.0,0.0
3422.0,-0.0
3421.0,-0.0
3420.0,-0.0
3419.0,-0.0001
3418.0,-0.0001
3417.0,-0.0001
3416.0,-0.0001
3415.0,-0.0
3414.0,0.0
3413.0,0.0001
3412.0,0.0001
3411.0,0.0002
3410.0,0.0002
3409.0,0.0001
3408.0,0.0001
3407.0,0.0
3406.0,0.0
3405.0,0.0
3404.0,-0.0
3403.0,-0.0
3402.0,0.0
3401.0,0.0001
3400.0,0.0001
3399.0,0.0001
3398.0,0.0
3397.0,0.0
3396.0,0.0
3395.0,0.0
3394.0,-0.0
3393.0,0.0
3392.0,0.0001
3391.0,0.0002
3390.0,0.0002
3389.0,0.0002
3388.0,0.0002
3387.0,0.0001
3386.0,0.0001
3385.0,0.0001
3384.0,0.0002
3383.0,0.0002
3382.0,0.0001
3381.0,0.0001
3380.0,0.0
3379.0,0.0
3378.0,0.0
3377.0,0.0001
3376.0,0.0001
3375.0,0.0001
3374.0,0.0001
3373.0,0.0002
3372.0,0.0002
3371.0,0.0002
3370.0,0.0002
3369.0,0.0002
3368.0,0.0001
3367.0,0.0001
3366.0,0.0
3365.0,0.0001
3364.0,0.0001
3363.0,0.0001
3362.0,0.0001
3361.0,0.0001
3360.0,0.0001
3359.0,0.0001
3358.0,0.0
3357.0,0.0001
3356.0,0.0001
3355.0,0.0002
3354.0,0.0002
3353.0,0.0002
3352.0,0.0002
3351.0,0.0001
3350.0,0.0001
3349.0,-0.0
3348.0,-0.0001
3347.0,-0.0001
3346.0,-0.0
3345.0,0.0001
3344.0,0.0001
3343.0,0.0001
3342.0,0.0
3341.0,-0.0
3340.0,-0.0
3339.0,0.0
3338.0,0.0001
3337.0,0.0002
3336.0,0.0002
3335.0,0.0002
3334.0,0.0001
3333.0,0.0001
3332.0,0.0001
3331.0,0.0002
3330.0,0.0003
3329.0,0.0003
3328.0,0.0003
3327.0,0.0002
3326.0,0.0001
3325.0,0.0
3324.0,-0.0
3323.0,-0.0
3322.0,0.0
3321.0,0.0
3320.0,0.0001
3319.0,0.0001
3318.0,0.0
3317.0,0.0
3316.0,-0.0
3315.0,-0.0001
3314.0,-0.0001
3313.0,-0.0001
3312.0,-0.0001
3311.0,-0.0001
3310.0,-0.0
3309.0,0.0
3308.0,0.0
3307.0,-0.0
3306.0,-0.0001
3305.0,-0.0001
3304.0,-0.0001
3303.0,-0.0
3302.0,0.0
3301.0,0.0001
3300.0,0.0001
3299.0,0.0
3298.0,0.0
3297.0,-0.0
3296.0,-0.0
3295.0,0.0
3294.0,0.0001
3293.0,0.0002
3292.0,0.0002
3291.0,0.0002
3290.0,0.0002
3289.0,0.0002
3288.0,0.0001
3287.0,0.0001
3286.0,0.0002
3285.0,0.0002
3284.0,0.0002
3283.0,0.0002
3282.0,0.0002
3281.0,0.0003
3280.0,0.0003
3279.0,0.0003
3278.0,0.0002
3277.0,0.0001
3276.0,0.0
3275.0,0.0
3274.0,0.0001
3273.0,0.0001
3272.0,0.0002
3271.0,0.0002
3270.0,0.0003
3269.0,0.0003
3268.0,0.0003
3267.0,0.0002
3266.0,0.0001
3265.0,0.0
3264.0,-0.0001
3263.0,-0.0001
3262.0,-0.0001
3261.0,-0.0001
3260.0,-0.0
3259.0,0.0
3258.0,0.0
3257.0,0.0001
3256.0,0.0001
3255.0,0.0002
3254.0,0.0002
3253.0,0.0002
3252.0,0.0001
3251.0,0.0001
3250.0,0.0
3249.0,-0.0
3248.0,-0.0001
3247.0,-0.0
3246.0,0.0001
3245.0,0.0002
3244.0,0.0003
3243.0,0.0003
3242.0,0.0003
3241.0,0.0003
3240.0,0.0003
3239.0,0.0003
3238.0,0.0002
3237.0,0.0002
3236.0,0.0002
3235.0,0.0002
3234.0,0.0002
3233.0,0.0002
3232.0,0.0002
3231.0,0.0002
3230.0,0.0002
3229.0,0.0002
3228.0,0.0002
3227.0,0.0002
3226.0,0.0002
3225.0,0.0001
3224.0,0.0001
3223.0,0.0001
3222.0,0.0001
3221.0,0.0001
3220.0,0.0
3219.0,-0.0001
3218.0,-0.0002
3217.0,-0.0002
3216.0,-0.0003
3215.0,-0.0002
3214.0,-0.0002
3213.0,-0.0001
3212.0,0.0
3211.0,0.0001
3210.0,0.0001
3209.0,0.0001
3208.0,0.0001
3207.0,0.0001
3206.0,0.0001
3205.0,0.0001
3204.0,0.0001
3203.0,0.0002
3202.0,0.0003
3201.0,0.0003
3200.0,0.0003
3199.0,0.0002
3198.0,0.0001
3197.0,0.0
3196.0,0.0
3195.0,0.0001
3194.0,0.0001
3193.0,0.0002
3192.0,0.0002
3191.0,0.0002
3190.0,0.0001
3189.0,0.0001
3188.0,0.0001
3187.0,0.0002
3186.0,0.0002
3185.0,0.0002
3184.0,0.0001
3183.0,0.0001
3182.0,0.0001
3181.0,0.0001
3180.0,0.0
3179.0,0.0
3178.0,0.0001
3177.0,0.0001
3176.0,0.0001
3175.0,0.0001
3174.0,0.0001
3173.0,0.0001
3172.0,0.0001
3171.0,0.0002
3170.0,0.0002
3169.0,0.0003
3168.0,0.0002
3167.0,0.0001
3166.0,0.0
3165.0,-0.0
3164.0,0.0
3163.0,0.0
3162.0,0.0
3161.0,0.0
3160.0,-0.0
3159.0,-0.0
3158.0,-0.0
3157.0,0.0
3156.0,0.0
3155.0,0.0001
3154.0,0.0001
3153.0,0.0001
3152.0,0.0001
3151.0,0.0001
3150.0,0.0001
3149.0,0.0
3148.0,0.0
3147.0,-0.0
3146.0,-0.0001
3145.0,-0.0001
3144.0,-0.0001
3143.0,-0.0001
3142.0,-0.0001
3141.0,-0.0
3140.0,0.0
3139.0,0.0
3138.0,0.0001
3137.0,0.0001
3136.0,0.0001
3135.0,0.0001
3134.0,0.0
3133.0,0.0
3132.0,0.0001
3131.0,0.0001
3130.0,0.0002
3129.0,0.0002
3128.0,0.0002
3127.0,0.0002
3126.0,0.0002
3125.0,0.0002
3124.0,0.0001
3123.0,0.0001
3122.0,0.0001
3121.0,0.0002
3120.0,0.0002
3119.0,0.0002
3118.0,0.0002
3117.0,0.0002
3116.0,0.0002
3115.0,0.0002
3114.0,0.0002
3113.0,0.0002
3112.0,0.0002
3111.0,0.0002
3110.0,0.0002
3109.0,0.0001
3108.0,0.0001
3107.0,0.0
3106.0,0.0
3105.0,0.0
3104.0,0.0001
3103.0,0.0001
3102.0,0.0001
3101.0,0.0
3100.0,0.0
3099.0,0.0
3098.0,0.0001
3097.0,0.0001
3096.0,0.0001
3095.0,0.0
3094.0,-0.0
3093.0,-0.0
3092.0,0.0
3091.0,0.0001
3090.0,0.0001
3089.0,0.0001
3088.0,0.0001
3087.0,0.0001
3086.0,0.0001
3085.0,0.0001
3084.0,0.0001
3083.0,0.0
3082.0,0.0
3081.0,0.0001
3080.0,0.0001
3079.0,0.0001
3078.0,0.0001
3077.0,0.0001
3076.0,0.0001
3075.0,0.0001
3074.0,0.0001
3073.0,-0.0
3072.0,-0.0001
3071.0,-0.0001
3070.0,-0.0001
3069.0,0.0
3068.0,0.0001
3067.0,0.0002
3066.0,0.0002
3065.0,0.0002
3064.0,0.0001
3063.0,0.0001
3062.0,0.0001
3061.0,0.0001
3060.0,0.0001
3059.0,0.0002
3058.0,0.0002
3057.0,0.0002
3056.0,0.0002
3055.0,0.0001
3054.0,0.0001
3053.0,0.0002
3052.0,0.0002
3051.0,0.0002
3050.0,0.0002
3049.0,0.0002
3048.0,0.0001
3047.0,0.0001
3046.0,0.0
3045.0,0.0
3044.0,0.0
3043.0,0.0
3042.0,0.0
3041.0,0.0
3040.0,0.0
3039.0,0.0
3038.0,0.0001
3037.0,0.0001
3036.0,0.0001
3035.0,0.0002
3034.0,0.0002
3033.0,0.0001
3032.0,0.0001
3031.0,0.0001
3030.0,0.0001
3029.0,0.0001
3028.0,0.0002
3027.0,0.0003
3026.0,0.0002
3025.0,0.0002
3024.0,0.0001
3023.0,0.0001
3022.0,0.0
3021.0,0.0
3020.0,0.0001
3019.0,0.0001
3018.0,0.0002
3017.0,0.0003
3016.0,0.0003
3015.0,0.0003
3014.0,0.0003
3013.0,0.0003
3012.0,0.0003
3011.0,0.0002
3010.0,0.0002
3009.0,0.0002
3008.0,0.0002
3007.0,0.0002
3006.0,0.0002
3005.0,0.0002
3004.0,0.0002
3003.0,0.0002
3002.0,0.0002
3001.0,0.0002
3000.0,0.0002
2999.0,0.0003
2998.0,0.0003
2997.0,0.0003
2996.0,0.0003
2995.0,0.0003
2994.0,0.0002
2993.0,0.0002
2992.0,0.0002
2991.0,0.0001
2990.0,0.0001
2989.0,0.0001
2988.0,0.0002
2987.0,0.0002
2986.0,0.0002
2985.0,0.0002
2984.0,0.0001
2983.0,0.0001
2982.0,0.0
2981.0,0.0001
2980.0,0.0001
2979.0,0.0002
2978.0,0.0002
2977.0,0.0001
2976.0,0.0001
2975.0,0.0001
2974.0,0.0002
2973.0,0.0003
2972.0,0.0003
2971.0,0.0003
2970.0,0.0003
2969.0,0.0002
2968.0,0.0002
2967.0,0.0003
2966.0,0.0003
2965.0,0.0004
2964.0,0.0004
2963.0,0.0003
2962.0,0.0003
2961.0,0.0003
2960.0,0.0003
2959.0,0.0003
2958.0,0.0003
2957.0,0.0003
2956.0,0.0003
2955.0,0.0003
2954.0,0.0003
2953.0,0.0002
2952.0,0.0002
2951.0,0.0002
2950.0,0.0003
2949.0,0.0004
2948.0,0.0006
2947.0,0.0006
2946.0,0.0006
2945.0,0.0005
2944.0,0.0003
2943.0,0.0002
2942.0,0.0002
2941.0,0.0002
2940.0,0.0002
2939.0,0.0002
2938.0,0.0003
2937.0,0.0003
2936.0,0.0003
2935.0,0.0003
2934.0,0.0003
2933.0,0.0003
2932.0,0.0003
2931.0,0.0003
2930.0,0.0003
2929.0,0.0003
2928.0,0.0004
2927.0,0.0004
2926.0,0.0004
2925.0,0.0004
2924.0,0.0003
2923.0,0.0002
2922.0,0.0002
2921.0,0.0001
2920.0,0.0001
2919.0,0.0001
2918.0,0.0002
2917.0,0.0002
2916.0,0.0002
2915.0,0.0002
2914.0,0.0002
2913.0,0.0003
2912.0,0.0003
2911.0,0.0003
2910.0,0.0002
2909.0,0.0002
2908.0,0.0002
2907.0,0.0002
2906.0,0.0003
2905.0,0.0003
2904.0,0.0003
2903.0,0.0003
2902.0,0.0003
2901.0,0.0002
2900.0,0.0002
2899.0,0.0002
2898.0,0.0002
2897.0,0.0002
2896.0,0.0003
2895.0,0.0003
2894.0,0.0003
2893.0,0.0003
2892.0,0.0004
2891.0,0.0003
2890.0,0.0003
2889.0,0.0002
2888.0,0.0002
2887.0,0.0002
2886.0,0.0002
2885.0,0.0003
2884.0,0.0003
2883.0,0.0003
2882.0,0.0003
2881.0,0.0003
2880.0,0.0003
2879.0,0.0004
2878.0,0.0005
2877.0,0.0005
2876.0,0.0004
2875.0,0.0004
2874.0,0.0003
2873.0,0.0002
2872.0,0.0002
2871.0,0.0003
2870.0,0.0003
2869.0,0.0003
2868.0,0.0003
2867.0,0.0003
2866.0,0.0003
2865.0,0.0003
2864.0,0.0003
2863.0,0.0004
2862.0,0.0004
2861.0,0.0004
2860.0,0.0003
2859.0,0.0002
2858.0,0.0002
2857.0,0.0002
2856.0,0.0002
2855.0,0.0003
2854.0,0.0004
2853.0,0.0004
2852.0,0.0004
2851.0,0.0004
2850.0,0.0004
2849.0,0.0003
2848.0,0.0003
2847.0,0.0002
2846.0,0.0002
2845.0,0.0002
2844.0,0.0002
2843.0,0.0003
2842.0,0.0003
2841.0,0.0003
2840.0,0.0004
2839.0,0.0004
2838.0,0.0004
2837.0,0.0003
2836.0,0.0003
2835.0,0.0002
2834.0,0.0002
2833.0,0.0002
2832.0,0.0002
2831.0,0.0003
2830.0,0.0003
2829.0,0.0003
2828.0,0.0004
2827.0,0.0004
2826.0,0.0004
2825.0,0.0004
2824.0,0.0003
2823.0,0.0003
2822.0,0.0003
2821.0,0.0003
2820.0,0.0003
2819.0,0.0003
2818.0,0.0002
2817.0,0.0002
2816.0,0.0002
2815.0,0.0002
2814.0,0.0002
2813.0,0.0003
2812.0,0.0003
2811.0,0.0002
2810.0,0.0002
2809.0,0.0001
2808.0,0.0001
2807.0,0.0002
2806.0,0.0002
2805.0,0.0002
2804.0,0.0002
2803.0,0.0003
2802.0,0.0004
2801.0,0.0004
2800.0,0.0005
2799.0,0.0005
2798.0,0.0004
2797.0,0.0004
2796.0,0.0004
2795.0,0.0004
2794.0,0.0004
2793.0,0.0004
2792.0,0.0004
2791.0,0.0005
2790.0,0.0005
2789.0,0.0005
2788.0,0.0005
2787.0,0.0004
2786.0,0.0003
2785.0,0.0003
2784.0,0.0002
2783.0,0.0002
2782.0,0.0002
2781.0,0.0002
2780.0,0.0003
2779.0,0.0003
2778.0,0.0004
2777.0,0.0004
2776.0,0.0004
2775.0,0.0004
2774.0,0.0003
2773.0,0.0003
2772.0,0.0003
2771.0,0.0003
2770.0,0.0003
2769.0,0.0003
2768.0,0.0002
2767.0,0.0002
2766.0,0.0003
2765.0,0.0003
2764.0,0.0003
2763.0,0.0003
2762.0,0.0003
2761.0,0.0003
2760.0,0.0003
2759.0,0.0002
2758.0,0.0002
2757.0,0.0002
2756.0,0.0002
2755.0,0.0002
2754.0,0.0003
2753.0,0.0003
2752.0,0.0003
2751.0,0.0003
2750.0,0.0003
2749.0,0.0003
2748.0,0.0003
2747.0,0.0003
2746.0,0.0003
2745.0,0.0003
2744.0,0.0004
2743.0,0.0004
2742.0,0.0004
2741.0,0.0004
2740.0,0.0004
2739.0,0.0004
2738.0,0.0004
2737.0,0.0003
2736.0,0.0003
2735.0,0.0004
2734.0,0.0004
2733.0,0.0005
2732.0,0.0005
2731.0,0.0005
2730.0,0.0005
2729.0,0.0005
2728.0,0.0005
2727.0,0.0005
2726.0,0.0004
2725.0,0.0004
2724.0,0.0004
2723.0,0.0004
2722.0,0.0004
2721.0,0.0004
2720.0,0.0004
2719.0,0.0004
2718.0,0.0003
2717.0,0.0003
2716.0,0.0003
2715.0,0.0004
2714.0,0.0004
2713.0,0.0005
2712.0,0.0005
2711.0,0.0005
2710.0,0.0004
2709.0,0.0004
2708.0,0.0003
2707.0,0.0003
2706.0,0.0003
2705.0,0.0003
2704.0,0.0003
2703.0,0.0003
2702.0,0.0003
2701.0,0.0003
2700.0,0.0003
2699.0,0.0004
2698.0,0.0004
2697.0,0.0004
2696.0,0.0004
2695.0,0.0004
2694.0,0.0004
2693.0,0.0004
2692.0,0.0004
2691.0,0.0004
2690.0,0.0004
2689.0,0.0004
2688.0,0.0004
2687.0,0.0004
2686.0,0.0004
2685.0,0.0004
2684.0,0.0004
2683.0,0.0003
2682.0,0.0003
2681.0,0.0003
2680.0,0.0003
2679.0,0.0002
2678.0,0.0002
2677.0,0.0002
2676.0,0.0003
2675.0,0.0004
2674.0,0.0004
2673.0,0.0004
2672.0,0.0004
2671.0,0.0003
2670.0,0.0003
2669.0,0.0003
2668.0,0.0004
2667.0,0.0004
2666.0,0.0004
2665.0,0.0005
2664.0,0.0005
2663.0,0.0005
2662.0,0.0004
2661.0,0.0004
2660.0,0.0004
2659.0,0.0004
2658.0,0.0005
2657.0,0.0005
2656.0,0.0005
2655.0,0.0005
2654.0,0.0005
2653.0,0.0004
2652.0,0.0004
2651.0,0.0004
2650.0,0.0004
2649.0,0.0004
2648.0,0.0004
2647.0,0.0004
2646.0,0.0004
2645.0,0.0004
2644.0,0.0004
2643.0,0.0004
2642.0,0.0004
2641.0,0.0004
2640.0,0.0004
2639.0,0.0004
2638.0,0.0005
2637.0,0.0004
2636.0,0.0004
2635.0,0.0003
2634.0,0.0003
2633.0,0.0003
2632.0,0.0004
2631.0,0.0005
2630.0,0.0005
2629.0,0.0005
2628.0,0.0004
2627.0,0.0003
2626.0,0.0003
2625.0,0.0003
2624.0,0.0004
2623.0,0.0004
2622.0,0.0005
2621.0,0.0005
2620.0,0.0005
2619.0,0.0004
2618.0,0.0004
2617.0,0.0004
2616.0,0.0004
2615.0,0.0004
2614.0,0.0004
2613.0,0.0005
2612.0,0.0004
2611.0,0.0004
2610.0,0.0004
2609.0,0.0004
2608.0,0.0005
2607.0,0.0005
2606.0,0.0004
2605.0,0.0004
2604.0,0.0004
2603.0,0.0005
2602.0,0.0005
2601.0,0.0005
2600.0,0.0005
2599.0,0.0004
2598.0,0.0004
2597.0,0.0004
2596.0,0.0005
2595.0,0.0005
2594.0,0.0005
2593.0,0.0005
2592.0,0.0006
2591.0,0.0005
2590.0,0.0005
2589.0,0.0005
2588.0,0.0005
2587.0,0.0005
2586.0,0.0005
2585.0,0.0004
2584.0,0.0004
2583.0,0.0003
2582.0,0.0003
2581.0,0.0004
2580.0,0.0004
2579.0,0.0005
2578.0,0.0004
2577.0,0.0004
2576.0,0.0004
2575.0,0.0004
2574.0,0.0004
2573.0,0.0003
2572.0,0.0004
2571.0,0.0004
2570.0,0.0004
2569.0,0.0005
2568.0,0.0005
2567.0,0.0005
2566.0,0.0005
2565.0,0.0005
2564.0,0.0004
2563.0,0.0005
2562.0,0.0005
2561.0,0.0005
2560.0,0.0004
2559.0,0.0004
2558.0,0.0004
2557.0,0.0005
2556.0,0.0005
2555.0,0.0005
2554.0,0.0005
2553.0,0.0005
2552.0,0.0004
2551.0,0.0004
2550.0,0.0005
2549.0,0.0005
2548.0,0.0005
2547.0,0.0005
2546.0,0.0006
2545.0,0.0006
2544.0,0.0006
2543.0,0.0006
2542.0,0.0006
2541.0,0.0005
2540.0,0.0005
2539.0,0.0004
2538.0,0.0004
2537.0,0.0005
2536.0,0.0005
2535.0,0.0005
2534.0,0.0005
2533.0,0.0005
2532.0,0.0005
2531.0,0.0006
2530.0,0.0006
2529.0,0.0006
2528.0,0.0006
2527.0,0.0007
2526.0,0.0007
2525.0,0.0007
2524.0,0.0007
2523.0,0.0006
2522.0,0.0006
2521.0,0.0006
2520.0,0.0005
2519.0,0.0005
2518.0,0.0004
2517.0,0.0005
2516.0,0.0006
2515.0,0.0007
2514.0,0.0008
2513.0,0.0007
2512.0,0.0007
2511.0,0.0006
2510.0,0.0006
2509.0,0.0005
2508.0,0.0005
2507.0,0.0005
2506.0,0.0005
2505.0,0.0005
2504.0,0.0006
2503.0,0.0006
2502.0,0.0006
2501.0,0.0006
2500.0,0.0006
2499.0,0.0006
2498.0,0.0005
2497.0,0.0005
2496.0,0.0006
2495.0,0.0006
2494.0,0.0006
2493.0,0.0006
2492.0,0.0006
2491.0,0.0006
2490.0,0.0005
2489.0,0.0005
2488.0,0.0005
2487.0,0.0006
2486.0,0.0006
2485.0,0.0007
2484.0,0.0006
2483.0,0.0006
2482.0,0.0006
2481.0,0.0006
2480.0,0.0006
2479.0,0.0006
2478.0,0.0006
2477.0,0.0006
2476.0,0.0006
2475.0,0.0007
2474.0,0.0006
2473.0,0.0006
2472.0,0.0005
2471.0,0.0005
2470.0,0.0005
2469.0,0.0005
2468.0,0.0005
2467.0,0.0004
2466.0,0.0004
2465.0,0.0004
2464.0,0.0004
2463.0,0.0004
2462.0,0.0005
2461.0,0.0005
2460.0,0.0006
2459.0,0.0006
2458.0,0.0007
2457.0,0.0007
2456.0,0.0007
2455.0,0.0006
2454.0,0.0006
2453.0,0.0006
2452.0,0.0006
2451.0,0.0006
2450.0,0.0006
2449.0,0.0006
2448.0,0.0006
2447.0,0.0006
2446.0,0.0006
2445.0,0.0006
2444.0,0.0006
2443.0,0.0006
2442.0,0.0006
2441.0,0.0006
2440.0,0.0007
2439.0,0.0007
2438.0,0.0007
2437.0,0.0006
2436.0,0.0006
2435.0,0.0006
2434.0,0.0006
2433.0,0.0005
2432.0,0.0006
2431.0,0.0006
2430.0,0.0006
2429.0,0.0006
2428.0,0.0006
2427.0,0.0006
2426.0,0.0006
2425.0,0.0006
2424.0,0.0006
2423.0,0.0007
2422.0,0.0007
2421.0,0.0007
2420.0,0.0007
2419.0,0.0007
2418.0,0.0007
2417.0,0.0007
2416.0,0.0007
2415.0,0.0007
2414.0,0.0007
2413.0,0.0007
2412.0,0.0007
2411.0,0.0008
2410.0,0.0008
2409.0,0.0007
2408.0,0.0006
2407.0,0.0006
2406.0,0.0006
2405.0,0.0007
2404.0,0.0007
2403.0,0.0008
2402.0,0.0008
2401.0,0.0008
2400.0,0.0007
2399.0,0.0007
2398.0,0.0007
2397.0,0.0006
2396.0,0.0006
2395.0,0.0005
2394.0,0.0006
2393.0,0.0006
2392.0,0.0007
2391.0,0.0007
2390.0,0.0007
2389.0,0.0007
2388.0,0.0007
2387.0,0.0008
2386.0,0.0008
2385.0,0.0009
2384.0,0.0009
2383.0,0.0009
2382.0,0.0008
2381.0,0.0006
2380.0,0.0004
2379.0,0.0002
2378.0,0.0
2377.0,0.0
2376.0,0.0003
2375.0,0.0008
2374.0,0.0013
2373.0,0.0016
2372.0,0.0016
2371.0,0.0013
2370.0,0.0008
2369.0,0.0002
2368.0,-0.0004
2367.0,-0.0004
2366.0,0.0001
2365.0,0.0006
2364.0,0.0006
2363.0,0.0005
2362.0,0.0011
2361.0,0.0023
2360.0,0.0031
2359.0,0.0029
2358.0,0.0016
2357.0,0.0001
2356.0,-0.0007
2355.0,-0.0008
2354.0,-0.0008
2353.0,-0.0009
2352.0,-0.0009
2351.0,-0.0006
2350.0,-0.0002
2349.0,0.0002
2348.0,0.0003
2347.0,0.0002
2346.0,0.0001
2345.0,0.0001
2344.0,0.0002
2343.0,0.0005
2342.0,0.0006
2341.0,0.0004
2340.0,0.0001
2339.0,-0.0001
2338.0,-0.0001
2337.0,-0.0002
2336.0,-0.0004
2335.0,-0.0007
2334.0,-0.0011
2333.0,-0.0014
2332.0,-0.0015
2331.0,-0.0011
2330.0,-0.0006
2329.0,0.0001
2328.0,0.0006
2327.0,0.001
2326.0,0.0011
2325.0,0.0011
2324.0,0.0009
2323.0,0.0005
2322.0,0.0002
2321.0,0.0
2320.0,0.0
2319.0,0.0001
2318.0,0.0003
2317.0,0.0005
2316.0,0.0007
2315.0,0.0008
2314.0,0.0009
2313.0,0.0009
2312.0,0.0009
2311.0,0.0009
2310.0,0.0008
2309.0,0.0008
2308.0,0.0008
2307.0,0.0007
2306.0,0.0007
2305.0,0.0007
2304.0,0.0008
2303.0,0.0009
2302.0,0.001
2301.0,0.001
2300.0,0.0009
2299.0,0.0009
2298.0,0.001
2297.0,0.001
2296.0,0.0011
2295.0,0.001
2294.0,0.001
2293.0,0.0009
2292.0,0.0009
2291.0,0.0009
2290.0,0.001
2289.0,0.001
2288.0,0.001
2287.0,0.001
2286.0,0.001
2285.0,0.0009
2284.0,0.0009
2283.0,0.0009
2282.0,0.0009
2281.0,0.001
2280.0,0.001
2279.0,0.001
2278.0,0.001
2277.0,0.0009
2276.0,0.0009
2275.0,0.0008
2274.0,0.0008
2273.0,0.0007
2272.0,0.0007
2271.0,0.0007
2270.0,0.0007
2269.0,0.0007
2268.0,0.0008
2267.0,0.0008
2266.0,0.0009
2265.0,0.0009
2264.0,0.0009
2263.0,0.0008
2262.0,0.0008
2261.0,0.0008
2260.0,0.0007
2259.0,0.0007
2258.0,0.0007
2257.0,0.0007
2256.0,0.0007
2255.0,0.0008
2254.0,0.0009
2253.0,0.0009
2252.0,0.0009
2251.0,0.0008
2250.0,0.0008
2249.0,0.0008
2248.0,0.0008
2247.0,0.0008
2246.0,0.0008
2245.0,0.0008
2244.0,0.0007
2243.0,0.0007
2242.0,0.0007
2241.0,0.0007
2240.0,0.0007
2239.0,0.0007
2238.0,0.0008
2237.0,0.0008
2236.0,0.0008
2235.0,0.0008
2234.0,0.0008
2233.0,0.0008
2232.0,0.0008
2231.0,0.0008
2230.0,0.0008
2229.0,0.0008
2228.0,0.0008
2227.0,0.0008
2226.0,0.0008
2225.0,0.0008
2224.0,0.0008
2223.0,0.0008
2222.0,0.0008
2221.0,0.0008
2220.0,0.0008
2219.0,0.0008
2218.0,0.0007
2217.0,0.0007
2216.0,0.0007
2215.0,0.0007
2214.0,0.0008
2213.0,0.0008
2212.0,0.0008
2211.0,0.0008
2210.0,0.0009
2209.0,0.0009
2208.0,0.0009
2207.0,0.0009
2206.0,0.0009
2205.0,0.0009
2204.0,0.0009
2203.0,0.0009
2202.0,0.0009
2201.0,0.0009
2200.0,0.0008
2199.0,0.0008
2198.0,0.0008
2197.0,0.0008
2196.0,0.0008
2195.0,0.0008
2194.0,0.0008
2193.0,0.0008
2192.0,0.0008
2191.0,0.0008
2190.0,0.0008
2189.0,0.0007
2188.0,0.0007
2187.0,0.0007
2186.0,0.0008
2185.0,0.0008
2184.0,0.0008
2183.0,0.0008
2182.0,0.0008
2181.0,0.0008
2180.0,0.0008
2179.0,0.0008
2178.0,0.0008
2177.0,0.0008
2176.0,0.0009
2175.0,0.0009
2174.0,0.0009
2173.0,0.0008
2172.0,0.0008
2171.0,0.0007
2170.0,0.0007
2169.0,0.0007
2168.0,0.0008
2167.0,0.0008
2166.0,0.0009
2165.0,0.0009
2164.0,0.0009
2163.0,0.0008
2162.0,0.0008
2161.0,0.0007
2160.0,0.0008
2159.0,0.0008
2158.0,0.0009
2157.0,0.0009
2156.0,0.0009
2155.0,0.0009
2154.0,0.0008
2153.0,0.0008
2152.0,0.0008
2151.0,0.0008
2150.0,0.0008
2149.0,0.0009
2148.0,0.0009
2147.0,0.0009
2146.0,0.0009
2145.0,0.0009
2144.0,0.0009
2143.0,0.0009
2142.0,0.0009
2141.0,0.0009
2140.0,0.0009
2139.0,0.0009
2138.0,0.0008
2137.0,0.0008
2136.0,0.0008
2135.0,0.0007
2134.0,0.0007
2133.0,0.0008
2132.0,0.0008
2131.0,0.0008
2130.0,0.0008
2129.0,0.0008
2128.0,0.0008
2127.0,0.0008
2126.0,0.0009
2125.0,0.0009
2124.0,0.0009
2123.0,0.0009
2122.0,0.0009
2121.0,0.0009
2120.0,0.0008
2119.0,0.0008
2118.0,0.0008
2117.0,0.0008
2116.0,0.0009
2115.0,0.0009
2114.0,0.0009
2113.0,0.0009
2112.0,0.0008
2111.0,0.0008
2110.0,0.0008
2109.0,0.0008
2108.0,0.0008
2107.0,0.0008
2106.0,0.0008
2105.0,0.0008
2104.0,0.0008
2103.0,0.0008
2102.0,0.0008
2101.0,0.0008
2100.0,0.0008
2099.0,0.0008
2098.0,0.0008
2097.0,0.0009
2096.0,0.0009
2095.0,0.0009
2094.0,0.0009
2093.0,0.0009
2092.0,0.0009
2091.0,0.0008
2090.0,0.0008
2089.0,0.0008
2088.0,0.0009
2087.0,0.0009
2086.0,0.0009
2085.0,0.0008
2084.0,0.0008
2083.0,0.0008
2082.0,0.0008
2081.0,0.0009
2080.0,0.0008
2079.0,0.0008
2078.0,0.0008
2077.0,0.0007
2076.0,0.0007
2075.0,0.0006
2074.0,0.0006
2073.0,0.0007
2072.0,0.0007
2071.0,0.0008
2070.0,0.0008
2069.0,0.0008
2068.0,0.0008
2067.0,0.0008
2066.0,0.0008
2065.0,0.0008
2064.0,0.0008
2063.0,0.0008
2062.0,0.0009
2061.0,0.0009
2060.0,0.0009
2059.0,0.0009
2058.0,0.0009
2057.0,0.0008
2056.0,0.0008
2055.0,0.0008
2054.0,0.0008
2053.0,0.0008
2052.0,0.0008
2051.0,0.0009
2050.0,0.0009
2049.0,0.0008
2048.0,0.0007
2047.0,0.0007
2046.0,0.0007
2045.0,0.0007
2044.0,0.0007
2043.0,0.0007
2042.0,0.0007
2041.0,0.0007
2040.0,0.0007
2039.0,0.0008
2038.0,0.0007
2037.0,0.0007
2036.0,0.0007
2035.0,0.0007
2034.0,0.0007
2033.0,0.0007
2032.0,0.0007
2031.0,0.0007
2030.0,0.0007
2029.0,0.0007
2028.0,0.0007
2027.0,0.0007
2026.0,0.0007
2025.0,0.0007
2024.0,0.0007
2023.0,0.0007
2022.0,0.0007
2021.0,0.0007
2020.0,0.0008
2019.0,0.0008
2018.0,0.0008
2017.0,0.0008
2016.0,0.0008
2015.0,0.0007
2014.0,0.0007
2013.0,0.0007
2012.0,0.0008
2011.0,0.0008
2010.0,0.0008
2009.0,0.0008
2008.0,0.0007
2007.0,0.0007
2006.0,0.0007
2005.0,0.0007
2004.0,0.0008
2003.0,0.0008
2002.0,0.0007
2001.0,0.0007
2000.0,0.0007
1999.0,0.0007
1998.0,0.0007
1997.0,0.0007
1996.0,0.0007
1995.0,0.0007
1994.0,0.0007
1993.0,0.0007
1992.0,0.0007
1991.0,0.0007
1990.0,0.0007
1989.0,0.0008
1988.0,0.0008
1987.0,0.0008
1986.0,0.0008
1985.0,0.0007
1984.0,0.0007
1983.0,0.0007
1982.0,0.0007
1981.0,0.0007
1980.0,0.0008
1979.0,0.0008
1978.0,0.0008
1977.0,0.0008
1976.0,0.0008
1975.0,0.0008
1974.0,0.0008
1973.0,0.0008
1972.0,0.0008
1971.0,0.0008
1970.0,0.0008
1969.0,0.0008
1968.0,0.0007
1967.0,0.0007
1966.0,0.0007
1965.0,0.0007
1964.0,0.0007
1963.0,0.0007
1962.0,0.0008
1961.0,0.0008
1960.0,0.0008
1959.0,0.0008
1958.0,0.0008
1957.0,0.0008
1956.0,0.0007
1955.0,0.0007
1954.0,0.0008
1953.0,0.0008
1952.0,0.0008
1951.0,0.0008
1950.0,0.0009
1949.0,0.0009
1948.0,0.0009
1947.0,0.0009
1946.0,0.0009
1945.0,0.0009
1944.0,0.0008
1943.0,0.0008
1942.0,0.0008
1941.0,0.0008
1940.0,0.0008
1939.0,0.0008
1938.0,0.0008
1937.0,0.0008
1936.0,0.0008
1935.0,0.0008
1934.0,0.0008
1933.0,0.0008
1932.0,0.0008
1931.0,0.0008
1930.0,0.0008
1929.0,0.0007
1928.0,0.0007
1927.0,0.0007
1926.0,0.0007
1925.0,0.0007
1924.0,0.0007
1923.0,0.0006
1922.0,0.0006
1921.0,0.0006
1920.0,0.0006
1919.0,0.0006
1918.0,0.0006
1917.0,0.0006
1916.0,0.0006
1915.0,0.0006
1914.0,0.0007
1913.0,0.0007
1912.0,0.0007
1911.0,0.0006
1910.0,0.0006
1909.0,0.0005
1908.0,0.0005
1907.0,0.0004
1906.0,0.0005
1905.0,0.0005
1904.0,0.0006
1903.0,0.0006
1902.0,0.0006
1901.0,0.0006
1900.0,0.0005
1899.0,0.0005
1898.0,0.0005
1897.0,0.0005
1896.0,0.0005
1895.0,0.0005
1894.0,0.0005
1893.0,0.0005
1892.0,0.0005
1891.0,0.0005
1890.0,0.0005
1889.0,0.0005
1888.0,0.0005
1887.0,0.0005
1886.0,0.0006
1885.0,0.0006
1884.0,0.0005
1883.0,0.0005
1882.0,0.0004
1881.0,0.0004
1880.0,0.0003
1879.0,0.0003
1878.0,0.0003
1877.0,0.0003
1876.0,0.0003
1875.0,0.0003
1874.0,0.0003
1873.0,0.0004
1872.0,0.0004
1871.0,0.0004
1870.0,0.0004
1869.0,0.0004
1868.0,0.0003
1867.0,0.0002
1866.0,0.0002
1865.0,0.0002
1864.0,0.0002
1863.0,0.0002
1862.0,0.0002
1861.0,0.0001
1860.0,0.0001
1859.0,0.0001
1858.0,0.0001
1857.0,0.0001
1856.0,0.0001
1855.0,0.0001
1854.0,0.0001
1853.0,0.0001
1852.0,0.0001
1851.0,0.0
1850.0,0.0001
1849.0,0.0001
1848.0,0.0001
1847.0,0.0001
1846.0,0.0002
1845.0,0.0002
1844.0,0.0002
1843.0,0.0001
1842.0,0.0001
1841.0,0.0001
1840.0,0.0001
1839.0,0.0001
1838.0,0.0001
1837.0,0.0
1836.0,0.0
1835.0,0.0
1834.0,0.0
1833.0,0.0
1832.0,0.0
1831.0,0.0
1830.0,0.0
1829.0,-0.0
1828.0,-0.0001
1827.0,-0.0001
1826.0,-0.0001
1825.0,-0.0
1824.0,-0.0
1823.0,-0.0
1822.0,0.0
1821.0,0.0
1820.0,0.0
1819.0,0.0
1818.0,-0.0
1817.0,-0.0
1816.0,-0.0
1815.0,-0.0001
1814.0,-0.0001
1813.0,-0.0001
1812.0,-0.0001
1811.0,-0.0001
1810.0,-0.0001
1809.0,-0.0002
1808.0,-0.0002
1807.0,-0.0002
1806.0,-0.0003
1805.0,-0.0003
1804.0,-0.0003
1803.0,-0.0004
1802.0,-0.0004
1801.0,-0.0005
1800.0,-0.0005
1799.0,-0.0005
1798.0,-0.0005
1797.0,-0.0005
1796.0,-0.0005
1795.0,-0.0005
1794.0,-0.0006
1793.0,-0.0006
1792.0,-0.0006
1791.0,-0.0006
1790.0,-0.0006
1789.0,-0.0006
1788.0,-0.0006
1787.0,-0.0006
1786.0,-0.0006
1785.0,-0.0007
1784.0,-0.0008
1783.0,-0.0008
1782.0,-0.0008
1781.0,-0.0008
1780.0,-0.0008
1779.0,-0.0008
1778.0,-0.0008
1777.0,-0.0008
1776.0,-0.0008
1775.0,-0.0008
1774.0,-0.0007
1773.0,-0.0006
1772.0,-0.0006
1771.0,-0.0007
1770.0,-0.0008
1769.0,-0.0008
1768.0,-0.0008
1767.0,-0.0008
1766.0,-0.0008
1765.0,-0.0008
1764.0,-0.0008
1763.0,-0.0008
1762.0,-0.0007
1761.0,-0.0007
1760.0,-0.0007
1759.0,-0.0006
1758.0,-0.0005
1757.0,-0.0004
1756.0,-0.0003
1755.0,-0.0002
1754.0,-0.0001
1753.0,-0.0
1752.0,0.0001
1751.0,0.0002
1750.0,0.0004
1749.0,0.0006
1748.0,0.0009
1747.0,0.0013
1746.0,0.0017
1745.0,0.0021
1744.0,0.0026
1743.0,0.0031
1742.0,0.0038
1741.0,0.0047
1740.0,0.0057
1739.0,0.0066
1738.0,0.0074
1737.0,0.008
1736.0,0.0087
1735.0,0.0098
1734.0,0.011
1733.0,0.0119
1732.0,0.0124
1731.0,0.013
1730.0,0.0136
1729.0,0.0143
1728.0,0.0149
1727.0,0.0155
1726.0,0.0161
1725.0,0.0166
1724.0,0.0171
1723.0,0.0175
1722.0,0.0179
1721.0,0.0182
1720.0,0.0185
1719.0,0.0188
1718.0,0.0193
1717.0,0.0197
1716.0,0.0199
1715.0,0.0199
1714.0,0.02
1713.0,0.02
1712.0,0.0199
1711.0,0.0197
1710.0,0.0193
1709.0,0.0189
1708.0,0.0184
1707.0,0.0178
1706.0,0.017
1705.0,0.0162
1704.0,0.0157
1703.0,0.0153
1702.0,0.015
1701.0,0.0144
1700.0,0.0134
1699.0,0.0128
1698.0,0.0124
1697.0,0.012
1696.0,0.0116
1695.0,0.0112
1694.0,0.0109
1693.0,0.0107
1692.0,0.0104
1691.0,0.0101
1690.0,0.0099
1689.0,0.0097
1688.0,0.0095
1687.0,0.0094
1686.0,0.0092
1685.0,0.009
1684.0,0.0088
1683.0,0.0086
1682.0,0.0085
1681.0,0.0084
1680.0,0.0083
1679.0,0.0082
1678.0,0.0081
1677.0,0.0081
1676.0,0.008
1675.0,0.0078
1674.0,0.0076
1673.0,0.0075
1672.0,0.0074
1671.0,0.0073
1670.0,0.0072
1669.0,0.0071
1668.0,0.007
1667.0,0.0069
1666.0,0.0068
1665.0,0.0067
1664.0,0.0066
1663.0,0.0065
1662.0,0.0064
1661.0,0.0063
1660.0,0.0062
1659.0,0.0061
1658.0,0.006
1657.0,0.0059
1656.0,0.0058
1655.0,0.0058
1654.0,0.0057
1653.0,0.0056
1652.0,0.0056
1651.0,0.0055
1650.0,0.0055
1649.0,0.0055
1648.0,0.0055
1647.0,0.0054
1646.0,0.0054
1645.0,0.0054
1644.0,0.0054
1643.0,0.0053
1642.0,0.0053
1641.0,0.0052
1640.0,0.0051
1639.0,0.0049
1638.0,0.0048
1637.0,0.0048
1636.0,0.0048
1635.0,0.0049
1634.0,0.0049
1633.0,0.0048
1632.0,0.0048
1631.0,0.0047
1630.0,0.0046
1629.0,0.0046
1628.0,0.0046
1627.0,0.0046
1626.0,0.0046
1625.0,0.0046
1624.0,0.0046
1623.0,0.0046
1622.0,0.0045
1621.0,0.0044
1620.0,0.0044
1619.0,0.0044
1618.0,0.0045
1617.0,0.0046
1616.0,0.0046
1615.0,0.0046
1614.0,0.0045
1613.0,0.0046
1612.0,0.0046
1611.0,0.0046
1610.0,0.0045
1609.0,0.0044
1608.0,0.0043
1607.0,0.0043
1606.0,0.0042
1605.0,0.0041
1604.0,0.0041
1603.0,0.004
1602.0,0.004
1601.0,0.004
1600.0,0.0039
1599.0,0.0038
1598.0,0.0038
1597.0,0.0038
1596.0,0.0038
1595.0,0.0037
1594.0,0.0037
1593.0,0.0036
1592.0,0.0036
1591.0,0.0036
1590.0,0.0035
1589.0,0.0035
1588.0,0.0034
1587.0,0.0034
1586.0,0.0033
1585.0,0.0034
1584.0,0.0035
1583.0,0.0037
1582.0,0.0038
1581.0,0.004
1580.0,0.0041
1579.0,0.0043
1578.0,0.0044
1577.0,0.0044
1576.0,0.0044
1575.0,0.0043
1574.0,0.0042
1573.0,0.0041
1572.0,0.0041
1571.0,0.0041
1570.0,0.004
1569.0,0.0039
1568.0,0.0038
1567.0,0.0037
1566.0,0.0036
1565.0,0.0035
1564.0,0.0034
1563.0,0.0033
1562.0,0.0033
1561.0,0.0033
1560.0,0.0033
1559.0,0.0034
1558.0,0.0034
1557.0,0.0034
1556.0,0.0033
1555.0,0.0032
1554.0,0.0031
1553.0,0.003
1552.0,0.0029
1551.0,0.0028
1550.0,0.0028
1549.0,0.0028
1548.0,0.0029
1547.0,0.0029
1546.0,0.0029
1545.0,0.0029
1544.0,0.0029
1543.0,0.0029
1542.0,0.0028
1541.0,0.0028
1540.0,0.0027
1539.0,0.0027
1538.0,0.0026
1537.0,0.0026
1536.0,0.0026
1535.0,0.0026
1534.0,0.0026
1533.0,0.0026
1532.0,0.0026
1531.0,0.0026
1530.0,0.0026
1529.0,0.0026
1528.0,0.0026
1527.0,0.0026
1526.0,0.0026
1525.0,0.0027
1524.0,0.0027
1523.0,0.0027
1522.0,0.0027
1521.0,0.0026
1520.0,0.0024
1519.0,0.0022
1518.0,0.0021
1517.0,0.002
1516.0,0.002
1515.0,0.002
1514.0,0.0019
1513.0,0.0019
1512.0,0.002
1511.0,0.002
1510.0,0.0021
1509.0,0.0023
1508.0,0.0029
1507.0,0.0036
1506.0,0.0042
1505.0,0.0043
1504.0,0.0043
1503.0,0.0041
1502.0,0.0038
1501.0,0.0036
1500.0,0.0033
1499.0,0.003
1498.0,0.0028
1497.0,0.0026
1496.0,0.0024
1495.0,0.0023
1494.0,0.0022
1493.0,0.0021
1492.0,0.002
1491.0,0.002
1490.0,0.0019
1489.0,0.0019
1488.0,0.0018
1487.0,0.0018
1486.0,0.0018
1485.0,0.0017
1484.0,0.0017
1483.0,0.0017
1482.0,0.0017
1481.0,0.0017
1480.0,0.0017
1479.0,0.0017
1478.0,0.0016
1477.0,0.0016
1476.0,0.0015
1475.0,0.0015
1474.0,0.0016
1473.0,0.0016
1472.0,0.0016
1471.0,0.0017
1470.0,0.0017
1469.0,0.0017
1468.0,0.0018
1467.0,0.0018
1466.0,0.0019
1465.0,0.0021
1464.0,0.0023
1463.0,0.0024
1462.0,0.0025
1461.0,0.0026
1460.0,0.0027
1459.0,0.0029
1458.0,0.0032
1457.0,0.0037
1456.0,0.0039
1455.0,0.004
1454.0,0.004
1453.0,0.0041
1452.0,0.0041
1451.0,0.0041
1450.0,0.0041
1449.0,0.0041
1448.0,0.0042
1447.0,0.0042
1446.0,0.0042
1445.0,0.0041
1444.0,0.0041
1443.0,0.0041
1442.0,0.0041
1441.0,0.004
1440.0,0.004
1439.0,0.0039
1438.0,0.0038
1437.0,0.0037
1436.0,0.0035
1435.0,0.0033
1434.0,0.0031
1433.0,0.0029
1432.0,0.0027
1431.0,0.0025
1430.0,0.0022
1429.0,0.002
1428.0,0.0019
1427.0,0.0017
1426.0,0.0016
1425.0,0.0014
1424.0,0.0013
1423.0,0.0012
1422.0,0.0011
1421.0,0.0011
1420.0,0.0012
1419.0,0.0014
1418.0,0.0018
1417.0,0.0023
1416.0,0.0029
1415.0,0.0037
1414.0,0.0047
1413.0,0.0058
1412.0,0.0071
1411.0,0.0083
1410.0,0.0093
1409.0,0.0098
1408.0,0.01
1407.0,0.0098
1406.0,0.0093
1405.0,0.0086
1404.0,0.008
1403.0,0.0074
1402.0,0.007
1401.0,0.0065
1400.0,0.0061
1399.0,0.0057
1398.0,0.0053
1397.0,0.005
1396.0,0.0048
1395.0,0.0045
1394.0,0.0043
1393.0,0.0042
1392.0,0.004
1391.0,0.0038
1390.0,0.0036
1389.0,0.0034
1388.0,0.0032
1387.0,0.0031
1386.0,0.003
1385.0,0.0029
1384.0,0.0029
1383.0,0.0029
1382.0,0.003
1381.0,0.0031
1380.0,0.0032
1379.0,0.0034
1378.0,0.0035
1377.0,0.0037
1376.0,0.0039
1375.0,0.0041
1374.0,0.0044
1373.0,0.0046
1372.0,0.0048
1371.0,0.005
1370.0,0.005
1369.0,0.005
1368.0,0.0049
1367.0,0.0046
1366.0,0.0043
1365.0,0.0039
1364.0,0.0034
1363.0,0.0028
1362.0,0.0024
1361.0,0.0021
1360.0,0.0019
1359.0,0.0017
1358.0,0.0015
1357.0,0.0013
1356.0,0.0012
1355.0,0.001
1354.0,0.0009
1353.0,0.0009
1352.0,0.0009
1351.0,0.001
1350.0,0.0011
1349.0,0.0012
1348.0,0.0014
1347.0,0.0015
1346.0,0.0017
1345.0,0.0019
1344.0,0.0021
1343.0,0.0022
1342.0,0.0023
1341.0,0.0024
1340.0,0.0024
1339.0,0.0024
1338.0,0.0022
1337.0,0.0021
1336.0,0.0019
1335.0,0.0017
1334.0,0.0015
1333.0,0.0014
1332.0,0.0012
1331.0,0.0011
1330.0,0.0011
1329.0,0.0011
1328.0,0.0012
1327.0,0.0013
1326.0,0.0015
1325.0,0.0017
1324.0,0.0019
1323.0,0.0021
1322.0,0.0023
1321.0,0.0025
1320.0,0.0027
1319.0,0.0029
1318.0,0.0031
1317.0,0.0033
1316.0,0.0036
1315.0,0.0038
1314.0,0.0041
1313.0,0.0044
1312.0,0.0048
1311.0,0.0051
1310.0,0.0055
1309.0,0.0059
1308.0,0.0063
1307.0,0.0067
1306.0,0.0071
1305.0,0.0075
1304.0,0.008
1303.0,0.0085
1302.0,0.0091
1301.0,0.0097
1300.0,0.0104
1299.0,0.0113
1298.0,0.0122
1297.0,0.0131
1296.0,0.014
1295.0,0.015
1294.0,0.0159
1293.0,0.0167
1292.0,0.0174
1291.0,0.0181
1290.0,0.0188
1289.0,0.0194
1288.0,0.0199
1287.0,0.0204
1286.0,0.0208
1285.0,0.0212
1284.0,0.0215
1283.0,0.0218
1282.0,0.022
1281.0,0.0222
1280.0,0.0225
1279.0,0.0227
1278.0,0.0229
1277.0,0.0231
1276.0,0.0234
1275.0,0.0238
1274.0,0.0243
1273.0,0.0249
1272.0,0.0256
1271.0,0.0264
1270.0,0.0273
1269.0,0.0281
1268.0,0.029
1267.0,0.0298
1266.0,0.0305
1265.0,0.0311
1264.0,0.0317
1263.0,0.0323
1262.0,0.0327
1261.0,0.0331
1260.0,0.0333
1259.0,0.0335
1258.0,0.0335
1257.0,0.0336
1256.0,0.0336
1255.0,0.0337
1254.0,0.0338
1253.0,0.034
1252.0,0.0343
1251.0,0.0346
1250.0,0.0349
1249.0,0.0353
1248.0,0.0358
1247.0,0.0363
1246.0,0.0368
1245.0,0.0375
1244.0,0.0381
1243.0,0.0387
1242.0,0.0393
1241.0,0.0398
1240.0,0.0403
1239.0,0.0407
1238.0,0.041
1237.0,0.0412
1236.0,0.0411
1235.0,0.0409
1234.0,0.0404
1233.0,0.0398
1232.0,0.0391
1231.0,0.0384
1230.0,0.0375
1229.0,0.0367
1228.0,0.036
1227.0,0.0352
1226.0,0.0343
1225.0,0.0335
1224.0,0.0327
1223.0,0.032
1222.0,0.0312
1221.0,0.0304
1220.0,0.0296
1219.0,0.0289
1218.0,0.0281
1217.0,0.0274
1216.0,0.0268
1215.0,0.0262
1214.0,0.0256
1213.0,0.025
1212.0,0.0244
1211.0,0.0239
1210.0,0.0233
1209.0,0.0228
1208.0,0.0224
1207.0,0.022
1206.0,0.0215
1205.0,0.0211
1204.0,0.0206
1203.0,0.0202
1202.0,0.0198
1201.0,0.0194
1200.0,0.0192
1199.0,0.0189
1198.0,0.0186
1197.0,0.0182
1196.0,0.0179
1195.0,0.0175
1194.0,0.0172
1193.0,0.0169
1192.0,0.0166
1191.0,0.0164
1190.0,0.0161
1189.0,0.0158
1188.0,0.0155
1187.0,0.0152
1186.0,0.0149
1185.0,0.0146
1184.0,0.0145
1183.0,0.0144
1182.0,0.0142
1181.0,0.0142
1180.0,0.0142
1179.0,0.0142
1178.0,0.0143
1177.0,0.0144
1176.0,0.0145
1175.0,0.0145
1174.0,0.0144
1173.0,0.0144
1172.0,0.0142
1171.0,0.014
1170.0,0.0136
1169.0,0.0132
1168.0,0.0128
1167.0,0.0123
1166.0,0.0118
1165.0,0.0114
1164.0,0.0111
1163.0,0.0108
1162.0,0.0105
1161.0,0.0102
1160.0,0.0099
1159.0,0.0097
1158.0,0.0095
1157.0,0.0093
1156.0,0.0091
1155.0,0.009
1154.0,0.009
1153.0,0.0091
1152.0,0.0093
1151.0,0.0096
1150.0,0.01
1149.0,0.0104
1148.0,0.011
1147.0,0.0116
1146.0,0.0123
1145.0,0.013
1144.0,0.0138
1143.0,0.0146
1142.0,0.0153
1141.0,0.0159
1140.0,0.0166
1139.0,0.0172
1138.0,0.0179
1137.0,0.0185
1136.0,0.019
1135.0,0.0195
1134.0,0.0199
1133.0,0.0203
1132.0,0.0208
1131.0,0.0214
1130.0,0.0219
1129.0,0.0226
1128.0,0.0234
1127.0,0.0242
1126.0,0.0252
1125.0,0.0262
1124.0,0.0273
1123.0,0.0284
1122.0,0.0294
1121.0,0.0302
1120.0,0.031
1119.0,0.0315
1118.0,0.0319
1117.0,0.032
1116.0,0.0319
1115.0,0.0316
1114.0,0.0313
1113.0,0.0308
1112.0,0.0304
1111.0,0.0303
1110.0,0.0304
1109.0,0.0309
1108.0,0.0317
1107.0,0.0328
1106.0,0.0341
1105.0,0.0356
1104.0,0.0372
1103.0,0.0387
1102.0,0.0402
1101.0,0.0417
1100.0,0.0431
1099.0,0.0444
1098.0,0.0456
1097.0,0.0467
1096.0,0.0478
1095.0,0.0486
1094.0,0.0493
1093.0,0.0497
1092.0,0.0501
1091.0,0.0503
1090.0,0.0504
1089.0,0.0504
1088.0,0.0503
1087.0,0.05
1086.0,0.0496
1085.0,0.0491
1084.0,0.0486
1083.0,0.048
1082.0,0.0473
1081.0,0.0465
1080.0,0.0458
1079.0,0.0449
1078.0,0.044
1077.0,0.0431
1076.0,0.0421
1075.0,0.041
1074.0,0.0399
1073.0,0.0388
1072.0,0.0378
1071.0,0.0368
1070.0,0.0358
1069.0,0.0348
1068.0,0.0339
1067.0,0.0331
1066.0,0.0322
1065.0,0.0314
1064.0,0.0307
1063.0,0.03
1062.0,0.0293
1061.0,0.0287
1060.0,0.0281
1059.0,0.0276
1058.0,0.0272
1057.0,0.0269
1056.0,0.0266
1055.0,0.0265
1054.0,0.0263
1053.0,0.0263
1052.0,0.0263
1051.0,0.0264
1050.0,0.0266
1049.0,0.0269
1048.0,0.0273
1047.0,0.0277
1046.0,0.028
1045.0,0.0283
1044.0,0.0286
1043.0,0.0288
1042.0,0.029
1041.0,0.0291
1040.0,0.0292
1039.0,0.0292
1038.0,0.0292
1037.0,0.029
1036.0,0.0288
1035.0,0.0286
1034.0,0.0283
1033.0,0.0281
1032.0,0.0278
1031.0,0.0275
1030.0,0.0271
1029.0,0.0268
1028.0,0.0265
1027.0,0.0262
1026.0,0.0259
1025.0,0.0257
1024.0,0.0257
1023.0,0.0262
1022.0,0.0272
1021.0,0.029
1020.0,0.0314
1019.0,0.0342
1018.0,0.037
1017.0,0.0393
1016.0,0.0408
1015.0,0.0411
1014.0,0.0404
1013.0,0.0391
1012.0,0.0374
1011.0,0.0359
1010.0,0.0345
1009.0,0.0333
1008.0,0.0324
1007.0,0.0315
1006.0,0.0307
1005.0,0.03
1004.0,0.0294
1003.0,0.0289
1002.0,0.0284
1001.0,0.028
1000.0,0.0276
999.0,0.0272
998.0,0.0269
997.0,0.0265
996.0,0.0263
995.0,0.026
994.0,0.0257
993.0,0.0254
992.0,0.0252
991.0,0.025
990.0,0.0248
989.0,0.0246
988.0,0.0245
987.0,0.0244
986.0,0.0243
985.0,0.0242
984.0,0.0241
983.0,0.024
982.0,0.024
981.0,0.0239
980.0,0.0239
979.0,0.0238
978.0,0.0238
977.0,0.0238
976.0,0.0237
975.0,0.0237
974.0,0.0236
973.0,0.0236
972.0,0.0236
971.0,0.0236
970.0,0.0236
969.0,0.0236
968.0,0.0235
967.0,0.0234
966.0,0.0232
965.0,0.023
964.0,0.0228
963.0,0.0226
962.0,0.0225
961.0,0.0224
960.0,0.0223
959.0,0.0222
958.0,0.0221
957.0,0.022
956.0,0.0219
955.0,0.0217
954.0,0.0216
953.0,0.0215
952.0,0.0214
951.0,0.0213
950.0,0.0211
949.0,0.021
948.0,0.0209
947.0,0.0209
946.0,0.0208
945.0,0.0207
944.0,0.0206
943.0,0.0205
942.0,0.0205
941.0,0.0204
940.0,0.0204
939.0,0.0203
938.0,0.0202
937.0,0.0202
936.0,0.0202
935.0,0.0201
934.0,0.02
933.0,0.0199
932.0,0.0199
931.0,0.0198
930.0,0.0197
929.0,0.0196
928.0,0.0195
927.0,0.0194
926.0,0.0193
925.0,0.0193
924.0,0.0192
923.0,0.019
922.0,0.0188
921.0,0.0187
920.0,0.0186
919.0,0.0185
918.0,0.0185
917.0,0.0184
916.0,0.0183
915.0,0.0182
914.0,0.0182
913.0,0.0182
912.0,0.0182
911.0,0.0182
910.0,0.0183
909.0,0.0185
908.0,0.0187
907.0,0.019
906.0,0.0195
905.0,0.0199
904.0,0.0203
903.0,0.0207
902.0,0.0211
901.0,0.0215
900.0,0.022
899.0,0.0224
898.0,0.0226
897.0,0.0228
896.0,0.023
895.0,0.0231
894.0,0.0231
893.0,0.0231
892.0,0.0231
891.0,0.0232
890.0,0.0232
889.0,0.0232
888.0,0.0233
887.0,0.0233
886.0,0.0234
885.0,0.0237
884.0,0.0241
883.0,0.0245
882.0,0.025
881.0,0.0256
880.0,0.0263
879.0,0.0273
878.0,0.0284
877.0,0.0296
876.0,0.0309
875.0,0.0321
874.0,0.0331
873.0,0.0338
872.0,0.0341
871.0,0.034
870.0,0.0336
869.0,0.0329
868.0,0.0321
867.0,0.0313
866.0,0.0304
865.0,0.0295
864.0,0.0286
863.0,0.0279
862.0,0.0273
861.0,0.0268
860.0,0.0265
859.0,0.0262
858.0,0.026
857.0,0.0258
856.0,0.0257
855.0,0.0256
854.0,0.0255
853.0,0.0255
852.0,0.0255
851.0,0.0255
850.0,0.0254
849.0,0.0253
848.0,0.0253
847.0,0.0253
846.0,0.0253
845.0,0.0254
844.0,0.0254
843.0,0.0254
842.0,0.0254
841.0,0.0255
840.0,0.0257
839.0,0.0257
838.0,0.0257
837.0,0.0256
836.0,0.0255
835.0,0.0253
834.0,0.0252
833.0,0.025
832.0,0.0249
831.0,0.0246
830.0,0.0244
829.0,0.0242
828.0,0.0241
827.0,0.024
826.0,0.0238
825.0,0.0236
824.0,0.0234
823.0,0.0233
822.0,0.0232
821.0,0.0232
820.0,0.0231
819.0,0.023
818.0,0.023
817.0,0.023
816.0,0.023
815.0,0.0231
814.0,0.0231
813.0,0.023
812.0,0.0229
811.0,0.0229
810.0,0.0229
809.0,0.0228
808.0,0.0228
807.0,0.0228
806.0,0.0227
805.0,0.0226
804.0,0.0225
803.0,0.0224
802.0,0.0222
801.0,0.022
800.0,0.0218
799.0,0.0218
798.0,0.0221
797.0,0.0228
796.0,0.0236
795.0,0.0245
794.0,0.0251
793.0,0.0255
792.0,0.0256
791.0,0.0255
790.0,0.0252
789.0,0.0248
788.0,0.0242
787.0,0.0235
786.0,0.0228
785.0,0.0222
784.0,0.0216
783.0,0.0211
782.0,0.0207
781.0,0.0204
780.0,0.0202
779.0,0.0199
778.0,0.0197
777.0,0.0196
776.0,0.0193
775.0,0.019
774.0,0.0187
773.0,0.0183
772.0,0.0181
771.0,0.0177
770.0,0.0173
769.0,0.0169
768.0,0.0165
767.0,0.0162
766.0,0.0159
765.0,0.0156
764.0,0.0152
763.0,0.0147
762.0,0.0142
761.0,0.0139
760.0,0.0136
759.0,0.0135
758.0,0.0132
757.0,0.0129
756.0,0.0124
755.0,0.012
754.0,0.0115
753.0,0.0112
752.0,0.0108
751.0,0.0103
750.0,0.0099
749.0,0.0095
748.0,0.0091
747.0,0.0088
746.0,0.0087
745.0,0.0088
744.0,0.0092
743.0,0.0102
742.0,0.0117
741.0,0.0141
740.0,0.0175
739.0,0.0219
738.0,0.0271
737.0,0.0329
736.0,0.0388
735.0,0.0447
734.0,0.0504
733.0,0.0563
732.0,0.0623
731.0,0.0685
730.0,0.0748
729.0,0.0811
728.0,0.0875
727.0,0.0935
726.0,0.0989
725.0,0.103
724.0,0.1052
723.0,0.1048
722.0,0.1018
721.0,0.0966
720.0,0.0904
719.0,0.0841
718.0,0.0786
717.0,0.0739
716.0,0.0697
715.0,0.066
714.0,0.0629
713.0,0.0606
712.0,0.0589
711.0,0.0577
710.0,0.0566
709.0,0.0556
708.0,0.0546
707.0,0.0536
706.0,0.0525
705.0,0.0511
704.0,0.0498
703.0,0.0487
702.0,0.048
701.0,0.0476
700.0,0.0469
699.0,0.0458
698.0,0.0445
697.0,0.0435
696.0,0.0428
695.0,0.0423
694.0,0.0415
693.0,0.0406
692.0,0.0399
691.0,0.0394
690.0,0.0392
689.0,0.039
688.0,0.0389
687.0,0.0388
686.0,0.0385
685.0,0.0379
684.0,0.037
683.0,0.0365
682.0,0.0368
681.0,0.0377
680.0,0.0384
679.0,0.0381
678.0,0.0373
677.0,0.0368
676.0,0.0367
675.0,0.0368
674.0,0.0365
673.0,0.0358
672.0,0.0347
671.0,0.0336
670.0,0.0325
669.0,0.0315
668.0,0.0314
667.0,0.0326
666.0,0.0338
665.0,0.0342
664.0,0.0342
663.0,0.0341
662.0,0.034
661.0,0.0338
660.0,0.0333
659.0,0.0325
658.0,0.0316
657.0,0.0311
656.0,0.031
655.0,0.0311
654.0,0.0312
653.0,0.0315
652.0,0.0319
651.0,0.0322
650.0,0.0321
649.0,0.0318
648.0,0.0317
647.0,0.032
646.0,0.0323
645.0,0.0322
644.0,0.0315
643.0,0.0304
642.0,0.0294
641.0,0.029
640.0,0.0292
639.0,0.0297
638.0,0.03
637.0,0.0303
636.0,0.0305
635.0,0.0308
634.0,0.0313
633.0,0.0318
632.0,0.0322
631.0,0.0324
630.0,0.0325
629.0,0.0326
628.0,0.033
627.0,0.0331
626.0,0.0329
625.0,0.0322
624.0,0.0313
623.0,0.0304
622.0,0.0299
621.0,0.03
620.0,0.0306
619.0,0.0312
618.0,0.0314
617.0,0.0312
616.0,0.0307
615.0,0.0304
614.0,0.0302
613.0,0.0302
612.0,0.0303
611.0,0.0307
610.0,0.0312
609.0,0.032
608.0,0.0328
607.0,0.0334
606.0,0.0334
605.0,0.0328
604.0,0.032
603.0,0.0318
602.0,0.032
601.0,0.0323
600.0,0.0323
