cm-1,A
4000.0,0.0098
3999.0,0.0098
3998.0,0.0098
3997.0,0.0097
3996.0,0.0097
3995.0,0.0097
3994.0,0.0097
3993.0,0.0096
3992.0,0.0096
3991.0,0.0096
3990.0,0.0096
3989.0,0.0096
3988.0,0.0097
3987.0,0.0096
3986.0,0.0096
3985.0,0.0096
3984.0,0.0095
3983.0,0.0096
3982.0,0.0096
3981.0,0.0097
3980.0,0.0097
3979.0,0.0097
3978.0,0.0096
3977.0,0.0095
3976.0,0.0095
3975.0,0.0095
3974.0,0.0095
3973.0,0.0095
3972.0,0.0095
3971.0,0.0096
3970.0,0.0096
3969.0,0.0096
3968.0,0.0096
3967.0,0.0096
3966.0,0.0095
3965.0,0.0095
3964.0,0.0096
3963.0,0.0096
3962.0,0.0096
3961.0,0.0096
3960.0,0.0096
3959.0,0.0096
3958.0,0.0097
3957.0,0.0097
3956.0,0.0097
3955.0,0.0097
3954.0,0.0097
3953.0,0.0096
3952.0,0.0095
3951.0,0.0093
3950.0,0.0093
3949.0,0.0093
3948.0,0.0093
3947.0,0.0094
3946.0,0.0095
3945.0,0.0095
3944.0,0.0095
3943.0,0.0096
3942.0,0.0096
3941.0,0.0097
3940.0,0.0097
3939.0,0.0097
3938.0,0.0097
3937.0,0.0097
3936.0,0.0097
3935.0,0.0098
3934.0,0.0097
3933.0,0.0097
3932.0,0.0096
3931.0,0.0096
3930.0,0.0097
3929.0,0.0097
3928.0,0.0098
3927.0,0.0097
3926.0,0.0097
3925.0,0.0096
3924.0,0.0096
3923.0,0.0096
3922.0,0.0097
3921.0,0.0097
3920.0,0.0097
3919.0,0.0097
3918.0,0.0097
3917.0,0.0097
3916.0,0.0098
3915.0,0.0098
3914.0,0.0099
3913.0,0.01
3912.0,0.01
3911.0,0.01
3910.0,0.0099
3909.0,0.0098
3908.0,0.0096
3907.0,0.0095
3906.0,0.0093
3905.0,0.0092
3904.0,0.0091
3903.0,0.0091
3902.0,0.0091
3901.0,0.0092
3900.0,0.0093
3899.0,0.0094
3898.0,0.0094
3897.0,0.0095
3896.0,0.0096
3895.0,0.0097
3894.0,0.0097
3893.0,0.0098
3892.0,0.0098
3891.0,0.0097
3890.0,0.0096
3889.0,0.0096
3888.0,0.0098
3887.0,0.0099
3886.0,0.0099
3885.0,0.0097
3884.0,0.0096
3883.0,0.0097
3882.0,0.0098
3881.0,0.0099
3880.0,0.0098
3879.0,0.0096
3878.0,0.0096
3877.0,0.0097
3876.0,0.0097
3875.0,0.0096
3874.0,0.0094
3873.0,0.0093
3872.0,0.0094
3871.0,0.0095
3870.0,0.0096
3869.0,0.0095
3868.0,0.0095
3867.0,0.0097
3866.0,0.0097
3865.0,0.0096
3864.0,0.0095
3863.0,0.0095
3862.0,0.0096
3861.0,0.0097
3860.0,0.0097
3859.0,0.0097
3858.0,0.0097
3857.0,0.0096
3856.0,0.0096
3855.0,0.0097
3854.0,0.0098
3853.0,0.0096
3852.0,0.0093
3851.0,0.0094
3850.0,0.0097
3849.0,0.0099
3848.0,0.0099
3847.0,0.0099
3846.0,0.0099
3845.0,0.0099
3844.0,0.0098
3843.0,0.0097
3842.0,0.0096
3841.0,0.0095
3840.0,0.0095
3839.0,0.0095
3838.0,0.0095
3837.0,0.0094
3836.0,0.0095
3835.0,0.0096
3834.0,0.0097
3833.0,0.0098
3832.0,0.0098
3831.0,0.0097
3830.0,0.0097
3829.0,0.0098
3828.0,0.0098
3827.0,0.0098
3826.0,0.0097
3825.0,0.0096
3824.0,0.0095
3823.0,0.0096
3822.0,0.0097
3821.0,0.0097
3820.0,0.0096
3819.0,0.0096
3818.0,0.0098
3817.0,0.0099
3816.0,0.0099
3815.0,0.0098
3814.0,0.0099
3813.0,0.01
3812.0,0.01
3811.0,0.01
3810.0,0.0099
3809.0,0.0099
3808.0,0.01
3807.0,0.01
3806.0,0.0098
3805.0,0.0097
3804.0,0.0098
3803.0,0.0099
3802.0,0.0099
3801.0,0.0098
3800.0,0.0098
3799.0,0.0099
3798.0,0.0102
3797.0,0.0103
3796.0,0.0102
3795.0,0.0102
3794.0,0.0102
3793.0,0.0103
3792.0,0.0105
3791.0,0.0105
3790.0,0.0105
3789.0,0.0104
3788.0,0.0102
3787.0,0.0101
3786.0,0.0101
3785.0,0.0101
3784.0,0.01
3783.0,0.0101
3782.0,0.0101
3781.0,0.0101
3780.0,0.0102
3779.0,0.0102
3778.0,0.0102
3777.0,0.0103
3776.0,0.0103
3775.0,0.0102
3774.0,0.0102
3773.0,0.0102
3772.0,0.0102
3771.0,0.0102
3770.0,0.0102
3769.0,0.0102
3768.0,0.0103
3767.0,0.0104
3766.0,0.0106
3765.0,0.0105
3764.0,0.0103
3763.0,0.0102
3762.0,0.0102
3761.0,0.0103
3760.0,0.0103
3759.0,0.0103
3758.0,0.0102
3757.0,0.01
3756.0,0.0099
3755.0,0.0097
3754.0,0.0096
3753.0,0.0096
3752.0,0.0096
3751.0,0.0096
3750.0,0.0095
3749.0,0.0093
3748.0,0.0094
3747.0,0.0096
3746.0,0.0099
3745.0,0.01
3744.0,0.0097
3743.0,0.0094
3742.0,0.0093
3741.0,0.0093
3740.0,0.0091
3739.0,0.0088
3738.0,0.0086
3737.0,0.0085
3736.0,0.0085
3735.0,0.0085
3734.0,0.0084
3733.0,0.0084
3732.0,0.0083
3731.0,0.0082
3730.0,0.0081
3729.0,0.0081
3728.0,0.0081
3727.0,0.008
3726.0,0.008
3725.0,0.0081
3724.0,0.0082
3723.0,0.0084
3722.0,0.0086
3721.0,0.0088
3720.0,0.009
3719.0,0.0093
3718.0,0.0095
3717.0,0.0097
3716.0,0.0099
3715.0,0.01
3714.0,0.01
3713.0,0.0099
3712.0,0.0097
3711.0,0.0096
3710.0,0.0094
3709.0,0.0093
3708.0,0.0092
3707.0,0.0092
3706.0,0.0092
3705.0,0.0091
3704.0,0.0091
3703.0,0.0091
3702.0,0.0091
3701.0,0.009
3700.0,0.0089
3699.0,0.0089
3698.0,0.009
3697.0,0.009
3696.0,0.009
3695.0,0.0091
3694.0,0.0091
3693.0,0.0091
3692.0,0.0092
3691.0,0.0095
3690.0,0.0098
3689.0,0.01
3688.0,0.01
3687.0,0.01
3686.0,0.0102
3685.0,0.0104
3684.0,0.0105
3683.0,0.0105
3682.0,0.0104
3681.0,0.0103
3680.0,0.0102
3679.0,0.0102
3678.0,0.0102
3677.0,0.0105
3676.0,0.0107
3675.0,0.0106
3674.0,0.0103
3673.0,0.0103
3672.0,0.0104
3671.0,0.0105
3670.0,0.0106
3669.0,0.0106
3668.0,0.0106
3667.0,0.0108
3666.0,0.0109
3665.0,0.011
3664.0,0.011
3663.0,0.011
3662.0,0.0109
3661.0,0.0109
3660.0,0.0108
3659.0,0.0108
3658.0,0.0109
3657.0,0.0108
3656.0,0.0107
3655.0,0.0105
3654.0,0.0103
3653.0,0.0101
3652.0,0.01
3651.0,0.01
3650.0,0.0102
3649.0,0.0104
3648.0,0.0105
3647.0,0.0105
3646.0,0.0106
3645.0,0.0107
3644.0,0.0107
3643.0,0.0108
3642.0,0.0108
3641.0,0.0109
3640.0,0.0109
3639.0,0.0109
3638.0,0.0108
3637.0,0.0107
3636.0,0.0106
3635.0,0.0104
3634.0,0.0102
3633.0,0.0101
3632.0,0.0099
3631.0,0.0097
3630.0,0.0096
3629.0,0.0096
3628.0,0.0094
3627.0,0.0094
3626.0,0.0096
3625.0,0.0097
3624.0,0.0097
3623.0,0.0095
3622.0,0.0094
3621.0,0.0094
3620.0,0.0095
3619.0,0.0097
3618.0,0.0099
3617.0,0.0101
3616.0,0.0103
3615.0,0.0106
3614.0,0.0109
3613.0,0.011
3612.0,0.011
3611.0,0.0109
3610.0,0.0108
3609.0,0.0107
3608.0,0.0106
3607.0,0.0105
3606.0,0.0105
3605.0,0.0104
3604.0,0.0103
3603.0,0.0103
3602.0,0.0103
3601.0,0.0102
3600.0,0.0103
3599.0,0.0103
3598.0,0.0104
3597.0,0.0105
3596.0,0.0105
3595.0,0.0105
3594.0,0.0106
3593.0,0.0106
3592.0,0.0106
3591.0,0.0106
3590.0,0.0106
3589.0,0.0106
3588.0,0.0108
3587.0,0.011
3586.0,0.0112
3585.0,0.0114
3584.0,0.0115
3583.0,0.0116
3582.0,0.0116
3581.0,0.0116
3580.0,0.0116
3579.0,0.0116
3578.0,0.0117
3577.0,0.0117
3576.0,0.0118
3575.0,0.0118
3574.0,0.0118
3573.0,0.0117
3572.0,0.0116
3571.0,0.0114
3570.0,0.0113
3569.0,0.0114
3568.0,0.0115
3567.0,0.0116
3566.0,0.0117
3565.0,0.0117
3564.0,0.0119
3563.0,0.012
3562.0,0.0121
3561.0,0.0121
3560.0,0.012
3559.0,0.012
3558.0,0.012
3557.0,0.0119
3556.0,0.0119
3555.0,0.0119
3554.0,0.012
3553.0,0.012
3552.0,0.012
3551.0,0.0121
3550.0,0.0121
3549.0,0.012
3548.0,0.012
3547.0,0.012
3546.0,0.0121
3545.0,0.0121
3544.0,0.0123
3543.0,0.0124
3542.0,0.0125
3541.0,0.0125
3540.0,0.0125
3539.0,0.0124
3538.0,0.0124
3537.0,0.0124
3536.0,0.0124
3535.0,0.0124
3534.0,0.0124
3533.0,0.0123
3532.0,0.0123
3531.0,0.0123
3530.0,0.0123
3529.0,0.0123
3528.0,0.0123
3527.0,0.0122
3526.0,0.0122
3525.0,0.0123
3524.0,0.0124
3523.0,0.0124
3522.0,0.0125
3521.0,0.0125
3520.0,0.0126
3519.0,0.0126
3518.0,0.0127
3517.0,0.0127
3516.0,0.0127
3515.0,0.0126
3514.0,0.0126
3513.0,0.0125
3512.0,0.0125
3511.0,0.0125
3510.0,0.0125
3509.0,0.0125
3508.0,0.0125
3507.0,0.0125
3506.0,0.0126
3505.0,0.0126
3504.0,0.0127
3503.0,0.0127
3502.0,0.0127
3501.0,0.0128
3500.0,0.0128
3499.0,0.0128
3498.0,0.0128
3497.0,0.0127
3496.0,0.0126
3495.0,0.0126
3494.0,0.0125
3493.0,0.0126
3492.0,0.0126
3491.0,0.0127
3490.0,0.0128
3489.0,0.0128
3488.0,0.0129
3487.0,0.0129
3486.0,0.0128
3485.0,0.0128
3484.0,0.0128
3483.0,0.0129
3482.0,0.0129
3481.0,0.0129
3480.0,0.0128
3479.0,0.0128
3478.0,0.0129
3477.0,0.0129
3476.0,0.0129
3475.0,0.0128
3474.0,0.0128
3473.0,0.0128
3472.0,0.0128
3471.0,0.0129
3470.0,0.013
3469.0,0.0131
3468.0,0.0131
3467.0,0.013
3466.0,0.013
3465.0,0.0129
3464.0,0.0129
3463.0,0.0129
3462.0,0.013
3461.0,0.0132
3460.0,0.0132
3459.0,0.0133
3458.0,0.0132
3457.0,0.0131
3456.0,0.013
3455.0,0.0129
3454.0,0.0129
3453.0,0.0128
3452.0,0.0128
3451.0,0.0129
3450.0,0.0129
3449.0,0.013
3448.0,0.0131
3447.0,0.0132
3446.0,0.0131
3445.0,0.0131
3444.0,0.013
3443.0,0.013
3442.0,0.013
3441.0,0.0131
3440.0,0.013
3439.0,0.013
3438.0,0.013
3437.0,0.013
3436.0,0.013
3435.0,0.013
3434.0,0.013
3433.0,0.0131
3432.0,0.0131
3431.0,0.0131
3430.0,0.0131
3429.0,0.0132
3428.0,0.0132
3427.0,0.0132
3426.0,0.0131
3425.0,0.013
3424.0,0.013
3423.0,0.013
3422.0,0.013
3421.0,0.013
3420.0,0.013
3419.0,0.013
3418.0,0.0129
3417.0,0.013
3416.0,0.013
3415.0,0.013
3414.0,0.0131
3413.0,0.0132
3412.0,0.0132
3411.0,0.0132
3410.0,0.013
3409.0,0.0129
3408.0,0.0128
3407.0,0.0129
3406.0,0.013
3405.0,0.0131
3404.0,0.0131
3403.0,0.0131
3402.0,0.013
3401.0,0.0129
3400.0,0.013
3399.0,0.013
3398.0,0.013
3397.0,0.0129
3396.0,0.0129
3395.0,0.013
3394.0,0.013
3393.0,0.013
3392.0,0.0129
3391.0,0.0129
3390.0,0.0129
3389.0,0.0129
3388.0,0.013
3387.0,0.013
3386.0,0.0131
3385.0,0.013
3384.0,0.013
3383.0,0.0129
3382.0,0.0129
3381.0,0.0129
3380.0,0.0129
3379.0,0.0129
3378.0,0.0129
3377.0,0.0128
3376.0,0.0128
3375.0,0.0128
3374.0,0.0129
3373.0,0.013
3372.0,0.013
3371.0,0.013
3370.0,0.0129
3369.0,0.0128
3368.0,0.0128
3367.0,0.0128
3366.0,0.0129
3365.0,0.013
3364.0,0.013
3363.0,0.0129
3362.0,0.0129
3361.0,0.0128
3360.0,0.0128
3359.0,0.0129
3358.0,0.013
3357.0,0.013
3356.0,0.013
3355.0,0.013
3354.0,0.013
3353.0,0.013
3352.0,0.0129
3351.0,0.0129
3350.0,0.0128
3349.0,0.0128
3348.0,0.0128
3347.0,0.0128
3346.0,0.0127
3345.0,0.0128
3344.0,0.0128
3343.0,0.0128
3342.0,0.0129
3341.0,0.0129
3340.0,0.0129
3339.0,0.0129
3338.0,0.0129
3337.0,0.0129
3336.0,0.0128
3335.0,0.0128
3334.0,0.0127
3333.0,0.0127
3332.0,0.0126
3331.0,0.0126
3330.0,0.0126
3329.0,0.0126
3328.0,0.0126
3327.0,0.0126
3326.0,0.0127
3325.0,0.0127
3324.0,0.0127
3323.0,0.0127
3322.0,0.0127
3321.0,0.0127
3320.0,0.0127
3319.0,0.0126
3318.0,0.0125
3317.0,0.0125
3316.0,0.0124
3315.0,0.0124
3314.0,0.0124
3313.0,0.0124
3312.0,0.0124
3311.0,0.0123
3310.0,0.0123
3309.0,0.0123
3308.0,0.0124
3307.0,0.0124
3306.0,0.0124
3305.0,0.0124
3304.0,0.0124
3303.0,0.0124
3302.0,0.0124
3301.0,0.0123
3300.0,0.0123
3299.0,0.0123
3298.0,0.0124
3297.0,0.0124
3296.0,0.0124
3295.0,0.0123
3294.0,0.0123
3293.0,0.0123
3292.0,0.0123
3291.0,0.0123
3290.0,0.0123
3289.0,0.0123
3288.0,0.0123
3287.0,0.0123
3286.0,0.0123
3285.0,0.0123
3284.0,0.0122
3283.0,0.0122
3282.0,0.0123
3281.0,0.0123
3280.0,0.0122
3279.0,0.0122
3278.0,0.0121
3277.0,0.0121
3276.0,0.0121
3275.0,0.0122
3274.0,0.0122
3273.0,0.0122
3272.0,0.0123
3271.0,0.0123
3270.0,0.0122
3269.0,0.0121
3268.0,0.012
3267.0,0.012
3266.0,0.0119
3265.0,0.0119
3264.0,0.0119
3263.0,0.012
3262.0,0.012
3261.0,0.0121
3260.0,0.012
3259.0,0.012
3258.0,0.0119
3257.0,0.0118
3256.0,0.0118
3255.0,0.0118
3254.0,0.0118
3253.0,0.0119
3252.0,0.0119
3251.0,0.0119
3250.0,0.0119
3249.0,0.0118
3248.0,0.0117
3247.0,0.0117
3246.0,0.0117
3245.0,0.0116
3244.0,0.0117
3243.0,0.0117
3242.0,0.0117
3241.0,0.0118
3240.0,0.0118
3239.0,0.0118
3238.0,0.0119
3237.0,0.0119
3236.0,0.0118
3235.0,0.0117
3234.0,0.0116
3233.0,0.0116
3232.0,0.0115
3231.0,0.0116
3230.0,0.0116
3229.0,0.0116
3228.0,0.0117
3227.0,0.0117
3226.0,0.0117
3225.0,0.0117
3224.0,0.0117
3223.0,0.0117
3222.0,0.0117
3221.0,0.0118
3220.0,0.0119
3219.0,0.0119
3218.0,0.0119
3217.0,0.0118
3216.0,0.0117
3215.0,0.0117
3214.0,0.0117
3213.0,0.0117
3212.0,0.0118
3211.0,0.0118
3210.0,0.0119
3209.0,0.0119
3208.0,0.0119
3207.0,0.0119
3206.0,0.0119
3205.0,0.0119
3204.0,0.0118
3203.0,0.0118
3202.0,0.0117
3201.0,0.0117
3200.0,0.0117
3199.0,0.0117
3198.0,0.0117
3197.0,0.0116
3196.0,0.0116
3195.0,0.0116
3194.0,0.0116
3193.0,0.0116
3192.0,0.0116
3191.0,0.0116
3190.0,0.0116
3189.0,0.0115
3188.0,0.0115
3187.0,0.0115
3186.0,0.0114
3185.0,0.0114
3184.0,0.0113
3183.0,0.0112
3182.0,0.0112
3181.0,0.0111
3180.0,0.0111
3179.0,0.0111
3178.0,0.0112
3177.0,0.0112
3176.0,0.0112
3175.0,0.0112
3174.0,0.0111
3173.0,0.0111
3172.0,0.011
3171.0,0.011
3170.0,0.011
3169.0,0.011
3168.0,0.011
3167.0,0.0109
3166.0,0.0109
3165.0,0.0108
3164.0,0.0108
3163.0,0.0107
3162.0,0.0107
3161.0,0.0107
3160.0,0.0108
3159.0,0.0108
3158.0,0.0109
3157.0,0.0109
3156.0,0.011
3155.0,0.0109
3154.0,0.0109
3153.0,0.0109
3152.0,0.0109
3151.0,0.0109
3150.0,0.0108
3149.0,0.0107
3148.0,0.0105
3147.0,0.0105
3146.0,0.0105
3145.0,0.0106
3144.0,0.0106
3143.0,0.0106
3142.0,0.0106
3141.0,0.0106
3140.0,0.0106
3139.0,0.0105
3138.0,0.0104
3137.0,0.0104
3136.0,0.0103
3135.0,0.0103
3134.0,0.0103
3133.0,0.0103
3132.0,0.0102
3131.0,0.0101
3130.0,0.0101
3129.0,0.01
3128.0,0.01
3127.0,0.0099
3126.0,0.0099
3125.0,0.0099
3124.0,0.0099
3123.0,0.0099
3122.0,0.0099
3121.0,0.0098
3120.0,0.0097
3119.0,0.0097
3118.0,0.0096
3117.0,0.0096
3116.0,0.0097
3115.0,0.0098
3114.0,0.0098
3113.0,0.0098
3112.0,0.0097
3111.0,0.0097
3110.0,0.0096
3109.0,0.0095
3108.0,0.0095
3107.0,0.0095
3106.0,0.0094
3105.0,0.0093
3104.0,0.0093
3103.0,0.0092
3102.0,0.0091
3101.0,0.0091
3100.0,0.0091
3099.0,0.0091
3098.0,0.0091
3097.0,0.0091
3096.0,0.009
3095.0,0.009
3094.0,0.009
3093.0,0.0089
3092.0,0.0089
3091.0,0.0088
3090.0,0.0087
3089.0,0.0087
3088.0,0.0087
3087.0,0.0087
3086.0,0.0087
3085.0,0.0086
3084.0,0.0086
3083.0,0.0086
3082.0,0.0085
3081.0,0.0084
3080.0,0.0084
3079.0,0.0084
3078.0,0.0084
3077.0,0.0084
3076.0,0.0083
3075.0,0.0082
3074.0,0.0081
3073.0,0.0081
3072.0,0.008
3071.0,0.008
3070.0,0.008
3069.0,0.008
3068.0,0.008
3067.0,0.008
3066.0,0.008
3065.0,0.008
3064.0,0.008
3063.0,0.008
3062.0,0.0079
3061.0,0.0078
3060.0,0.0077
3059.0,0.0076
3058.0,0.0076
3057.0,0.0075
3056.0,0.0075
3055.0,0.0074
3054.0,0.0073
3053.0,0.0073
3052.0,0.0072
3051.0,0.0072
3050.0,0.0072
3049.0,0.0072
3048.0,0.0071
3047.0,0.007
3046.0,0.007
3045.0,0.007
3044.0,0.0069
3043.0,0.0068
3042.0,0.0068
3041.0,0.0067
3040.0,0.0066
3039.0,0.0065
3038.0,0.0065
3037.0,0.0064
3036.0,0.0064
3035.0,0.0063
3034.0,0.0062
3033.0,0.0061
3032.0,0.006
3031.0,0.006
3030.0,0.0059
3029.0,0.0059
3028.0,0.0058
3027.0,0.0058
3026.0,0.0058
3025.0,0.0057
3024.0,0.0056
3023.0,0.0056
3022.0,0.0055
3021.0,0.0055
3020.0,0.0055
3019.0,0.0055
3018.0,0.0054
3017.0,0.0054
3016.0,0.0053
3015.0,0.0053
3014.0,0.0052
3013.0,0.0051
3012.0,0.005
3011.0,0.005
3010.0,0.005
3009.0,0.005
3008.0,0.0049
3007.0,0.0049
3006.0,0.0049
3005.0,0.0048
3004.0,0.0048
3003.0,0.0048
3002.0,0.0048
3001.0,0.0048
3000.0,0.0048
2999.0,0.0049
2998.0,0.005
2997.0,0.0051
2996.0,0.0052
2995.0,0.0054
2994.0,0.0055
2993.0,0.0057
2992.0,0.0058
2991.0,0.006
2990.0,0.0063
2989.0,0.0066
2988.0,0.007
2987.0,0.0075
2986.0,0.008
2985.0,0.0085
2984.0,0.0092
2983.0,0.01
2982.0,0.0109
2981.0,0.0121
2980.0,0.0134
2979.0,0.0149
2978.0,0.0166
2977.0,0.0185
2976.0,0.0207
2975.0,0.0232
2974.0,0.026
2973.0,0.0293
2972.0,0.0328
2971.0,0.0368
2970.0,0.0412
2969.0,0.0461
2968.0,0.0512
2967.0,0.0567
2966.0,0.0623
2965.0,0.0678
2964.0,0.0731
2963.0,0.0779
2962.0,0.0821
2961.0,0.0854
2960.0,0.0882
2959.0,0.0908
2958.0,0.0936
2957.0,0.0969
2956.0,0.1011
2955.0,0.1062
2954.0,0.1121
2953.0,0.1183
2952.0,0.1242
2951.0,0.1288
2950.0,0.1312
2949.0,0.131
2948.0,0.1279
2947.0,0.1221
2946.0,0.1143
2945.0,0.1055
2944.0,0.0967
2943.0,0.0886
2942.0,0.0818
2941.0,0.0765
2940.0,0.0728
2939.0,0.0706
2938.0,0.0698
2937.0,0.0704
2936.0,0.0722
2935.0,0.0751
2934.0,0.0791
2933.0,0.0839
2932.0,0.0896
2931.0,0.0959
2930.0,0.1026
2929.0,0.1094
2928.0,0.1162
2927.0,0.1228
2926.0,0.1291
2925.0,0.1351
2924.0,0.141
2923.0,0.147
2922.0,0.1531
2921.0,0.1593
2920.0,0.1649
2919.0,0.1694
2918.0,0.1722
2917.0,0.1727
2916.0,0.171
2915.0,0.1673
2914.0,0.1624
2913.0,0.157
2912.0,0.1516
2911.0,0.1466
2910.0,0.1421
2909.0,0.1379
2908.0,0.134
2907.0,0.1302
2906.0,0.1264
2905.0,0.1226
2904.0,0.1188
2903.0,0.1149
2902.0,0.1111
2901.0,0.1074
2900.0,0.1038
2899.0,0.1003
2898.0,0.097
2897.0,0.094
2896.0,0.0913
2895.0,0.089
2894.0,0.0871
2893.0,0.0856
2892.0,0.0844
2891.0,0.0836
2890.0,0.0832
2889.0,0.0831
2888.0,0.0832
2887.0,0.0836
2886.0,0.0842
2885.0,0.0851
2884.0,0.0863
2883.0,0.0878
2882.0,0.0896
2881.0,0.0916
2880.0,0.0936
2879.0,0.0954
2878.0,0.0967
2877.0,0.0973
2876.0,0.0972
2875.0,0.0967
2874.0,0.0963
2873.0,0.0963
2872.0,0.0969
2871.0,0.0981
2870.0,0.0996
2869.0,0.1013
2868.0,0.1024
2867.0,0.1026
2866.0,0.1012
2865.0,0.098
2864.0,0.0933
2863.0,0.0875
2862.0,0.0812
2861.0,0.0753
2860.0,0.07
2859.0,0.0656
2858.0,0.062
2857.0,0.0593
2856.0,0.0572
2855.0,0.0558
2854.0,0.0548
2853.0,0.0544
2852.0,0.0545
2851.0,0.055
2850.0,0.0562
2849.0,0.0578
2848.0,0.0601
2847.0,0.0629
2846.0,0.0664
2845.0,0.0705
2844.0,0.0751
2843.0,0.0801
2842.0,0.0852
2841.0,0.0899
2840.0,0.094
2839.0,0.097
2838.0,0.0983
2837.0,0.0977
2836.0,0.0951
2835.0,0.0908
2834.0,0.0853
2833.0,0.0793
2832.0,0.0734
2831.0,0.0681
2830.0,0.0634
2829.0,0.0595
2828.0,0.0563
2827.0,0.0536
2826.0,0.0514
2825.0,0.0494
2824.0,0.0478
2823.0,0.0464
2822.0,0.0452
2821.0,0.0442
2820.0,0.0433
2819.0,0.0424
2818.0,0.0417
2817.0,0.041
2816.0,0.0404
2815.0,0.0399
2814.0,0.0394
2813.0,0.0389
2812.0,0.0385
2811.0,0.038
2810.0,0.0375
2809.0,0.0369
2808.0,0.0363
2807.0,0.0358
2806.0,0.0353
2805.0,0.0348
2804.0,0.0343
2803.0,0.0338
2802.0,0.0332
2801.0,0.0327
2800.0,0.0323
2799.0,0.032
2798.0,0.0317
2797.0,0.0314
2796.0,0.0312
2795.0,0.0309
2794.0,0.0306
2793.0,0.0303
2792.0,0.0301
2791.0,0.0298
2790.0,0.0295
2789.0,0.0292
2788.0,0.0289
2787.0,0.0286
2786.0,0.0283
2785.0,0.0281
2784.0,0.0279
2783.0,0.0276
2782.0,0.0274
2781.0,0.0272
2780.0,0.027
2779.0,0.0269
2778.0,0.0267
2777.0,0.0266
2776.0,0.0264
2775.0,0.0263
2774.0,0.0261
2773.0,0.026
2772.0,0.0258
2771.0,0.0257
2770.0,0.0256
2769.0,0.0255
2768.0,0.0254
2767.0,0.0252
2766.0,0.0251
2765.0,0.0249
2764.0,0.0248
2763.0,0.0247
2762.0,0.0246
2761.0,0.0245
2760.0,0.0244
2759.0,0.0244
2758.0,0.0243
2757.0,0.0242
2756.0,0.024
2755.0,0.0239
2754.0,0.0237
2753.0,0.0236
2752.0,0.0236
2751.0,0.0235
2750.0,0.0235
2749.0,0.0235
2748.0,0.0235
2747.0,0.0235
2746.0,0.0236
2745.0,0.0236
2744.0,0.0236
2743.0,0.0236
2742.0,0.0236
2741.0,0.0236
2740.0,0.0236
2739.0,0.0237
2738.0,0.0238
2737.0,0.0238
2736.0,0.0239
2735.0,0.024
2734.0,0.0241
2733.0,0.0242
2732.0,0.0243
2731.0,0.0244
2730.0,0.0245
2729.0,0.0247
2728.0,0.0249
2727.0,0.0252
2726.0,0.0254
2725.0,0.0256
2724.0,0.0258
2723.0,0.0259
2722.0,0.0258
2721.0,0.0257
2720.0,0.0255
2719.0,0.0253
2718.0,0.0251
2717.0,0.0248
2716.0,0.0246
2715.0,0.0243
2714.0,0.024
2713.0,0.0238
2712.0,0.0235
2711.0,0.0234
2710.0,0.0232
2709.0,0.0231
2708.0,0.023
2707.0,0.0229
2706.0,0.0228
2705.0,0.0227
2704.0,0.0226
2703.0,0.0225
2702.0,0.0224
2701.0,0.0223
2700.0,0.0222
2699.0,0.0221
2698.0,0.0221
2697.0,0.022
2696.0,0.0219
2695.0,0.0219
2694.0,0.0218
2693.0,0.0217
2692.0,0.0217
2691.0,0.0217
2690.0,0.0217
2689.0,0.0217
2688.0,0.0217
2687.0,0.0217
2686.0,0.0217
2685.0,0.0216
2684.0,0.0215
2683.0,0.0215
2682.0,0.0215
2681.0,0.0216
2680.0,0.0216
2679.0,0.0216
2678.0,0.0215
2677.0,0.0215
2676.0,0.0214
2675.0,0.0214
2674.0,0.0213
2673.0,0.0213
2672.0,0.0212
2671.0,0.0212
2670.0,0.0211
2669.0,0.0211
2668.0,0.0211
2667.0,0.0211
2666.0,0.021
2665.0,0.021
2664.0,0.021
2663.0,0.021
2662.0,0.021
2661.0,0.021
2660.0,0.021
2659.0,0.021
2658.0,0.0209
2657.0,0.0209
2656.0,0.0209
2655.0,0.0209
2654.0,0.0208
2653.0,0.0208
2652.0,0.0207
2651.0,0.0207
2650.0,0.0206
2649.0,0.0205
2648.0,0.0203
2647.0,0.0202
2646.0,0.0202
2645.0,0.0201
2644.0,0.0202
2643.0,0.0202
2642.0,0.0202
2641.0,0.0202
2640.0,0.0201
2639.0,0.0201
2638.0,0.02
2637.0,0.0199
2636.0,0.0199
2635.0,0.0199
2634.0,0.0199
2633.0,0.0198
2632.0,0.0198
2631.0,0.0198
2630.0,0.0199
2629.0,0.02
2628.0,0.02
2627.0,0.0199
2626.0,0.0199
2625.0,0.0198
2624.0,0.0198
2623.0,0.0198
2622.0,0.0199
2621.0,0.0199
2620.0,0.0199
2619.0,0.0199
2618.0,0.0199
2617.0,0.0199
2616.0,0.0199
2615.0,0.02
2614.0,0.02
2613.0,0.02
2612.0,0.02
2611.0,0.0199
2610.0,0.0198
2609.0,0.0197
2608.0,0.0197
2607.0,0.0196
2606.0,0.0195
2605.0,0.0195
2604.0,0.0195
2603.0,0.0194
2602.0,0.0194
2601.0,0.0193
2600.0,0.0193
2599.0,0.0193
2598.0,0.0194
2597.0,0.0193
2596.0,0.0193
2595.0,0.0193
2594.0,0.0193
2593.0,0.0193
2592.0,0.0194
2591.0,0.0194
2590.0,0.0195
2589.0,0.0195
2588.0,0.0196
2587.0,0.0197
2586.0,0.0197
2585.0,0.0198
2584.0,0.0198
2583.0,0.0198
2582.0,0.0199
2581.0,0.02
2580.0,0.02
2579.0,0.0199
2578.0,0.0198
2577.0,0.0197
2576.0,0.0196
2575.0,0.0195
2574.0,0.0195
2573.0,0.0194
2572.0,0.0193
2571.0,0.0193
2570.0,0.0193
2569.0,0.0192
2568.0,0.0192
2567.0,0.0191
2566.0,0.019
2565.0,0.0189
2564.0,0.0188
2563.0,0.0187
2562.0,0.0187
2561.0,0.0187
2560.0,0.0187
2559.0,0.0186
2558.0,0.0186
2557.0,0.0186
2556.0,0.0186
2555.0,0.0187
2554.0,0.0187
2553.0,0.0187
2552.0,0.0186
2551.0,0.0185
2550.0,0.0184
2549.0,0.0183
2548.0,0.0183
2547.0,0.0182
2546.0,0.0182
2545.0,0.0182
2544.0,0.0181
2543.0,0.0181
2542.0,0.0181
2541.0,0.0181
2540.0,0.0181
2539.0,0.0181
2538.0,0.0181
2537.0,0.0181
2536.0,0.018
2535.0,0.0179
2534.0,0.0178
2533.0,0.0178
2532.0,0.0178
2531.0,0.0178
2530.0,0.0179
2529.0,0.0178
2528.0,0.0178
2527.0,0.0178
2526.0,0.0178
2525.0,0.0178
2524.0,0.0178
2523.0,0.0178
2522.0,0.0177
2521.0,0.0177
2520.0,0.0176
2519.0,0.0176
2518.0,0.0175
2517.0,0.0175
2516.0,0.0175
2515.0,0.0175
2514.0,0.0175
2513.0,0.0175
2512.0,0.0175
2511.0,0.0174
2510.0,0.0174
2509.0,0.0173
2508.0,0.0173
2507.0,0.0172
2506.0,0.0172
2505.0,0.0172
2504.0,0.0172
2503.0,0.0172
2502.0,0.0172
2501.0,0.0172
2500.0,0.0172
2499.0,0.0172
2498.0,0.0172
2497.0,0.0172
2496.0,0.0172
2495.0,0.0173
2494.0,0.0173
2493.0,0.0173
2492.0,0.0173
2491.0,0.0172
2490.0,0.0172
2489.0,0.0171
2488.0,0.0171
2487.0,0.0171
2486.0,0.0171
2485.0,0.0171
2484.0,0.017
2483.0,0.017
2482.0,0.017
2481.0,0.017
2480.0,0.017
2479.0,0.017
2478.0,0.0171
2477.0,0.0171
2476.0,0.0171
2475.0,0.017
2474.0,0.017
2473.0,0.017
2472.0,0.017
2471.0,0.0169
2470.0,0.0169
2469.0,0.0169
2468.0,0.0169
2467.0,0.0169
2466.0,0.0168
2465.0,0.0168
2464.0,0.0167
2463.0,0.0167
2462.0,0.0167
2461.0,0.0167
2460.0,0.0168
2459.0,0.0169
2458.0,0.0169
2457.0,0.0169
2456.0,0.0169
2455.0,0.0169
2454.0,0.0168
2453.0,0.0167
2452.0,0.0167
2451.0,0.0166
2450.0,0.0167
2449.0,0.0167
2448.0,0.0167
2447.0,0.0167
2446.0,0.0167
2445.0,0.0167
2444.0,0.0167
2443.0,0.0167
2442.0,0.0167
2441.0,0.0167
2440.0,0.0167
2439.0,0.0168
2438.0,0.0168
2437.0,0.0168
2436.0,0.0168
2435.0,0.0168
2434.0,0.0168
2433.0,0.0168
2432.0,0.0168
2431.0,0.0169
2430.0,0.0169
2429.0,0.0169
2428.0,0.0169
2427.0,0.0169
2426.0,0.0169
2425.0,0.0169
2424.0,0.0169
2423.0,0.0168
2422.0,0.0168
2421.0,0.0168
2420.0,0.0168
2419.0,0.0168
2418.0,0.0168
2417.0,0.0168
2416.0,0.0168
2415.0,0.0167
2414.0,0.0167
2413.0,0.0167
2412.0,0.0167
2411.0,0.0167
2410.0,0.0166
2409.0,0.0166
2408.0,0.0166
2407.0,0.0166
2406.0,0.0166
2405.0,0.0166
2404.0,0.0167
2403.0,0.0167
2402.0,0.0167
2401.0,0.0167
2400.0,0.0167
2399.0,0.0167
2398.0,0.0167
2397.0,0.0168
2396.0,0.0168
2395.0,0.0168
2394.0,0.0167
2393.0,0.0166
2392.0,0.0166
2391.0,0.0165
2390.0,0.0164
2389.0,0.0164
2388.0,0.0163
2387.0,0.0161
2386.0,0.0158
2385.0,0.0154
2384.0,0.0149
2383.0,0.0142
2382.0,0.0133
2381.0,0.0123
2380.0,0.0113
2379.0,0.0105
2378.0,0.0099
2377.0,0.0096
2376.0,0.0095
2375.0,0.0097
2374.0,0.0099
2373.0,0.01
2372.0,0.01
2371.0,0.0096
2370.0,0.0087
2369.0,0.0071
2368.0,0.005
2367.0,0.0036
2366.0,0.0039
2365.0,0.0061
2364.0,0.0093
2363.0,0.0124
2362.0,0.0136
2361.0,0.0121
2360.0,0.0094
2359.0,0.0068
2358.0,0.0044
2357.0,0.0023
2356.0,0.0012
2355.0,0.0016
2354.0,0.0024
2353.0,0.0029
2352.0,0.003
2351.0,0.0035
2350.0,0.0044
2349.0,0.0051
2348.0,0.0051
2347.0,0.0043
2346.0,0.0037
2345.0,0.0042
2344.0,0.0055
2343.0,0.0068
2342.0,0.0069
2341.0,0.0056
2340.0,0.004
2339.0,0.003
2338.0,0.0022
2337.0,0.0016
2336.0,0.0015
2335.0,0.0022
2334.0,0.0031
2333.0,0.0035
2332.0,0.0032
2331.0,0.0029
2330.0,0.0033
2329.0,0.0041
2328.0,0.0051
2327.0,0.0059
2326.0,0.0068
2325.0,0.0073
2324.0,0.0075
2323.0,0.0076
2322.0,0.0078
2321.0,0.0083
2320.0,0.0088
2319.0,0.0095
2318.0,0.0101
2317.0,0.0105
2316.0,0.0106
2315.0,0.0104
2314.0,0.01
2313.0,0.0095
2312.0,0.009
2311.0,0.0087
2310.0,0.0088
2309.0,0.009
2308.0,0.0094
2307.0,0.0098
2306.0,0.0102
2305.0,0.0106
2304.0,0.0109
2303.0,0.0112
2302.0,0.0115
2301.0,0.0118
2300.0,0.0121
2299.0,0.0123
2298.0,0.0125
2297.0,0.0127
2296.0,0.0129
2295.0,0.0131
2294.0,0.0133
2293.0,0.0135
2292.0,0.0137
2291.0,0.0139
2290.0,0.0141
2289.0,0.0142
2288.0,0.0144
2287.0,0.0146
2286.0,0.0149
2285.0,0.0151
2284.0,0.0152
2283.0,0.0152
2282.0,0.0152
2281.0,0.0152
2280.0,0.0152
2279.0,0.0151
2278.0,0.015
2277.0,0.0149
2276.0,0.0149
2275.0,0.0148
2274.0,0.0148
2273.0,0.0148
2272.0,0.0149
2271.0,0.0149
2270.0,0.0148
2269.0,0.0148
2268.0,0.0148
2267.0,0.0148
2266.0,0.0148
2265.0,0.0148
2264.0,0.0148
2263.0,0.0148
2262.0,0.0149
2261.0,0.015
2260.0,0.015
2259.0,0.0151
2258.0,0.0151
2257.0,0.0152
2256.0,0.0153
2255.0,0.0154
2254.0,0.0154
2253.0,0.0155
2252.0,0.0155
2251.0,0.0155
2250.0,0.0154
2249.0,0.0154
2248.0,0.0154
2247.0,0.0154
2246.0,0.0154
2245.0,0.0154
2244.0,0.0154
2243.0,0.0154
2242.0,0.0154
2241.0,0.0154
2240.0,0.0155
2239.0,0.0155
2238.0,0.0155
2237.0,0.0155
2236.0,0.0155
2235.0,0.0155
2234.0,0.0155
2233.0,0.0155
2232.0,0.0155
2231.0,0.0155
2230.0,0.0155
2229.0,0.0155
2228.0,0.0156
2227.0,0.0156
2226.0,0.0156
2225.0,0.0156
2224.0,0.0155
2223.0,0.0155
2222.0,0.0155
2221.0,0.0155
2220.0,0.0155
2219.0,0.0155
2218.0,0.0154
2217.0,0.0154
2216.0,0.0154
2215.0,0.0154
2214.0,0.0154
2213.0,0.0155
2212.0,0.0155
2211.0,0.0155
2210.0,0.0155
2209.0,0.0155
2208.0,0.0155
2207.0,0.0155
2206.0,0.0155
2205.0,0.0155
2204.0,0.0156
2203.0,0.0156
2202.0,0.0156
2201.0,0.0156
2200.0,0.0155
2199.0,0.0155
2198.0,0.0155
2197.0,0.0156
2196.0,0.0156
2195.0,0.0156
2194.0,0.0156
2193.0,0.0156
2192.0,0.0156
2191.0,0.0156
2190.0,0.0156
2189.0,0.0156
2188.0,0.0156
2187.0,0.0156
2186.0,0.0156
2185.0,0.0155
2184.0,0.0155
2183.0,0.0155
2182.0,0.0154
2181.0,0.0154
2180.0,0.0155
2179.0,0.0155
2178.0,0.0155
2177.0,0.0156
2176.0,0.0156
2175.0,0.0155
2174.0,0.0155
2173.0,0.0155
2172.0,0.0155
2171.0,0.0156
2170.0,0.0156
2169.0,0.0156
2168.0,0.0155
2167.0,0.0155
2166.0,0.0155
2165.0,0.0156
2164.0,0.0156
2163.0,0.0157
2162.0,0.0157
2161.0,0.0157
2160.0,0.0156
2159.0,0.0156
2158.0,0.0155
2157.0,0.0155
2156.0,0.0155
2155.0,0.0155
2154.0,0.0154
2153.0,0.0154
2152.0,0.0154
2151.0,0.0154
2150.0,0.0154
2149.0,0.0154
2148.0,0.0154
2147.0,0.0154
2146.0,0.0154
2145.0,0.0154
2144.0,0.0154
2143.0,0.0154
2142.0,0.0154
2141.0,0.0153
2140.0,0.0153
2139.0,0.0153
2138.0,0.0154
2137.0,0.0155
2136.0,0.0155
2135.0,0.0155
2134.0,0.0155
2133.0,0.0155
2132.0,0.0154
2131.0,0.0154
2130.0,0.0154
2129.0,0.0154
2128.0,0.0154
2127.0,0.0154
2126.0,0.0153
2125.0,0.0153
2124.0,0.0153
2123.0,0.0153
2122.0,0.0153
2121.0,0.0153
2120.0,0.0153
2119.0,0.0153
2118.0,0.0153
2117.0,0.0153
2116.0,0.0153
2115.0,0.0153
2114.0,0.0152
2113.0,0.0152
2112.0,0.0152
2111.0,0.0152
2110.0,0.0152
2109.0,0.0152
2108.0,0.0152
2107.0,0.0152
2106.0,0.0152
2105.0,0.0152
2104.0,0.0152
2103.0,0.0152
2102.0,0.0152
2101.0,0.0152
2100.0,0.0152
2099.0,0.0152
2098.0,0.0152
2097.0,0.0152
2096.0,0.0151
2095.0,0.0151
2094.0,0.0151
2093.0,0.0151
2092.0,0.0151
2091.0,0.0152
2090.0,0.0152
2089.0,0.0152
2088.0,0.0152
2087.0,0.0152
2086.0,0.0152
2085.0,0.0152
2084.0,0.0152
2083.0,0.0151
2082.0,0.0151
2081.0,0.0151
2080.0,0.0151
2079.0,0.0151
2078.0,0.015
2077.0,0.015
2076.0,0.015
2075.0,0.015
2074.0,0.015
2073.0,0.015
2072.0,0.015
2071.0,0.015
2070.0,0.015
2069.0,0.015
2068.0,0.015
2067.0,0.015
2066.0,0.0151
2065.0,0.0151
2064.0,0.0151
2063.0,0.015
2062.0,0.015
2061.0,0.0149
2060.0,0.0149
2059.0,0.0149
2058.0,0.015
2057.0,0.015
2056.0,0.015
2055.0,0.015
2054.0,0.015
2053.0,0.015
2052.0,0.0151
2051.0,0.0151
2050.0,0.0151
2049.0,0.0151
2048.0,0.0152
2047.0,0.0152
2046.0,0.0152
2045.0,0.0152
2044.0,0.0152
2043.0,0.0152
2042.0,0.0152
2041.0,0.0152
2040.0,0.0152
2039.0,0.0152
2038.0,0.0152
2037.0,0.0151
2036.0,0.0151
2035.0,0.0151
2034.0,0.015
2033.0,0.015
2032.0,0.0149
2031.0,0.015
2030.0,0.015
2029.0,0.0151
2028.0,0.0151
2027.0,0.0151
2026.0,0.0151
2025.0,0.0151
2024.0,0.015
2023.0,0.015
2022.0,0.015
2021.0,0.015
2020.0,0.015
2019.0,0.0151
2018.0,0.0151
2017.0,0.0151
2016.0,0.0151
2015.0,0.0151
2014.0,0.0151
2013.0,0.0151
2012.0,0.0151
2011.0,0.015
2010.0,0.015
2009.0,0.015
2008.0,0.0151
2007.0,0.0151
2006.0,0.0151
2005.0,0.0151
2004.0,0.015
2003.0,0.015
2002.0,0.015
2001.0,0.015
2000.0,0.015
1999.0,0.015
1998.0,0.015
1997.0,0.0151
1996.0,0.0151
1995.0,0.0151
1994.0,0.015
1993.0,0.015
1992.0,0.015
1991.0,0.015
1990.0,0.015
1989.0,0.015
1988.0,0.0151
1987.0,0.0151
1986.0,0.0151
1985.0,0.0151
1984.0,0.0151
1983.0,0.0152
1982.0,0.0152
1981.0,0.0151
1980.0,0.0151
1979.0,0.0151
1978.0,0.0151
1977.0,0.0151
1976.0,0.0151
1975.0,0.015
1974.0,0.015
1973.0,0.0151
1972.0,0.0151
1971.0,0.0151
1970.0,0.0151
1969.0,0.015
1968.0,0.0149
1967.0,0.0149
1966.0,0.015
1965.0,0.015
1964.0,0.0151
1963.0,0.0151
1962.0,0.0151
1961.0,0.0151
1960.0,0.0151
1959.0,0.0151
1958.0,0.0151
1957.0,0.0151
1956.0,0.0151
1955.0,0.0151
1954.0,0.0151
1953.0,0.0151
1952.0,0.0151
1951.0,0.015
1950.0,0.015
1949.0,0.015
1948.0,0.015
1947.0,0.015
1946.0,0.015
1945.0,0.015
1944.0,0.015
1943.0,0.015
1942.0,0.0151
1941.0,0.0151
1940.0,0.0151
1939.0,0.015
1938.0,0.015
1937.0,0.015
1936.0,0.015
1935.0,0.0151
1934.0,0.0151
1933.0,0.0152
1932.0,0.0152
1931.0,0.0152
1930.0,0.0152
1929.0,0.0151
1928.0,0.0151
1927.0,0.0151
1926.0,0.0151
1925.0,0.0151
1924.0,0.0151
1923.0,0.0151
1922.0,0.0151
1921.0,0.0151
1920.0,0.0151
1919.0,0.0151
1918.0,0.0151
1917.0,0.0152
1916.0,0.0151
1915.0,0.0151
1914.0,0.0151
1913.0,0.0151
1912.0,0.0151
1911.0,0.015
1910.0,0.015
1909.0,0.015
1908.0,0.0151
1907.0,0.0151
1906.0,0.0151
1905.0,0.0152
1904.0,0.0152
1903.0,0.0151
1902.0,0.0151
1901.0,0.0151
1900.0,0.0151
1899.0,0.0151
1898.0,0.0152
1897.0,0.0151
1896.0,0.0151
1895.0,0.0151
1894.0,0.0151
1893.0,0.0152
1892.0,0.0152
1891.0,0.0152
1890.0,0.0152
1889.0,0.0152
1888.0,0.0152
1887.0,0.0151
1886.0,0.0151
1885.0,0.015
1884.0,0.015
1883.0,0.015
1882.0,0.015
1881.0,0.015
1880.0,0.015
1879.0,0.015
1878.0,0.015
1877.0,0.0151
1876.0,0.0151
1875.0,0.0151
1874.0,0.0151
1873.0,0.0151
1872.0,0.0151
1871.0,0.015
1870.0,0.0149
1869.0,0.0149
1868.0,0.0149
1867.0,0.015
1866.0,0.015
1865.0,0.015
1864.0,0.015
1863.0,0.015
1862.0,0.015
1861.0,0.015
1860.0,0.0151
1859.0,0.0151
1858.0,0.0151
1857.0,0.0152
1856.0,0.0152
1855.0,0.0152
1854.0,0.0152
1853.0,0.0152
1852.0,0.0151
1851.0,0.0151
1850.0,0.0151
1849.0,0.0151
1848.0,0.0151
1847.0,0.0151
1846.0,0.0151
1845.0,0.0151
1844.0,0.0151
1843.0,0.0151
1842.0,0.0151
1841.0,0.0151
1840.0,0.0152
1839.0,0.0152
1838.0,0.0152
1837.0,0.0152
1836.0,0.0152
1835.0,0.0152
1834.0,0.0152
1833.0,0.0152
1832.0,0.0151
1831.0,0.0151
1830.0,0.0151
1829.0,0.0151
1828.0,0.0151
1827.0,0.0151
1826.0,0.0151
1825.0,0.0151
1824.0,0.0151
1823.0,0.015
1822.0,0.015
1821.0,0.0151
1820.0,0.0151
1819.0,0.0151
1818.0,0.0151
1817.0,0.0151
1816.0,0.0151
1815.0,0.0151
1814.0,0.0151
1813.0,0.0151
1812.0,0.0151
1811.0,0.015
1810.0,0.015
1809.0,0.015
1808.0,0.015
1807.0,0.015
1806.0,0.015
1805.0,0.015
1804.0,0.015
1803.0,0.015
1802.0,0.015
1801.0,0.015
1800.0,0.015
1799.0,0.015
1798.0,0.0149
1797.0,0.0149
1796.0,0.0149
1795.0,0.015
1794.0,0.015
1793.0,0.0151
1792.0,0.0152
1791.0,0.0152
1790.0,0.0152
1789.0,0.0153
1788.0,0.0153
1787.0,0.0153
1786.0,0.0152
1785.0,0.0152
1784.0,0.0151
1783.0,0.0151
1782.0,0.015
1781.0,0.0149
1780.0,0.015
1779.0,0.0151
1778.0,0.0151
1777.0,0.0151
1776.0,0.0151
1775.0,0.0151
1774.0,0.015
1773.0,0.0149
1772.0,0.0149
1771.0,0.015
1770.0,0.0151
1769.0,0.0152
1768.0,0.0152
1767.0,0.0152
1766.0,0.0152
1765.0,0.0151
1764.0,0.0151
1763.0,0.0151
1762.0,0.0151
1761.0,0.0151
1760.0,0.0151
1759.0,0.0151
1758.0,0.0151
1757.0,0.0152
1756.0,0.0152
1755.0,0.0153
1754.0,0.0153
1753.0,0.0153
1752.0,0.0153
1751.0,0.0153
1750.0,0.0154
1749.0,0.0154
1748.0,0.0154
1747.0,0.0154
1746.0,0.0154
1745.0,0.0155
1744.0,0.0156
1743.0,0.0157
1742.0,0.0157
1741.0,0.0157
1740.0,0.0157
1739.0,0.0156
1738.0,0.0156
1737.0,0.0157
1736.0,0.0157
1735.0,0.0157
1734.0,0.0156
1733.0,0.0155
1732.0,0.0155
1731.0,0.0155
1730.0,0.0156
1729.0,0.0156
1728.0,0.0156
1727.0,0.0156
1726.0,0.0156
1725.0,0.0156
1724.0,0.0156
1723.0,0.0156
1722.0,0.0156
1721.0,0.0156
1720.0,0.0156
1719.0,0.0155
1718.0,0.0154
1717.0,0.0155
1716.0,0.0155
1715.0,0.0156
1714.0,0.0157
1713.0,0.0158
1712.0,0.0159
1711.0,0.0159
1710.0,0.0159
1709.0,0.0159
1708.0,0.0158
1707.0,0.0158
1706.0,0.0157
1705.0,0.0158
1704.0,0.0159
1703.0,0.0161
1702.0,0.0162
1701.0,0.0162
1700.0,0.0161
1699.0,0.0161
1698.0,0.0162
1697.0,0.0164
1696.0,0.0164
1695.0,0.0163
1694.0,0.0162
1693.0,0.0163
1692.0,0.0163
1691.0,0.0163
1690.0,0.0163
1689.0,0.0163
1688.0,0.0164
1687.0,0.0164
1686.0,0.0163
1685.0,0.0164
1684.0,0.0165
1683.0,0.0165
1682.0,0.0165
1681.0,0.0166
1680.0,0.0168
1679.0,0.0169
1678.0,0.0169
1677.0,0.0169
1676.0,0.0169
1675.0,0.0169
1674.0,0.0168
1673.0,0.0168
1672.0,0.0168
1671.0,0.0169
1670.0,0.0169
1669.0,0.017
1668.0,0.017
1667.0,0.017
1666.0,0.0171
1665.0,0.0171
1664.0,0.0171
1663.0,0.0171
1662.0,0.0172
1661.0,0.0172
1660.0,0.0173
1659.0,0.0173
1658.0,0.0172
1657.0,0.0172
1656.0,0.0172
1655.0,0.0172
1654.0,0.0174
1653.0,0.0176
1652.0,0.0173
1651.0,0.0171
1650.0,0.0172
1649.0,0.0171
1648.0,0.0171
1647.0,0.0171
1646.0,0.0171
1645.0,0.0171
1644.0,0.0172
1643.0,0.0172
1642.0,0.0172
1641.0,0.0171
1640.0,0.017
1639.0,0.0169
1638.0,0.0168
1637.0,0.0168
1636.0,0.0171
1635.0,0.0172
1634.0,0.0171
1633.0,0.0171
1632.0,0.0171
1631.0,0.017
1630.0,0.0169
1629.0,0.0168
1628.0,0.0168
1627.0,0.0167
1626.0,0.0167
1625.0,0.0167
1624.0,0.0167
1623.0,0.0167
1622.0,0.0167
1621.0,0.0168
1620.0,0.0168
1619.0,0.0167
1618.0,0.0166
1617.0,0.0165
1616.0,0.0164
1615.0,0.0164
1614.0,0.0164
1613.0,0.0164
1612.0,0.0163
1611.0,0.0163
1610.0,0.0162
1609.0,0.0162
1608.0,0.0162
1607.0,0.0161
1606.0,0.0161
1605.0,0.0161
1604.0,0.0161
1603.0,0.0161
1602.0,0.0161
1601.0,0.0161
1600.0,0.0161
1599.0,0.016
1598.0,0.016
1597.0,0.0159
1596.0,0.0159
1595.0,0.0158
1594.0,0.0158
1593.0,0.0158
1592.0,0.0158
1591.0,0.0158
1590.0,0.0158
1589.0,0.0158
1588.0,0.0157
1587.0,0.0157
1586.0,0.0157
1585.0,0.0156
1584.0,0.0156
1583.0,0.0156
1582.0,0.0155
1581.0,0.0155
1580.0,0.0155
1579.0,0.0154
1578.0,0.0154
1577.0,0.0154
1576.0,0.0154
1575.0,0.0153
1574.0,0.0153
1573.0,0.0153
1572.0,0.0153
1571.0,0.0152
1570.0,0.0152
1569.0,0.0153
1568.0,0.0153
1567.0,0.0153
1566.0,0.0153
1565.0,0.0153
1564.0,0.0153
1563.0,0.0153
1562.0,0.0154
1561.0,0.0152
1560.0,0.0152
1559.0,0.0154
1558.0,0.0154
1557.0,0.0153
1556.0,0.0153
1555.0,0.0154
1554.0,0.0153
1553.0,0.0153
1552.0,0.0153
1551.0,0.0152
1550.0,0.0152
1549.0,0.0152
1548.0,0.0152
1547.0,0.0152
1546.0,0.0151
1545.0,0.015
1544.0,0.015
1543.0,0.015
1542.0,0.015
1541.0,0.0152
1540.0,0.0153
1539.0,0.015
1538.0,0.0148
1537.0,0.0148
1536.0,0.0148
1535.0,0.0148
1534.0,0.0147
1533.0,0.0146
1532.0,0.0146
1531.0,0.0145
1530.0,0.0144
1529.0,0.0143
1528.0,0.0143
1527.0,0.0142
1526.0,0.0141
1525.0,0.0141
1524.0,0.0142
1523.0,0.0142
1522.0,0.0142
1521.0,0.0142
1520.0,0.0141
1519.0,0.014
1518.0,0.0139
1517.0,0.0138
1516.0,0.0139
1515.0,0.0139
1514.0,0.0139
1513.0,0.0138
1512.0,0.0137
1511.0,0.0136
1510.0,0.0136
1509.0,0.0136
1508.0,0.0139
1507.0,0.0141
1506.0,0.0139
1505.0,0.0136
1504.0,0.0136
1503.0,0.0136
1502.0,0.0135
1501.0,0.0136
1500.0,0.0137
1499.0,0.0137
1498.0,0.0137
1497.0,0.0138
1496.0,0.0138
1495.0,0.0137
1494.0,0.0137
1493.0,0.0137
1492.0,0.0137
1491.0,0.0136
1490.0,0.0136
1489.0,0.0138
1488.0,0.0141
1487.0,0.0143
1486.0,0.0144
1485.0,0.0146
1484.0,0.0149
1483.0,0.0151
1482.0,0.0155
1481.0,0.016
1480.0,0.0166
1479.0,0.0171
1478.0,0.0178
1477.0,0.0188
1476.0,0.0201
1475.0,0.0216
1474.0,0.024
1473.0,0.0282
1472.0,0.0334
1471.0,0.038
1470.0,0.0421
1469.0,0.0466
1468.0,0.0515
1467.0,0.0571
1466.0,0.064
1465.0,0.0721
1464.0,0.0792
1463.0,0.0839
1462.0,0.0868
1461.0,0.0889
1460.0,0.0905
1459.0,0.0916
1458.0,0.0932
1457.0,0.0953
1456.0,0.0963
1455.0,0.0963
1454.0,0.096
1453.0,0.0954
1452.0,0.0941
1451.0,0.0921
1450.0,0.0892
1449.0,0.0847
1448.0,0.0788
1447.0,0.0726
1446.0,0.0671
1445.0,0.0624
1444.0,0.0581
1443.0,0.0544
1442.0,0.0516
1441.0,0.0496
1440.0,0.0484
1439.0,0.0478
1438.0,0.0482
1437.0,0.049
1436.0,0.049
1435.0,0.0477
1434.0,0.0452
1433.0,0.042
1432.0,0.0385
1431.0,0.0352
1430.0,0.0326
1429.0,0.0306
1428.0,0.0292
1427.0,0.0283
1426.0,0.0275
1425.0,0.0267
1424.0,0.026
1423.0,0.0256
1422.0,0.0253
1421.0,0.0249
1420.0,0.0244
1419.0,0.024
1418.0,0.0237
1417.0,0.0234
1416.0,0.0231
1415.0,0.0229
1414.0,0.0227
1413.0,0.0224
1412.0,0.0221
1411.0,0.0218
1410.0,0.0216
1409.0,0.0213
1408.0,0.0211
1407.0,0.0209
1406.0,0.0207
1405.0,0.0205
1404.0,0.0203
1403.0,0.0202
1402.0,0.0201
1401.0,0.0199
1400.0,0.0196
1399.0,0.0195
1398.0,0.0194
1397.0,0.0192
1396.0,0.0191
1395.0,0.019
1394.0,0.0191
1393.0,0.019
1392.0,0.0189
1391.0,0.019
1390.0,0.0193
1389.0,0.0197
1388.0,0.0207
1387.0,0.0225
1386.0,0.0253
1385.0,0.0291
1384.0,0.0348
1383.0,0.0431
1382.0,0.0546
1381.0,0.0694
1380.0,0.0878
1379.0,0.1089
1378.0,0.1293
1377.0,0.1448
1376.0,0.1518
1375.0,0.1476
1374.0,0.1337
1373.0,0.1164
1372.0,0.1005
1371.0,0.0868
1370.0,0.075
1369.0,0.0653
1368.0,0.0582
1367.0,0.0536
1366.0,0.0508
1365.0,0.0494
1364.0,0.0491
1363.0,0.05
1362.0,0.0517
1361.0,0.0536
1360.0,0.0551
1359.0,0.0557
1358.0,0.0551
1357.0,0.0534
1356.0,0.0507
1355.0,0.0476
1354.0,0.0445
1353.0,0.0418
1352.0,0.0396
1351.0,0.0378
1350.0,0.0362
1349.0,0.0349
1348.0,0.0337
1347.0,0.0327
1346.0,0.0318
1345.0,0.031
1344.0,0.0303
1343.0,0.0297
1342.0,0.0292
1341.0,0.0288
1340.0,0.0285
1339.0,0.0283
1338.0,0.0281
1337.0,0.028
1336.0,0.0279
1335.0,0.028
1334.0,0.0281
1333.0,0.0284
1332.0,0.0288
1331.0,0.0291
1330.0,0.0292
1329.0,0.0291
1328.0,0.0289
1327.0,0.0284
1326.0,0.0279
1325.0,0.0274
1324.0,0.0269
1323.0,0.0264
1322.0,0.026
1321.0,0.0256
1320.0,0.0254
1319.0,0.0251
1318.0,0.0249
1317.0,0.0248
1316.0,0.0247
1315.0,0.0245
1314.0,0.0244
1313.0,0.0243
1312.0,0.0242
1311.0,0.0241
1310.0,0.0242
1309.0,0.0245
1308.0,0.0249
1307.0,0.0255
1306.0,0.0261
1305.0,0.0266
1304.0,0.0267
1303.0,0.0267
1302.0,0.0265
1301.0,0.0264
1300.0,0.0264
1299.0,0.0266
1298.0,0.0268
1297.0,0.027
1296.0,0.0271
1295.0,0.027
1294.0,0.0268
1293.0,0.0264
1292.0,0.026
1291.0,0.0256
1290.0,0.0252
1289.0,0.0249
1288.0,0.0246
1287.0,0.0244
1286.0,0.0242
1285.0,0.024
1284.0,0.0238
1283.0,0.0236
1282.0,0.0234
1281.0,0.0233
1280.0,0.0231
1279.0,0.0231
1278.0,0.023
1277.0,0.023
1276.0,0.0229
1275.0,0.0228
1274.0,0.0227
1273.0,0.0226
1272.0,0.0226
1271.0,0.0226
1270.0,0.0227
1269.0,0.0227
1268.0,0.0227
1267.0,0.0227
1266.0,0.0227
1265.0,0.0228
1264.0,0.023
1263.0,0.0231
1262.0,0.0233
1261.0,0.0235
1260.0,0.0239
1259.0,0.0243
1258.0,0.0248
1257.0,0.0253
1256.0,0.0256
1255.0,0.0256
1254.0,0.0253
1253.0,0.0248
1252.0,0.0244
1251.0,0.024
1250.0,0.0237
1249.0,0.0234
1248.0,0.0233
1247.0,0.0232
1246.0,0.0231
1245.0,0.023
1244.0,0.0229
1243.0,0.0228
1242.0,0.0227
1241.0,0.0226
1240.0,0.0226
1239.0,0.0226
1238.0,0.0226
1237.0,0.0225
1236.0,0.0225
1235.0,0.0224
1234.0,0.0224
1233.0,0.0224
1232.0,0.0223
1231.0,0.0223
1230.0,0.0223
1229.0,0.0224
1228.0,0.0225
1227.0,0.0227
1226.0,0.0229
1225.0,0.0232
1224.0,0.0234
1223.0,0.0237
1222.0,0.0239
1221.0,0.0242
1220.0,0.0243
1219.0,0.0244
1218.0,0.0244
1217.0,0.0244
1216.0,0.0242
1215.0,0.024
1214.0,0.0238
1213.0,0.0236
1212.0,0.0234
1211.0,0.0233
1210.0,0.0233
1209.0,0.0232
1208.0,0.0231
1207.0,0.0231
1206.0,0.0231
1205.0,0.0231
1204.0,0.0231
1203.0,0.023
1202.0,0.023
1201.0,0.023
1200.0,0.023
1199.0,0.023
1198.0,0.023
1197.0,0.023
1196.0,0.023
1195.0,0.023
1194.0,0.023
1193.0,0.023
1192.0,0.0231
1191.0,0.0231
1190.0,0.0231
1189.0,0.0231
1188.0,0.023
1187.0,0.023
1186.0,0.023
1185.0,0.023
1184.0,0.0231
1183.0,0.0232
1182.0,0.0234
1181.0,0.0236
1180.0,0.0238
1179.0,0.0241
1178.0,0.0245
1177.0,0.025
1176.0,0.0256
1175.0,0.0266
1174.0,0.0278
1173.0,0.0294
1172.0,0.0312
1171.0,0.0332
1170.0,0.0351
1169.0,0.0366
1168.0,0.0376
1167.0,0.0379
1166.0,0.0378
1165.0,0.0373
1164.0,0.0368
1163.0,0.0362
1162.0,0.0356
1161.0,0.0351
1160.0,0.0347
1159.0,0.0345
1158.0,0.0343
1157.0,0.0343
1156.0,0.0343
1155.0,0.0344
1154.0,0.0345
1153.0,0.0345
1152.0,0.0344
1151.0,0.034
1150.0,0.0335
1149.0,0.0328
1148.0,0.032
1147.0,0.0313
1146.0,0.0306
1145.0,0.03
1144.0,0.0294
1143.0,0.0289
1142.0,0.0284
1141.0,0.0278
1140.0,0.0274
1139.0,0.027
1138.0,0.0268
1137.0,0.0265
1136.0,0.0263
1135.0,0.0261
1134.0,0.0259
1133.0,0.0257
1132.0,0.0256
1131.0,0.0255
1130.0,0.0254
1129.0,0.0253
1128.0,0.0252
1127.0,0.0252
1126.0,0.0251
1125.0,0.0251
1124.0,0.0251
1123.0,0.0251
1122.0,0.0251
1121.0,0.0251
1120.0,0.0252
1119.0,0.0252
1118.0,0.0253
1117.0,0.0253
1116.0,0.0253
1115.0,0.0253
1114.0,0.0254
1113.0,0.0254
1112.0,0.0256
1111.0,0.0258
1110.0,0.0261
1109.0,0.0265
1108.0,0.0269
1107.0,0.0274
1106.0,0.028
1105.0,0.0286
1104.0,0.0292
1103.0,0.0295
1102.0,0.0295
1101.0,0.0293
1100.0,0.029
1099.0,0.0286
1098.0,0.0282
1097.0,0.0278
1096.0,0.0274
1095.0,0.0271
1094.0,0.0268
1093.0,0.0265
1092.0,0.0262
1091.0,0.026
1090.0,0.0258
1089.0,0.0257
1088.0,0.0256
1087.0,0.0256
1086.0,0.0255
1085.0,0.0254
1084.0,0.0252
1083.0,0.0252
1082.0,0.0251
1081.0,0.0251
1080.0,0.025
1079.0,0.0249
1078.0,0.0248
1077.0,0.0246
1076.0,0.0244
1075.0,0.0244
1074.0,0.0243
1073.0,0.0243
1072.0,0.0243
1071.0,0.0243
1070.0,0.0243
1069.0,0.0242
1068.0,0.0242
1067.0,0.0242
1066.0,0.0242
1065.0,0.0242
1064.0,0.0242
1063.0,0.0241
1062.0,0.0241
1061.0,0.0242
1060.0,0.0242
1059.0,0.0242
1058.0,0.0242
1057.0,0.0242
1056.0,0.0242
1055.0,0.0242
1054.0,0.0242
1053.0,0.0241
1052.0,0.0241
1051.0,0.0242
1050.0,0.0243
1049.0,0.0243
1048.0,0.0244
1047.0,0.0245
1046.0,0.0246
1045.0,0.0246
1044.0,0.0246
1043.0,0.0244
1042.0,0.0242
1041.0,0.024
1040.0,0.0239
1039.0,0.0237
1038.0,0.0236
1037.0,0.0235
1036.0,0.0234
1035.0,0.0233
1034.0,0.0231
1033.0,0.0229
1032.0,0.0227
1031.0,0.0226
1030.0,0.0225
1029.0,0.0224
1028.0,0.0223
1027.0,0.0222
1026.0,0.0221
1025.0,0.0221
1024.0,0.022
1023.0,0.022
1022.0,0.022
1021.0,0.022
1020.0,0.0221
1019.0,0.0221
1018.0,0.0222
1017.0,0.0222
1016.0,0.0223
1015.0,0.0223
1014.0,0.0223
1013.0,0.0224
1012.0,0.0225
1011.0,0.0226
1010.0,0.0228
1009.0,0.0231
1008.0,0.0233
1007.0,0.0237
1006.0,0.0243
1005.0,0.025
1004.0,0.026
1003.0,0.0274
1002.0,0.0292
1001.0,0.0316
1000.0,0.0341
999.0,0.0363
998.0,0.0375
997.0,0.0374
996.0,0.036
995.0,0.0338
994.0,0.0314
993.0,0.0293
992.0,0.0276
991.0,0.0263
990.0,0.0254
989.0,0.0247
988.0,0.0242
987.0,0.0239
986.0,0.0237
985.0,0.0237
984.0,0.0239
983.0,0.0242
982.0,0.0249
981.0,0.0259
980.0,0.0275
979.0,0.0298
978.0,0.0326
977.0,0.036
976.0,0.0394
975.0,0.0425
974.0,0.0446
973.0,0.0452
972.0,0.0443
971.0,0.042
970.0,0.0389
969.0,0.0358
968.0,0.0331
967.0,0.0311
966.0,0.0295
965.0,0.0283
964.0,0.0274
963.0,0.0267
962.0,0.0261
961.0,0.0256
960.0,0.0251
959.0,0.0247
958.0,0.0244
957.0,0.0242
956.0,0.0239
955.0,0.0237
954.0,0.0235
953.0,0.0233
952.0,0.0232
951.0,0.0231
950.0,0.023
949.0,0.023
948.0,0.0229
947.0,0.0229
946.0,0.023
945.0,0.0231
944.0,0.0234
943.0,0.0237
942.0,0.0241
941.0,0.0243
940.0,0.0244
939.0,0.0243
938.0,0.024
937.0,0.0235
936.0,0.023
935.0,0.0226
934.0,0.0223
933.0,0.0221
932.0,0.0219
931.0,0.0218
930.0,0.0216
929.0,0.0215
928.0,0.0214
927.0,0.0213
926.0,0.0213
925.0,0.0212
924.0,0.0212
923.0,0.0212
922.0,0.0212
921.0,0.0212
920.0,0.0212
919.0,0.0211
918.0,0.0211
917.0,0.0211
916.0,0.0211
915.0,0.0212
914.0,0.0212
913.0,0.0212
912.0,0.0212
911.0,0.0213
910.0,0.0214
909.0,0.0215
908.0,0.0218
907.0,0.0222
906.0,0.0228
905.0,0.0237
904.0,0.0249
903.0,0.0265
902.0,0.0284
901.0,0.0303
900.0,0.0318
899.0,0.0326
898.0,0.0323
897.0,0.0312
896.0,0.0296
895.0,0.028
894.0,0.0267
893.0,0.0256
892.0,0.0249
891.0,0.0243
890.0,0.0239
889.0,0.0236
888.0,0.0235
887.0,0.0234
886.0,0.0233
885.0,0.0231
884.0,0.0228
883.0,0.0226
882.0,0.0225
881.0,0.0224
880.0,0.0223
879.0,0.0222
878.0,0.0222
877.0,0.0222
876.0,0.0223
875.0,0.0225
874.0,0.0226
873.0,0.0227
872.0,0.0226
871.0,0.0226
870.0,0.0226
869.0,0.0226
868.0,0.0226
867.0,0.0225
866.0,0.0225
865.0,0.0225
864.0,0.0226
863.0,0.0227
862.0,0.0228
861.0,0.0228
860.0,0.0229
859.0,0.0229
858.0,0.023
857.0,0.0232
856.0,0.0233
855.0,0.0234
854.0,0.0234
853.0,0.0235
852.0,0.0236
851.0,0.0239
850.0,0.0242
849.0,0.0245
848.0,0.0249
847.0,0.0256
846.0,0.0267
845.0,0.0287
844.0,0.0314
843.0,0.0345
842.0,0.037
841.0,0.0378
840.0,0.0365
839.0,0.0339
838.0,0.031
837.0,0.0288
836.0,0.0273
835.0,0.0265
834.0,0.0259
833.0,0.0255
832.0,0.0253
831.0,0.025
830.0,0.0249
829.0,0.0247
828.0,0.0246
827.0,0.0244
826.0,0.0241
825.0,0.0239
824.0,0.0236
823.0,0.0235
822.0,0.0235
821.0,0.0236
820.0,0.0238
819.0,0.0239
818.0,0.0242
817.0,0.0245
816.0,0.0252
815.0,0.0261
814.0,0.0275
813.0,0.0292
812.0,0.0312
811.0,0.0331
810.0,0.0346
809.0,0.0355
808.0,0.0356
807.0,0.0348
806.0,0.0334
805.0,0.0318
804.0,0.0303
803.0,0.029
802.0,0.0281
801.0,0.0274
800.0,0.0269
799.0,0.0264
798.0,0.026
797.0,0.0257
796.0,0.0255
795.0,0.0253
794.0,0.025
793.0,0.0248
792.0,0.0245
791.0,0.0243
790.0,0.0241
789.0,0.024
788.0,0.0238
787.0,0.0235
786.0,0.0233
785.0,0.0231
784.0,0.0229
783.0,0.0227
782.0,0.0226
781.0,0.0224
780.0,0.0223
779.0,0.0221
778.0,0.0219
777.0,0.0219
776.0,0.022
775.0,0.0222
774.0,0.0224
773.0,0.0224
772.0,0.0223
771.0,0.022
770.0,0.0218
769.0,0.0217
768.0,0.0217
767.0,0.0217
766.0,0.0217
765.0,0.0216
764.0,0.0215
763.0,0.0214
762.0,0.0214
761.0,0.0215
760.0,0.0217
759.0,0.0219
758.0,0.0219
757.0,0.0219
756.0,0.0217
755.0,0.0216
754.0,0.0216
753.0,0.0216
752.0,0.0215
751.0,0.0214
750.0,0.0214
749.0,0.0214
748.0,0.0215
747.0,0.0216
746.0,0.0217
745.0,0.0217
744.0,0.0216
743.0,0.0216
742.0,0.0216
741.0,0.0216
740.0,0.0216
739.0,0.0215
738.0,0.0213
737.0,0.0211
736.0,0.021
735.0,0.0209
734.0,0.0208
733.0,0.0208
732.0,0.0209
731.0,0.021
730.0,0.0214
729.0,0.0217
728.0,0.0218
727.0,0.0215
726.0,0.021
725.0,0.0207
724.0,0.0206
723.0,0.0205
722.0,0.0203
721.0,0.0203
720.0,0.0205
719.0,0.0208
718.0,0.0211
717.0,0.0212
716.0,0.0212
715.0,0.0213
714.0,0.0214
713.0,0.0214
712.0,0.0213
711.0,0.0212
710.0,0.0212
709.0,0.0213
708.0,0.0214
707.0,0.0214
706.0,0.0213
705.0,0.0212
704.0,0.0213
703.0,0.0214
702.0,0.0213
701.0,0.0212
700.0,0.0209
699.0,0.0205
698.0,0.0201
697.0,0.0198
696.0,0.0196
695.0,0.0195
694.0,0.0191
693.0,0.0186
692.0,0.0181
691.0,0.0179
690.0,0.018
689.0,0.0181
688.0,0.0182
687.0,0.0185
686.0,0.0189
685.0,0.0191
684.0,0.0189
683.0,0.0182
682.0,0.0177
681.0,0.0175
680.0,0.0175
679.0,0.0172
678.0,0.0167
677.0,0.0161
676.0,0.0165
675.0,0.017
674.0,0.0227
673.0,0.0241
672.0,0.0234
671.0,0.0229
670.0,0.0222
669.0,0.0221
668.0,0.0221
667.0,0.0221
666.0,0.022
665.0,0.0219
664.0,0.0217
663.0,0.0216
662.0,0.0214
661.0,0.0211
660.0,0.0208
659.0,0.0204
658.0,0.0211
657.0,0.0176
656.0,0.0174
655.0,0.0183
654.0,0.0185
653.0,0.0187
652.0,0.0185
651.0,0.0181
650.0,0.0179
649.0,0.018
648.0,0.0184
647.0,0.0189
646.0,0.0194
645.0,0.0196
644.0,0.0194
643.0,0.0191
642.0,0.0191
641.0,0.0198
640.0,0.0207
639.0,0.0215
638.0,0.0221
637.0,0.0227
636.0,0.0233
635.0,0.0238
634.0,0.0241
633.0,0.0241
632.0,0.0238
631.0,0.0232
630.0,0.0226
629.0,0.0221
628.0,0.0217
627.0,0.0212
626.0,0.021
625.0,0.0211
624.0,0.0217
623.0,0.0224
622.0,0.023
621.0,0.0231
620.0,0.0227
619.0,0.0219
618.0,0.0211
617.0,0.0209
616.0,0.0213
615.0,0.022
614.0,0.0227
613.0,0.0231
612.0,0.0234
611.0,0.0236
610.0,0.0239
609.0,0.0244
608.0,0.0248
607.0,0.025
606.0,0.025
605.0,0.0249
604.0,0.0252
603.0,0.0258
602.0,0.0266
601.0,0.0268
600.0,0.0264
