cm-1,A
4000.0,0.0081
3999.0,0.008
3998.0,0.008
3997.0,0.008
3996.0,0.0081
3995.0,0.0082
3994.0,0.0082
3993.0,0.0083
3992.0,0.0083
3991.0,0.0082
3990.0,0.0082
3989.0,0.0082
3988.0,0.0082
3987.0,0.0081
3986.0,0.008
3985.0,0.008
3984.0,0.008
3983.0,0.0081
3982.0,0.0082
3981.0,0.0083
3980.0,0.0083
3979.0,0.0082
3978.0,0.0082
3977.0,0.0081
3976.0,0.0081
3975.0,0.0081
3974.0,0.0082
3973.0,0.0083
3972.0,0.0084
3971.0,0.0084
3970.0,0.0083
3969.0,0.0083
3968.0,0.0082
3967.0,0.0082
3966.0,0.0082
3965.0,0.0082
3964.0,0.0081
3963.0,0.0081
3962.0,0.0081
3961.0,0.0081
3960.0,0.0082
3959.0,0.0082
3958.0,0.0083
3957.0,0.0083
3956.0,0.0083
3955.0,0.0083
3954.0,0.0082
3953.0,0.0082
3952.0,0.0083
3951.0,0.0083
3950.0,0.0083
3949.0,0.0083
3948.0,0.0083
3947.0,0.0083
3946.0,0.0083
3945.0,0.0083
3944.0,0.0083
3943.0,0.0083
3942.0,0.0083
3941.0,0.0084
3940.0,0.0084
3939.0,0.0085
3938.0,0.0086
3937.0,0.0087
3936.0,0.0087
3935.0,0.0087
3934.0,0.0087
3933.0,0.0086
3932.0,0.0085
3931.0,0.0085
3930.0,0.0085
3929.0,0.0085
3928.0,0.0085
3927.0,0.0085
3926.0,0.0084
3925.0,0.0084
3924.0,0.0084
3923.0,0.0085
3922.0,0.0084
3921.0,0.0084
3920.0,0.0084
3919.0,0.0085
3918.0,0.0085
3917.0,0.0086
3916.0,0.0087
3915.0,0.0087
3914.0,0.0088
3913.0,0.0088
3912.0,0.0087
3911.0,0.0087
3910.0,0.0087
3909.0,0.0088
3908.0,0.0088
3907.0,0.0088
3906.0,0.0087
3905.0,0.0087
3904.0,0.0087
3903.0,0.0088
3902.0,0.0088
3901.0,0.0088
3900.0,0.0088
3899.0,0.0088
3898.0,0.0089
3897.0,0.0089
3896.0,0.0089
3895.0,0.0088
3894.0,0.0088
3893.0,0.0087
3892.0,0.0087
3891.0,0.0087
3890.0,0.0087
3889.0,0.0088
3888.0,0.0087
3887.0,0.0086
3886.0,0.0086
3885.0,0.0088
3884.0,0.0089
3883.0,0.0089
3882.0,0.0088
3881.0,0.0086
3880.0,0.0086
3879.0,0.0087
3878.0,0.0087
3877.0,0.0087
3876.0,0.0086
3875.0,0.0086
3874.0,0.0088
3873.0,0.009
3872.0,0.009
3871.0,0.0089
3870.0,0.0088
3869.0,0.0089
3868.0,0.0089
3867.0,0.0088
3866.0,0.0086
3865.0,0.0086
3864.0,0.0088
3863.0,0.0089
3862.0,0.009
3861.0,0.0089
3860.0,0.0088
3859.0,0.0089
3858.0,0.0091
3857.0,0.0093
3856.0,0.0094
3855.0,0.0092
3854.0,0.0091
3853.0,0.0091
3852.0,0.0091
3851.0,0.0091
3850.0,0.009
3849.0,0.0089
3848.0,0.0089
3847.0,0.0089
3846.0,0.0089
3845.0,0.0089
3844.0,0.009
3843.0,0.0092
3842.0,0.0093
3841.0,0.0092
3840.0,0.0089
3839.0,0.0087
3838.0,0.0087
3837.0,0.0087
3836.0,0.0088
3835.0,0.0089
3834.0,0.0089
3833.0,0.0088
3832.0,0.0088
3831.0,0.0088
3830.0,0.0087
3829.0,0.0086
3828.0,0.0084
3827.0,0.0083
3826.0,0.0085
3825.0,0.0089
3824.0,0.0092
3823.0,0.0093
3822.0,0.0093
3821.0,0.0092
3820.0,0.0092
3819.0,0.0091
3818.0,0.0089
3817.0,0.0088
3816.0,0.0089
3815.0,0.0091
3814.0,0.0092
3813.0,0.0091
3812.0,0.009
3811.0,0.009
3810.0,0.009
3809.0,0.0089
3808.0,0.0088
3807.0,0.0088
3806.0,0.009
3805.0,0.0092
3804.0,0.0093
3803.0,0.0091
3802.0,0.0092
3801.0,0.0093
3800.0,0.0094
3799.0,0.0093
3798.0,0.0091
3797.0,0.0089
3796.0,0.0089
3795.0,0.009
3794.0,0.009
3793.0,0.0091
3792.0,0.0091
3791.0,0.0091
3790.0,0.0091
3789.0,0.0092
3788.0,0.0092
3787.0,0.0092
3786.0,0.0091
3785.0,0.0091
3784.0,0.0091
3783.0,0.0092
3782.0,0.0092
3781.0,0.009
3780.0,0.0089
3779.0,0.0089
3778.0,0.009
3777.0,0.0091
3776.0,0.0091
3775.0,0.009
3774.0,0.009
3773.0,0.009
3772.0,0.009
3771.0,0.0091
3770.0,0.0092
3769.0,0.0093
3768.0,0.0093
3767.0,0.0091
3766.0,0.009
3765.0,0.009
3764.0,0.0091
3763.0,0.0092
3762.0,0.0092
3761.0,0.0091
3760.0,0.0092
3759.0,0.0093
3758.0,0.0093
3757.0,0.0093
3756.0,0.0094
3755.0,0.0095
3754.0,0.0095
3753.0,0.0096
3752.0,0.0096
3751.0,0.0097
3750.0,0.0097
3749.0,0.0097
3748.0,0.0098
3747.0,0.0098
3746.0,0.0097
3745.0,0.0096
3744.0,0.0096
3743.0,0.0096
3742.0,0.0095
3741.0,0.0094
3740.0,0.0093
3739.0,0.0092
3738.0,0.0092
3737.0,0.0091
3736.0,0.0091
3735.0,0.0091
3734.0,0.0091
3733.0,0.0091
3732.0,0.0091
3731.0,0.0092
3730.0,0.0092
3729.0,0.0092
3728.0,0.009
3727.0,0.009
3726.0,0.0091
3725.0,0.0093
3724.0,0.0094
3723.0,0.0094
3722.0,0.0094
3721.0,0.0093
3720.0,0.0093
3719.0,0.0092
3718.0,0.0091
3717.0,0.0092
3716.0,0.0093
3715.0,0.0094
3714.0,0.0095
3713.0,0.0096
3712.0,0.0096
3711.0,0.0097
3710.0,0.0097
3709.0,0.0096
3708.0,0.0095
3707.0,0.0095
3706.0,0.0095
3705.0,0.0094
3704.0,0.0093
3703.0,0.0092
3702.0,0.0091
3701.0,0.0091
3700.0,0.0093
3699.0,0.0094
3698.0,0.0094
3697.0,0.0094
3696.0,0.0094
3695.0,0.0094
3694.0,0.0095
3693.0,0.0096
3692.0,0.0097
3691.0,0.0098
3690.0,0.0098
3689.0,0.0098
3688.0,0.0098
3687.0,0.0097
3686.0,0.0097
3685.0,0.0096
3684.0,0.0096
3683.0,0.0097
3682.0,0.0097
3681.0,0.0098
3680.0,0.01
3679.0,0.0102
3678.0,0.0103
3677.0,0.0102
3676.0,0.0101
3675.0,0.0101
3674.0,0.01
3673.0,0.01
3672.0,0.0097
3671.0,0.0096
3670.0,0.0097
3669.0,0.0098
3668.0,0.0099
3667.0,0.0098
3666.0,0.0098
3665.0,0.0097
3664.0,0.0097
3663.0,0.0097
3662.0,0.0098
3661.0,0.0098
3660.0,0.0099
3659.0,0.01
3658.0,0.01
3657.0,0.0099
3656.0,0.0098
3655.0,0.0097
3654.0,0.0097
3653.0,0.0097
3652.0,0.0096
3651.0,0.0095
3650.0,0.0098
3649.0,0.0103
3648.0,0.0105
3647.0,0.0105
3646.0,0.0103
3645.0,0.0102
3644.0,0.0101
3643.0,0.0101
3642.0,0.0101
3641.0,0.0101
3640.0,0.0101
3639.0,0.0101
3638.0,0.0101
3637.0,0.01
3636.0,0.0099
3635.0,0.0098
3634.0,0.0098
3633.0,0.01
3632.0,0.0101
3631.0,0.0101
3630.0,0.0102
3629.0,0.0103
3628.0,0.0105
3627.0,0.0105
3626.0,0.0103
3625.0,0.0102
3624.0,0.0101
3623.0,0.0101
3622.0,0.0102
3621.0,0.0103
3620.0,0.0107
3619.0,0.011
3618.0,0.0112
3617.0,0.0112
3616.0,0.0111
3615.0,0.011
3614.0,0.0109
3613.0,0.0109
3612.0,0.011
3611.0,0.0111
3610.0,0.0112
3609.0,0.0113
3608.0,0.0113
3607.0,0.0113
3606.0,0.0112
3605.0,0.0111
3604.0,0.0111
3603.0,0.011
3602.0,0.011
3601.0,0.0109
3600.0,0.0109
3599.0,0.0109
3598.0,0.011
3597.0,0.011
3596.0,0.0111
3595.0,0.0111
3594.0,0.0111
3593.0,0.011
3592.0,0.0109
3591.0,0.0108
3590.0,0.0108
3589.0,0.011
3588.0,0.0112
3587.0,0.0114
3586.0,0.0114
3585.0,0.0113
3584.0,0.0113
3583.0,0.0112
3582.0,0.0112
3581.0,0.0112
3580.0,0.0112
3579.0,0.0112
3578.0,0.0112
3577.0,0.0113
3576.0,0.0113
3575.0,0.0114
3574.0,0.0115
3573.0,0.0116
3572.0,0.0116
3571.0,0.0116
3570.0,0.0114
3569.0,0.0113
3568.0,0.0112
3567.0,0.0113
3566.0,0.0114
3565.0,0.0116
3564.0,0.0116
3563.0,0.0116
3562.0,0.0116
3561.0,0.0116
3560.0,0.0116
3559.0,0.0117
3558.0,0.0117
3557.0,0.0117
3556.0,0.0117
3555.0,0.0117
3554.0,0.0117
3553.0,0.0117
3552.0,0.0118
3551.0,0.0119
3550.0,0.012
3549.0,0.0121
3548.0,0.0123
3547.0,0.0123
3546.0,0.0124
3545.0,0.0124
3544.0,0.0124
3543.0,0.0123
3542.0,0.0123
3541.0,0.0123
3540.0,0.0123
3539.0,0.0123
3538.0,0.0124
3537.0,0.0125
3536.0,0.0126
3535.0,0.0126
3534.0,0.0125
3533.0,0.0125
3532.0,0.0124
3531.0,0.0123
3530.0,0.0123
3529.0,0.0123
3528.0,0.0123
3527.0,0.0124
3526.0,0.0125
3525.0,0.0126
3524.0,0.0127
3523.0,0.0128
3522.0,0.0128
3521.0,0.0127
3520.0,0.0127
3519.0,0.0126
3518.0,0.0127
3517.0,0.0128
3516.0,0.0129
3515.0,0.0129
3514.0,0.0129
3513.0,0.0129
3512.0,0.0128
3511.0,0.0128
3510.0,0.0128
3509.0,0.0129
3508.0,0.013
3507.0,0.013
3506.0,0.0129
3505.0,0.0128
3504.0,0.0128
3503.0,0.0128
3502.0,0.0128
3501.0,0.0129
3500.0,0.013
3499.0,0.0131
3498.0,0.0132
3497.0,0.0134
3496.0,0.0135
3495.0,0.0135
3494.0,0.0136
3493.0,0.0136
3492.0,0.0135
3491.0,0.0135
3490.0,0.0134
3489.0,0.0133
3488.0,0.0133
3487.0,0.0133
3486.0,0.0134
3485.0,0.0135
3484.0,0.0136
3483.0,0.0137
3482.0,0.0136
3481.0,0.0136
3480.0,0.0135
3479.0,0.0136
3478.0,0.0137
3477.0,0.0139
3476.0,0.014
3475.0,0.014
3474.0,0.014
3473.0,0.0139
3472.0,0.0139
3471.0,0.0139
3470.0,0.0139
3469.0,0.014
3468.0,0.0141
3467.0,0.0141
3466.0,0.0141
3465.0,0.0141
3464.0,0.0141
3463.0,0.0142
3462.0,0.0142
3461.0,0.0142
3460.0,0.0142
3459.0,0.014
3458.0,0.0139
3457.0,0.0137
3456.0,0.0137
3455.0,0.0137
3454.0,0.0137
3453.0,0.0138
3452.0,0.0139
3451.0,0.014
3450.0,0.0141
3449.0,0.0141
3448.0,0.0141
3447.0,0.0141
3446.0,0.0142
3445.0,0.0143
3444.0,0.0144
3443.0,0.0144
3442.0,0.0143
3441.0,0.0142
3440.0,0.0141
3439.0,0.014
3438.0,0.014
3437.0,0.0141
3436.0,0.0143
3435.0,0.0146
3434.0,0.0148
3433.0,0.0148
3432.0,0.0148
3431.0,0.0147
3430.0,0.0145
3429.0,0.0145
3428.0,0.0144
3427.0,0.0144
3426.0,0.0144
3425.0,0.0144
3424.0,0.0143
3423.0,0.0144
3422.0,0.0144
3421.0,0.0145
3420.0,0.0145
3419.0,0.0145
3418.0,0.0146
3417.0,0.0146
3416.0,0.0147
3415.0,0.0149
3414.0,0.0149
3413.0,0.015
3412.0,0.015
3411.0,0.015
3410.0,0.0149
3409.0,0.0148
3408.0,0.0147
3407.0,0.0147
3406.0,0.0147
3405.0,0.0147
3404.0,0.0148
3403.0,0.0148
3402.0,0.0147
3401.0,0.0147
3400.0,0.0147
3399.0,0.0148
3398.0,0.0149
3397.0,0.0149
3396.0,0.0148
3395.0,0.0147
3394.0,0.0147
3393.0,0.0147
3392.0,0.0147
3391.0,0.0148
3390.0,0.0148
3389.0,0.0147
3388.0,0.0147
3387.0,0.0148
3386.0,0.0148
3385.0,0.0149
3384.0,0.0149
3383.0,0.0149
3382.0,0.0148
3381.0,0.0148
3380.0,0.0147
3379.0,0.0147
3378.0,0.0147
3377.0,0.0148
3376.0,0.0148
3375.0,0.0148
3374.0,0.0148
3373.0,0.0148
3372.0,0.0149
3371.0,0.0149
3370.0,0.015
3369.0,0.015
3368.0,0.0149
3367.0,0.0148
3366.0,0.0147
3365.0,0.0147
3364.0,0.0146
3363.0,0.0146
3362.0,0.0146
3361.0,0.0146
3360.0,0.0146
3359.0,0.0147
3358.0,0.0146
3357.0,0.0146
3356.0,0.0145
3355.0,0.0144
3354.0,0.0144
3353.0,0.0144
3352.0,0.0145
3351.0,0.0145
3350.0,0.0145
3349.0,0.0144
3348.0,0.0144
3347.0,0.0144
3346.0,0.0143
3345.0,0.0143
3344.0,0.0143
3343.0,0.0144
3342.0,0.0144
3341.0,0.0145
3340.0,0.0145
3339.0,0.0144
3338.0,0.0144
3337.0,0.0143
3336.0,0.0142
3335.0,0.0141
3334.0,0.014
3333.0,0.014
3332.0,0.014
3331.0,0.014
3330.0,0.0141
3329.0,0.0142
3328.0,0.0144
3327.0,0.0144
3326.0,0.0144
3325.0,0.0143
3324.0,0.0141
3323.0,0.014
3322.0,0.0139
3321.0,0.014
3320.0,0.0141
3319.0,0.0142
3318.0,0.0143
3317.0,0.0142
3316.0,0.0141
3315.0,0.014
3314.0,0.0139
3313.0,0.0139
3312.0,0.0138
3311.0,0.0138
3310.0,0.0138
3309.0,0.0138
3308.0,0.0138
3307.0,0.0138
3306.0,0.0138
3305.0,0.0137
3304.0,0.0137
3303.0,0.0137
3302.0,0.0137
3301.0,0.0137
3300.0,0.0138
3299.0,0.0139
3298.0,0.0139
3297.0,0.0139
3296.0,0.0138
3295.0,0.0137
3294.0,0.0136
3293.0,0.0136
3292.0,0.0136
3291.0,0.0137
3290.0,0.0137
3289.0,0.0136
3288.0,0.0135
3287.0,0.0133
3286.0,0.0133
3285.0,0.0134
3284.0,0.0135
3283.0,0.0136
3282.0,0.0136
3281.0,0.0135
3280.0,0.0133
3279.0,0.0132
3278.0,0.0131
3277.0,0.0132
3276.0,0.0133
3275.0,0.0134
3274.0,0.0134
3273.0,0.0134
3272.0,0.0133
3271.0,0.0132
3270.0,0.0132
3269.0,0.0133
3268.0,0.0134
3267.0,0.0134
3266.0,0.0134
3265.0,0.0133
3264.0,0.0133
3263.0,0.0132
3262.0,0.0132
3261.0,0.0132
3260.0,0.0133
3259.0,0.0133
3258.0,0.0133
3257.0,0.0133
3256.0,0.0132
3255.0,0.0132
3254.0,0.0131
3253.0,0.013
3252.0,0.0129
3251.0,0.0128
3250.0,0.0128
3249.0,0.0129
3248.0,0.013
3247.0,0.013
3246.0,0.0131
3245.0,0.0131
3244.0,0.013
3243.0,0.0129
3242.0,0.0128
3241.0,0.0127
3240.0,0.0127
3239.0,0.0127
3238.0,0.0128
3237.0,0.0129
3236.0,0.013
3235.0,0.013
3234.0,0.0129
3233.0,0.0128
3232.0,0.0127
3231.0,0.0126
3230.0,0.0126
3229.0,0.0127
3228.0,0.0127
3227.0,0.0127
3226.0,0.0126
3225.0,0.0125
3224.0,0.0125
3223.0,0.0125
3222.0,0.0125
3221.0,0.0127
3220.0,0.0128
3219.0,0.0129
3218.0,0.0129
3217.0,0.0129
3216.0,0.0128
3215.0,0.0127
3214.0,0.0125
3213.0,0.0124
3212.0,0.0123
3211.0,0.0122
3210.0,0.0122
3209.0,0.0121
3208.0,0.012
3207.0,0.012
3206.0,0.012
3205.0,0.012
3204.0,0.0121
3203.0,0.0121
3202.0,0.0121
3201.0,0.012
3200.0,0.0119
3199.0,0.0119
3198.0,0.0119
3197.0,0.012
3196.0,0.0121
3195.0,0.0121
3194.0,0.012
3193.0,0.0119
3192.0,0.0117
3191.0,0.0115
3190.0,0.0115
3189.0,0.0116
3188.0,0.0118
3187.0,0.0119
3186.0,0.0119
3185.0,0.0119
3184.0,0.0118
3183.0,0.0118
3182.0,0.0118
3181.0,0.0118
3180.0,0.0118
3179.0,0.0117
3178.0,0.0116
3177.0,0.0116
3176.0,0.0116
3175.0,0.0115
3174.0,0.0114
3173.0,0.0113
3172.0,0.0112
3171.0,0.0112
3170.0,0.0111
3169.0,0.0111
3168.0,0.011
3167.0,0.0109
3166.0,0.0109
3165.0,0.011
3164.0,0.0111
3163.0,0.0111
3162.0,0.011
3161.0,0.0109
3160.0,0.0109
3159.0,0.0108
3158.0,0.0108
3157.0,0.0107
3156.0,0.0107
3155.0,0.0106
3154.0,0.0106
3153.0,0.0107
3152.0,0.0108
3151.0,0.0108
3150.0,0.0108
3149.0,0.0107
3148.0,0.0107
3147.0,0.0106
3146.0,0.0106
3145.0,0.0106
3144.0,0.0105
3143.0,0.0105
3142.0,0.0104
3141.0,0.0103
3140.0,0.0103
3139.0,0.0103
3138.0,0.0104
3137.0,0.0104
3136.0,0.0104
3135.0,0.0104
3134.0,0.0104
3133.0,0.0104
3132.0,0.0103
3131.0,0.0102
3130.0,0.0101
3129.0,0.01
3128.0,0.01
3127.0,0.01
3126.0,0.01
3125.0,0.01
3124.0,0.01
3123.0,0.01
3122.0,0.01
3121.0,0.0101
3120.0,0.0101
3119.0,0.0101
3118.0,0.01
3117.0,0.0098
3116.0,0.0097
3115.0,0.0097
3114.0,0.0097
3113.0,0.0097
3112.0,0.0096
3111.0,0.0095
3110.0,0.0095
3109.0,0.0095
3108.0,0.0095
3107.0,0.0095
3106.0,0.0095
3105.0,0.0094
3104.0,0.0094
3103.0,0.0094
3102.0,0.0095
3101.0,0.0096
3100.0,0.0097
3099.0,0.0098
3098.0,0.0099
3097.0,0.0099
3096.0,0.0098
3095.0,0.0097
3094.0,0.0097
3093.0,0.0096
3092.0,0.0096
3091.0,0.0096
3090.0,0.0096
3089.0,0.0096
3088.0,0.0096
3087.0,0.0095
3086.0,0.0094
3085.0,0.0093
3084.0,0.0092
3083.0,0.0091
3082.0,0.009
3081.0,0.009
3080.0,0.009
3079.0,0.0091
3078.0,0.0091
3077.0,0.0092
3076.0,0.0092
3075.0,0.0093
3074.0,0.0092
3073.0,0.0092
3072.0,0.0092
3071.0,0.0091
3070.0,0.0091
3069.0,0.009
3068.0,0.0089
3067.0,0.0088
3066.0,0.0088
3065.0,0.0088
3064.0,0.0087
3063.0,0.0087
3062.0,0.0088
3061.0,0.0088
3060.0,0.0088
3059.0,0.0087
3058.0,0.0086
3057.0,0.0086
3056.0,0.0086
3055.0,0.0086
3054.0,0.0087
3053.0,0.0087
3052.0,0.0087
3051.0,0.0086
3050.0,0.0084
3049.0,0.0083
3048.0,0.0084
3047.0,0.0085
3046.0,0.0085
3045.0,0.0085
3044.0,0.0084
3043.0,0.0083
3042.0,0.0082
3041.0,0.0082
3040.0,0.0081
3039.0,0.0081
3038.0,0.0081
3037.0,0.0081
3036.0,0.0081
3035.0,0.0081
3034.0,0.008
3033.0,0.0079
3032.0,0.0079
3031.0,0.0079
3030.0,0.0079
3029.0,0.008
3028.0,0.008
3027.0,0.008
3026.0,0.0079
3025.0,0.0079
3024.0,0.0078
3023.0,0.0078
3022.0,0.0077
3021.0,0.0077
3020.0,0.0077
3019.0,0.0077
3018.0,0.0077
3017.0,0.0077
3016.0,0.0076
3015.0,0.0076
3014.0,0.0075
3013.0,0.0075
3012.0,0.0074
3011.0,0.0073
3010.0,0.0071
3009.0,0.007
3008.0,0.0069
3007.0,0.0069
3006.0,0.0069
3005.0,0.007
3004.0,0.007
3003.0,0.007
3002.0,0.0069
3001.0,0.0067
3000.0,0.0065
2999.0,0.0064
2998.0,0.0063
2997.0,0.0063
2996.0,0.0063
2995.0,0.0063
2994.0,0.0063
2993.0,0.0063
2992.0,0.0063
2991.0,0.0062
2990.0,0.0062
2989.0,0.0061
2988.0,0.0061
2987.0,0.0061
2986.0,0.0062
2985.0,0.0063
2984.0,0.0063
2983.0,0.0063
2982.0,0.0062
2981.0,0.0062
2980.0,0.0062
2979.0,0.0062
2978.0,0.0062
2977.0,0.0063
2976.0,0.0064
2975.0,0.0066
2974.0,0.0067
2973.0,0.0067
2972.0,0.0068
2971.0,0.0069
2970.0,0.0071
2969.0,0.0073
2968.0,0.0075
2967.0,0.0078
2966.0,0.008
2965.0,0.0082
2964.0,0.0085
2963.0,0.0088
2962.0,0.0091
2961.0,0.0094
2960.0,0.0096
2959.0,0.0099
2958.0,0.0101
2957.0,0.0104
2956.0,0.0106
2955.0,0.0108
2954.0,0.0109
2953.0,0.0111
2952.0,0.0114
2951.0,0.0117
2950.0,0.0121
2949.0,0.0127
2948.0,0.0134
2947.0,0.0144
2946.0,0.0156
2945.0,0.0171
2944.0,0.0189
2943.0,0.0209
2942.0,0.0231
2941.0,0.0255
2940.0,0.0281
2939.0,0.0309
2938.0,0.034
2937.0,0.0375
2936.0,0.0412
2935.0,0.0454
2934.0,0.05
2933.0,0.055
2932.0,0.0605
2931.0,0.0663
2930.0,0.0726
2929.0,0.0794
2928.0,0.087
2927.0,0.0954
2926.0,0.1047
2925.0,0.115
2924.0,0.1262
2923.0,0.1383
2922.0,0.151
2921.0,0.1639
2920.0,0.1763
2919.0,0.1872
2918.0,0.1954
2917.0,0.1998
2916.0,0.1997
2915.0,0.1953
2914.0,0.1875
2913.0,0.1778
2912.0,0.1676
2911.0,0.1578
2910.0,0.1488
2909.0,0.1409
2908.0,0.1341
2907.0,0.1282
2906.0,0.1232
2905.0,0.1189
2904.0,0.1152
2903.0,0.112
2902.0,0.1091
2901.0,0.1065
2900.0,0.104
2899.0,0.1017
2898.0,0.0996
2897.0,0.0975
2896.0,0.0954
2895.0,0.0934
2894.0,0.0912
2893.0,0.0889
2892.0,0.0866
2891.0,0.0843
2890.0,0.082
2889.0,0.0798
2888.0,0.0776
2887.0,0.0752
2886.0,0.0729
2885.0,0.0705
2884.0,0.0681
2883.0,0.0657
2882.0,0.0633
2881.0,0.0609
2880.0,0.0585
2879.0,0.0561
2878.0,0.0539
2877.0,0.0517
2876.0,0.0496
2875.0,0.0476
2874.0,0.0459
2873.0,0.0444
2872.0,0.0432
2871.0,0.0422
2870.0,0.0415
2869.0,0.0409
2868.0,0.0405
2867.0,0.0404
2866.0,0.0406
2865.0,0.0412
2864.0,0.0423
2863.0,0.044
2862.0,0.0466
2861.0,0.0499
2860.0,0.0543
2859.0,0.0598
2858.0,0.0668
2857.0,0.0753
2856.0,0.0858
2855.0,0.0984
2854.0,0.1132
2853.0,0.1298
2852.0,0.147
2851.0,0.1631
2850.0,0.1753
2849.0,0.1812
2848.0,0.1799
2847.0,0.172
2846.0,0.1599
2845.0,0.1458
2844.0,0.1319
2843.0,0.119
2842.0,0.1077
2841.0,0.0981
2840.0,0.0901
2839.0,0.0834
2838.0,0.0779
2837.0,0.0732
2836.0,0.0691
2835.0,0.0655
2834.0,0.0624
2833.0,0.0597
2832.0,0.0574
2831.0,0.0553
2830.0,0.0535
2829.0,0.0519
2828.0,0.0504
2827.0,0.049
2826.0,0.0477
2825.0,0.0465
2824.0,0.0454
2823.0,0.0444
2822.0,0.0435
2821.0,0.0426
2820.0,0.0419
2819.0,0.0412
2818.0,0.0404
2817.0,0.0397
2816.0,0.039
2815.0,0.0384
2814.0,0.0378
2813.0,0.0373
2812.0,0.0369
2811.0,0.0365
2810.0,0.0362
2809.0,0.0358
2808.0,0.0354
2807.0,0.035
2806.0,0.0345
2805.0,0.034
2804.0,0.0336
2803.0,0.0332
2802.0,0.0329
2801.0,0.0326
2800.0,0.0324
2799.0,0.0321
2798.0,0.0319
2797.0,0.0316
2796.0,0.0312
2795.0,0.0309
2794.0,0.0306
2793.0,0.0303
2792.0,0.0301
2791.0,0.0299
2790.0,0.0297
2789.0,0.0294
2788.0,0.0291
2787.0,0.0288
2786.0,0.0286
2785.0,0.0284
2784.0,0.0282
2783.0,0.028
2782.0,0.0278
2781.0,0.0277
2780.0,0.0275
2779.0,0.0274
2778.0,0.0272
2777.0,0.027
2776.0,0.0268
2775.0,0.0266
2774.0,0.0264
2773.0,0.0263
2772.0,0.0262
2771.0,0.0261
2770.0,0.026
2769.0,0.0259
2768.0,0.0257
2767.0,0.0256
2766.0,0.0254
2765.0,0.0253
2764.0,0.0251
2763.0,0.025
2762.0,0.0249
2761.0,0.0247
2760.0,0.0246
2759.0,0.0245
2758.0,0.0244
2757.0,0.0243
2756.0,0.0242
2755.0,0.0241
2754.0,0.024
2753.0,0.0239
2752.0,0.0239
2751.0,0.0238
2750.0,0.0237
2749.0,0.0236
2748.0,0.0235
2747.0,0.0234
2746.0,0.0233
2745.0,0.0233
2744.0,0.0233
2743.0,0.0233
2742.0,0.0233
2741.0,0.0233
2740.0,0.0232
2739.0,0.0232
2738.0,0.0231
2737.0,0.023
2736.0,0.0229
2735.0,0.0229
2734.0,0.0228
2733.0,0.0227
2732.0,0.0226
2731.0,0.0226
2730.0,0.0225
2729.0,0.0225
2728.0,0.0225
2727.0,0.0224
2726.0,0.0223
2725.0,0.0223
2724.0,0.0222
2723.0,0.0221
2722.0,0.022
2721.0,0.022
2720.0,0.022
2719.0,0.022
2718.0,0.022
2717.0,0.0219
2716.0,0.0218
2715.0,0.0217
2714.0,0.0216
2713.0,0.0215
2712.0,0.0215
2711.0,0.0215
2710.0,0.0215
2709.0,0.0216
2708.0,0.0215
2707.0,0.0214
2706.0,0.0213
2705.0,0.0212
2704.0,0.0212
2703.0,0.0211
2702.0,0.021
2701.0,0.0209
2700.0,0.0208
2699.0,0.0207
2698.0,0.0207
2697.0,0.0207
2696.0,0.0207
2695.0,0.0208
2694.0,0.0208
2693.0,0.0208
2692.0,0.0208
2691.0,0.0207
2690.0,0.0207
2689.0,0.0206
2688.0,0.0206
2687.0,0.0206
2686.0,0.0206
2685.0,0.0205
2684.0,0.0205
2683.0,0.0205
2682.0,0.0205
2681.0,0.0204
2680.0,0.0204
2679.0,0.0204
2678.0,0.0204
2677.0,0.0204
2676.0,0.0205
2675.0,0.0205
2674.0,0.0205
2673.0,0.0205
2672.0,0.0205
2671.0,0.0205
2670.0,0.0206
2669.0,0.0206
2668.0,0.0206
2667.0,0.0206
2666.0,0.0206
2665.0,0.0206
2664.0,0.0205
2663.0,0.0205
2662.0,0.0205
2661.0,0.0205
2660.0,0.0205
2659.0,0.0204
2658.0,0.0203
2657.0,0.0203
2656.0,0.0203
2655.0,0.0203
2654.0,0.0203
2653.0,0.0203
2652.0,0.0203
2651.0,0.0204
2650.0,0.0204
2649.0,0.0204
2648.0,0.0204
2647.0,0.0203
2646.0,0.0203
2645.0,0.0203
2644.0,0.0203
2643.0,0.0203
2642.0,0.0203
2641.0,0.0203
2640.0,0.0202
2639.0,0.0201
2638.0,0.0201
2637.0,0.02
2636.0,0.02
2635.0,0.0201
2634.0,0.0201
2633.0,0.0202
2632.0,0.0202
2631.0,0.0202
2630.0,0.0202
2629.0,0.0201
2628.0,0.02
2627.0,0.0199
2626.0,0.0198
2625.0,0.0197
2624.0,0.0197
2623.0,0.0197
2622.0,0.0196
2621.0,0.0195
2620.0,0.0194
2619.0,0.0193
2618.0,0.0193
2617.0,0.0194
2616.0,0.0194
2615.0,0.0195
2614.0,0.0195
2613.0,0.0195
2612.0,0.0194
2611.0,0.0192
2610.0,0.0191
2609.0,0.019
2608.0,0.0189
2607.0,0.0189
2606.0,0.0189
2605.0,0.0188
2604.0,0.0189
2603.0,0.0189
2602.0,0.0189
2601.0,0.0189
2600.0,0.0189
2599.0,0.0189
2598.0,0.0188
2597.0,0.0188
2596.0,0.0187
2595.0,0.0187
2594.0,0.0187
2593.0,0.0187
2592.0,0.0186
2591.0,0.0185
2590.0,0.0183
2589.0,0.0182
2588.0,0.0182
2587.0,0.0181
2586.0,0.0181
2585.0,0.0182
2584.0,0.0183
2583.0,0.0183
2582.0,0.0184
2581.0,0.0184
2580.0,0.0184
2579.0,0.0183
2578.0,0.0182
2577.0,0.0182
2576.0,0.0181
2575.0,0.018
2574.0,0.018
2573.0,0.0179
2572.0,0.0179
2571.0,0.0179
2570.0,0.0179
2569.0,0.0179
2568.0,0.0179
2567.0,0.0179
2566.0,0.0179
2565.0,0.0179
2564.0,0.0178
2563.0,0.0178
2562.0,0.0178
2561.0,0.0177
2560.0,0.0177
2559.0,0.0177
2558.0,0.0177
2557.0,0.0178
2556.0,0.0178
2555.0,0.0179
2554.0,0.0178
2553.0,0.0178
2552.0,0.0178
2551.0,0.0177
2550.0,0.0177
2549.0,0.0176
2548.0,0.0176
2547.0,0.0176
2546.0,0.0176
2545.0,0.0176
2544.0,0.0176
2543.0,0.0175
2542.0,0.0174
2541.0,0.0173
2540.0,0.0173
2539.0,0.0172
2538.0,0.0173
2537.0,0.0173
2536.0,0.0173
2535.0,0.0173
2534.0,0.0172
2533.0,0.0171
2532.0,0.0171
2531.0,0.0172
2530.0,0.0173
2529.0,0.0173
2528.0,0.0173
2527.0,0.0174
2526.0,0.0174
2525.0,0.0175
2524.0,0.0174
2523.0,0.0173
2522.0,0.0172
2521.0,0.0171
2520.0,0.0171
2519.0,0.0171
2518.0,0.0171
2517.0,0.0172
2516.0,0.0173
2515.0,0.0173
2514.0,0.0173
2513.0,0.0173
2512.0,0.0172
2511.0,0.0171
2510.0,0.017
2509.0,0.017
2508.0,0.0171
2507.0,0.0171
2506.0,0.0171
2505.0,0.0171
2504.0,0.0171
2503.0,0.0171
2502.0,0.0171
2501.0,0.0171
2500.0,0.017
2499.0,0.0169
2498.0,0.0169
2497.0,0.0169
2496.0,0.0169
2495.0,0.017
2494.0,0.017
2493.0,0.017
2492.0,0.017
2491.0,0.0169
2490.0,0.0168
2489.0,0.0167
2488.0,0.0167
2487.0,0.0167
2486.0,0.0167
2485.0,0.0168
2484.0,0.0168
2483.0,0.0169
2482.0,0.0169
2481.0,0.0169
2480.0,0.0169
2479.0,0.0169
2478.0,0.0169
2477.0,0.0169
2476.0,0.0169
2475.0,0.0169
2474.0,0.0168
2473.0,0.0168
2472.0,0.0168
2471.0,0.0168
2470.0,0.0167
2469.0,0.0167
2468.0,0.0166
2467.0,0.0166
2466.0,0.0166
2465.0,0.0166
2464.0,0.0166
2463.0,0.0166
2462.0,0.0167
2461.0,0.0166
2460.0,0.0166
2459.0,0.0166
2458.0,0.0165
2457.0,0.0165
2456.0,0.0165
2455.0,0.0165
2454.0,0.0165
2453.0,0.0165
2452.0,0.0166
2451.0,0.0166
2450.0,0.0166
2449.0,0.0167
2448.0,0.0167
2447.0,0.0167
2446.0,0.0167
2445.0,0.0166
2444.0,0.0166
2443.0,0.0165
2442.0,0.0165
2441.0,0.0165
2440.0,0.0165
2439.0,0.0165
2438.0,0.0165
2437.0,0.0165
2436.0,0.0166
2435.0,0.0166
2434.0,0.0166
2433.0,0.0166
2432.0,0.0165
2431.0,0.0165
2430.0,0.0165
2429.0,0.0165
2428.0,0.0166
2427.0,0.0166
2426.0,0.0166
2425.0,0.0167
2424.0,0.0167
2423.0,0.0167
2422.0,0.0167
2421.0,0.0167
2420.0,0.0167
2419.0,0.0167
2418.0,0.0167
2417.0,0.0167
2416.0,0.0168
2415.0,0.0168
2414.0,0.0168
2413.0,0.0168
2412.0,0.0168
2411.0,0.0166
2410.0,0.0165
2409.0,0.0164
2408.0,0.0164
2407.0,0.0163
2406.0,0.0163
2405.0,0.0164
2404.0,0.0164
2403.0,0.0165
2402.0,0.0165
2401.0,0.0165
2400.0,0.0166
2399.0,0.0166
2398.0,0.0167
2397.0,0.0167
2396.0,0.0167
2395.0,0.0166
2394.0,0.0166
2393.0,0.0166
2392.0,0.0166
2391.0,0.0166
2390.0,0.0167
2389.0,0.0167
2388.0,0.0167
2387.0,0.0166
2386.0,0.0166
2385.0,0.0166
2384.0,0.0165
2383.0,0.0162
2382.0,0.0159
2381.0,0.0156
2380.0,0.0152
2379.0,0.0149
2378.0,0.0147
2377.0,0.0147
2376.0,0.0149
2375.0,0.0153
2374.0,0.0155
2373.0,0.0157
2372.0,0.0157
2371.0,0.0157
2370.0,0.0157
2369.0,0.0156
2368.0,0.0151
2367.0,0.0144
2366.0,0.0138
2365.0,0.0136
2364.0,0.0142
2363.0,0.0153
2362.0,0.0166
2361.0,0.0177
2360.0,0.018
2359.0,0.0175
2358.0,0.0166
2357.0,0.0158
2356.0,0.0155
2355.0,0.0154
2354.0,0.0154
2353.0,0.0152
2352.0,0.015
2351.0,0.015
2350.0,0.0152
2349.0,0.0154
2348.0,0.0154
2347.0,0.0154
2346.0,0.0153
2345.0,0.0152
2344.0,0.0151
2343.0,0.0151
2342.0,0.0153
2341.0,0.0155
2340.0,0.0154
2339.0,0.0151
2338.0,0.015
2337.0,0.015
2336.0,0.0152
2335.0,0.0152
2334.0,0.015
2333.0,0.0145
2332.0,0.0142
2331.0,0.0144
2330.0,0.0149
2329.0,0.0154
2328.0,0.0156
2327.0,0.0157
2326.0,0.0157
2325.0,0.0158
2324.0,0.0157
2323.0,0.0155
2322.0,0.0152
2321.0,0.0152
2320.0,0.0154
2319.0,0.0158
2318.0,0.0163
2317.0,0.0166
2316.0,0.0167
2315.0,0.0166
2314.0,0.0165
2313.0,0.0164
2312.0,0.0165
2311.0,0.0166
2310.0,0.0167
2309.0,0.0168
2308.0,0.0169
2307.0,0.0169
2306.0,0.0168
2305.0,0.0167
2304.0,0.0166
2303.0,0.0167
2302.0,0.0168
2301.0,0.017
2300.0,0.017
2299.0,0.017
2298.0,0.017
2297.0,0.0171
2296.0,0.0172
2295.0,0.0172
2294.0,0.0173
2293.0,0.0172
2292.0,0.0172
2291.0,0.0171
2290.0,0.0171
2289.0,0.0171
2288.0,0.0171
2287.0,0.017
2286.0,0.017
2285.0,0.017
2284.0,0.017
2283.0,0.017
2282.0,0.0171
2281.0,0.0171
2280.0,0.0171
2279.0,0.017
2278.0,0.0168
2277.0,0.0167
2276.0,0.0167
2275.0,0.0167
2274.0,0.0169
2273.0,0.017
2272.0,0.0171
2271.0,0.017
2270.0,0.017
2269.0,0.0169
2268.0,0.0168
2267.0,0.0168
2266.0,0.0167
2265.0,0.0167
2264.0,0.0167
2263.0,0.0168
2262.0,0.0168
2261.0,0.0168
2260.0,0.0168
2259.0,0.0168
2258.0,0.0168
2257.0,0.0168
2256.0,0.0168
2255.0,0.0168
2254.0,0.0168
2253.0,0.0168
2252.0,0.0167
2251.0,0.0167
2250.0,0.0167
2249.0,0.0168
2248.0,0.0168
2247.0,0.0169
2246.0,0.017
2245.0,0.017
2244.0,0.017
2243.0,0.0169
2242.0,0.0168
2241.0,0.0168
2240.0,0.0167
2239.0,0.0167
2238.0,0.0168
2237.0,0.0168
2236.0,0.0168
2235.0,0.0168
2234.0,0.0168
2233.0,0.0168
2232.0,0.0168
2231.0,0.0168
2230.0,0.0168
2229.0,0.0169
2228.0,0.017
2227.0,0.017
2226.0,0.017
2225.0,0.017
2224.0,0.0169
2223.0,0.0168
2222.0,0.0167
2221.0,0.0167
2220.0,0.0166
2219.0,0.0166
2218.0,0.0167
2217.0,0.0167
2216.0,0.0167
2215.0,0.0167
2214.0,0.0167
2213.0,0.0168
2212.0,0.0169
2211.0,0.0169
2210.0,0.0169
2209.0,0.0169
2208.0,0.0169
2207.0,0.0168
2206.0,0.0168
2205.0,0.0169
2204.0,0.0169
2203.0,0.0168
2202.0,0.0167
2201.0,0.0167
2200.0,0.0167
2199.0,0.0167
2198.0,0.0168
2197.0,0.0168
2196.0,0.0168
2195.0,0.0168
2194.0,0.0168
2193.0,0.0168
2192.0,0.0169
2191.0,0.0169
2190.0,0.0168
2189.0,0.0167
2188.0,0.0167
2187.0,0.0167
2186.0,0.0168
2185.0,0.0168
2184.0,0.0168
2183.0,0.0168
2182.0,0.0168
2181.0,0.0168
2180.0,0.0169
2179.0,0.0169
2178.0,0.0169
2177.0,0.0169
2176.0,0.0169
2175.0,0.0169
2174.0,0.0169
2173.0,0.0169
2172.0,0.0168
2171.0,0.0167
2170.0,0.0167
2169.0,0.0167
2168.0,0.0167
2167.0,0.0168
2166.0,0.0169
2165.0,0.017
2164.0,0.017
2163.0,0.017
2162.0,0.017
2161.0,0.017
2160.0,0.017
2159.0,0.0169
2158.0,0.0169
2157.0,0.0169
2156.0,0.017
2155.0,0.017
2154.0,0.0171
2153.0,0.0171
2152.0,0.0171
2151.0,0.0171
2150.0,0.0171
2149.0,0.0171
2148.0,0.0171
2147.0,0.017
2146.0,0.017
2145.0,0.017
2144.0,0.017
2143.0,0.017
2142.0,0.0169
2141.0,0.0169
2140.0,0.0169
2139.0,0.0169
2138.0,0.0169
2137.0,0.017
2136.0,0.017
2135.0,0.017
2134.0,0.017
2133.0,0.017
2132.0,0.017
2131.0,0.017
2130.0,0.0171
2129.0,0.0171
2128.0,0.0171
2127.0,0.0171
2126.0,0.0171
2125.0,0.0171
2124.0,0.017
2123.0,0.0169
2122.0,0.0169
2121.0,0.0169
2120.0,0.017
2119.0,0.017
2118.0,0.0171
2117.0,0.0171
2116.0,0.0171
2115.0,0.0172
2114.0,0.0172
2113.0,0.0172
2112.0,0.0172
2111.0,0.0171
2110.0,0.017
2109.0,0.017
2108.0,0.017
2107.0,0.017
2106.0,0.017
2105.0,0.017
2104.0,0.017
2103.0,0.017
2102.0,0.017
2101.0,0.017
2100.0,0.017
2099.0,0.017
2098.0,0.017
2097.0,0.017
2096.0,0.0171
2095.0,0.0171
2094.0,0.0171
2093.0,0.0171
2092.0,0.0171
2091.0,0.017
2090.0,0.017
2089.0,0.017
2088.0,0.017
2087.0,0.017
2086.0,0.0171
2085.0,0.0171
2084.0,0.0172
2083.0,0.0171
2082.0,0.0171
2081.0,0.0171
2080.0,0.0172
2079.0,0.0172
2078.0,0.0172
2077.0,0.0172
2076.0,0.0172
2075.0,0.0172
2074.0,0.0171
2073.0,0.0171
2072.0,0.0172
2071.0,0.0173
2070.0,0.0173
2069.0,0.0173
2068.0,0.0173
2067.0,0.0173
2066.0,0.0173
2065.0,0.0173
2064.0,0.0173
2063.0,0.0174
2062.0,0.0173
2061.0,0.0173
2060.0,0.0173
2059.0,0.0173
2058.0,0.0173
2057.0,0.0173
2056.0,0.0173
2055.0,0.0173
2054.0,0.0174
2053.0,0.0174
2052.0,0.0174
2051.0,0.0174
2050.0,0.0173
2049.0,0.0174
2048.0,0.0174
2047.0,0.0174
2046.0,0.0174
2045.0,0.0174
2044.0,0.0174
2043.0,0.0174
2042.0,0.0175
2041.0,0.0175
2040.0,0.0175
2039.0,0.0175
2038.0,0.0175
2037.0,0.0175
2036.0,0.0175
2035.0,0.0176
2034.0,0.0176
2033.0,0.0176
2032.0,0.0176
2031.0,0.0177
2030.0,0.0177
2029.0,0.0177
2028.0,0.0177
2027.0,0.0178
2026.0,0.0178
2025.0,0.0179
2024.0,0.018
2023.0,0.0181
2022.0,0.0181
2021.0,0.018
2020.0,0.018
2019.0,0.0179
2018.0,0.0179
2017.0,0.0179
2016.0,0.018
2015.0,0.018
2014.0,0.0181
2013.0,0.0181
2012.0,0.018
2011.0,0.0179
2010.0,0.0178
2009.0,0.0177
2008.0,0.0177
2007.0,0.0178
2006.0,0.0178
2005.0,0.0179
2004.0,0.0179
2003.0,0.0179
2002.0,0.0178
2001.0,0.0178
2000.0,0.0178
1999.0,0.0177
1998.0,0.0177
1997.0,0.0177
1996.0,0.0177
1995.0,0.0177
1994.0,0.0176
1993.0,0.0176
1992.0,0.0176
1991.0,0.0176
1990.0,0.0176
1989.0,0.0177
1988.0,0.0177
1987.0,0.0178
1986.0,0.0178
1985.0,0.0178
1984.0,0.0178
1983.0,0.0178
1982.0,0.0177
1981.0,0.0177
1980.0,0.0177
1979.0,0.0177
1978.0,0.0177
1977.0,0.0178
1976.0,0.0178
1975.0,0.0178
1974.0,0.0177
1973.0,0.0177
1972.0,0.0178
1971.0,0.0178
1970.0,0.0178
1969.0,0.0179
1968.0,0.0179
1967.0,0.0179
1966.0,0.0179
1965.0,0.018
1964.0,0.018
1963.0,0.0179
1962.0,0.0179
1961.0,0.0179
1960.0,0.0179
1959.0,0.018
1958.0,0.018
1957.0,0.018
1956.0,0.018
1955.0,0.018
1954.0,0.018
1953.0,0.018
1952.0,0.018
1951.0,0.0179
1950.0,0.0179
1949.0,0.0178
1948.0,0.0178
1947.0,0.0179
1946.0,0.0179
1945.0,0.018
1944.0,0.018
1943.0,0.018
1942.0,0.0181
1941.0,0.0181
1940.0,0.0181
1939.0,0.0181
1938.0,0.0181
1937.0,0.0181
1936.0,0.0181
1935.0,0.0181
1934.0,0.0181
1933.0,0.0181
1932.0,0.0181
1931.0,0.0182
1930.0,0.0182
1929.0,0.0182
1928.0,0.0182
1927.0,0.0181
1926.0,0.0181
1925.0,0.0181
1924.0,0.0182
1923.0,0.0182
1922.0,0.0182
1921.0,0.0183
1920.0,0.0183
1919.0,0.0183
1918.0,0.0184
1917.0,0.0184
1916.0,0.0184
1915.0,0.0184
1914.0,0.0184
1913.0,0.0184
1912.0,0.0185
1911.0,0.0184
1910.0,0.0184
1909.0,0.0184
1908.0,0.0184
1907.0,0.0184
1906.0,0.0184
1905.0,0.0185
1904.0,0.0186
1903.0,0.0186
1902.0,0.0187
1901.0,0.0187
1900.0,0.0187
1899.0,0.0188
1898.0,0.0188
1897.0,0.0188
1896.0,0.0188
1895.0,0.0188
1894.0,0.0188
1893.0,0.0188
1892.0,0.0187
1891.0,0.0187
1890.0,0.0187
1889.0,0.0188
1888.0,0.0188
1887.0,0.0187
1886.0,0.0187
1885.0,0.0186
1884.0,0.0186
1883.0,0.0185
1882.0,0.0185
1881.0,0.0185
1880.0,0.0186
1879.0,0.0186
1878.0,0.0186
1877.0,0.0186
1876.0,0.0186
1875.0,0.0185
1874.0,0.0185
1873.0,0.0185
1872.0,0.0185
1871.0,0.0186
1870.0,0.0186
1869.0,0.0187
1868.0,0.0187
1867.0,0.0187
1866.0,0.0187
1865.0,0.0187
1864.0,0.0187
1863.0,0.0187
1862.0,0.0187
1861.0,0.0187
1860.0,0.0187
1859.0,0.0187
1858.0,0.0187
1857.0,0.0187
1856.0,0.0187
1855.0,0.0187
1854.0,0.0187
1853.0,0.0187
1852.0,0.0187
1851.0,0.0187
1850.0,0.0186
1849.0,0.0186
1848.0,0.0187
1847.0,0.0187
1846.0,0.0186
1845.0,0.0185
1844.0,0.0185
1843.0,0.0185
1842.0,0.0186
1841.0,0.0186
1840.0,0.0187
1839.0,0.0187
1838.0,0.0187
1837.0,0.0187
1836.0,0.0187
1835.0,0.0187
1834.0,0.0187
1833.0,0.0188
1832.0,0.0189
1831.0,0.0189
1830.0,0.0189
1829.0,0.019
1828.0,0.019
1827.0,0.019
1826.0,0.0189
1825.0,0.0189
1824.0,0.0189
1823.0,0.0189
1822.0,0.0188
1821.0,0.0188
1820.0,0.0188
1819.0,0.0189
1818.0,0.0189
1817.0,0.019
1816.0,0.019
1815.0,0.019
1814.0,0.019
1813.0,0.0191
1812.0,0.0191
1811.0,0.0191
1810.0,0.0191
1809.0,0.0191
1808.0,0.0191
1807.0,0.0191
1806.0,0.0191
1805.0,0.0191
1804.0,0.0192
1803.0,0.0192
1802.0,0.0191
1801.0,0.0191
1800.0,0.0191
1799.0,0.0191
1798.0,0.0191
1797.0,0.0191
1796.0,0.0191
1795.0,0.0191
1794.0,0.019
1793.0,0.0189
1792.0,0.0189
1791.0,0.019
1790.0,0.0192
1789.0,0.0193
1788.0,0.0193
1787.0,0.0193
1786.0,0.0192
1785.0,0.0192
1784.0,0.0192
1783.0,0.0192
1782.0,0.0192
1781.0,0.0192
1780.0,0.0193
1779.0,0.0193
1778.0,0.0193
1777.0,0.0194
1776.0,0.0194
1775.0,0.0195
1774.0,0.0194
1773.0,0.0192
1772.0,0.0191
1771.0,0.0192
1770.0,0.0192
1769.0,0.0193
1768.0,0.0194
1767.0,0.0194
1766.0,0.0194
1765.0,0.0194
1764.0,0.0194
1763.0,0.0194
1762.0,0.0195
1761.0,0.0196
1760.0,0.0197
1759.0,0.0197
1758.0,0.0197
1757.0,0.0197
1756.0,0.0197
1755.0,0.0198
1754.0,0.0199
1753.0,0.0199
1752.0,0.0199
1751.0,0.02
1750.0,0.0201
1749.0,0.0202
1748.0,0.0203
1747.0,0.0204
1746.0,0.0205
1745.0,0.0205
1744.0,0.0207
1743.0,0.0209
1742.0,0.021
1741.0,0.0211
1740.0,0.0212
1739.0,0.0213
1738.0,0.0213
1737.0,0.0212
1736.0,0.021
1735.0,0.0206
1734.0,0.0203
1733.0,0.0202
1732.0,0.0203
1731.0,0.0204
1730.0,0.0205
1729.0,0.0206
1728.0,0.0206
1727.0,0.0206
1726.0,0.0206
1725.0,0.0205
1724.0,0.0205
1723.0,0.0205
1722.0,0.0206
1721.0,0.0206
1720.0,0.0207
1719.0,0.0205
1718.0,0.0205
1717.0,0.0207
1716.0,0.0209
1715.0,0.021
1714.0,0.021
1713.0,0.021
1712.0,0.021
1711.0,0.0209
1710.0,0.0209
1709.0,0.0208
1708.0,0.0208
1707.0,0.0207
1706.0,0.0206
1705.0,0.0207
1704.0,0.0208
1703.0,0.0209
1702.0,0.021
1701.0,0.021
1700.0,0.021
1699.0,0.021
1698.0,0.0211
1697.0,0.0213
1696.0,0.0214
1695.0,0.0214
1694.0,0.0214
1693.0,0.0214
1692.0,0.0214
1691.0,0.0214
1690.0,0.0214
1689.0,0.0214
1688.0,0.0215
1687.0,0.0217
1686.0,0.0218
1685.0,0.0219
1684.0,0.022
1683.0,0.022
1682.0,0.022
1681.0,0.0221
1680.0,0.0222
1679.0,0.0222
1678.0,0.0222
1677.0,0.0222
1676.0,0.0221
1675.0,0.0221
1674.0,0.0221
1673.0,0.0222
1672.0,0.0222
1671.0,0.0222
1670.0,0.0223
1669.0,0.0224
1668.0,0.0226
1667.0,0.0226
1666.0,0.0226
1665.0,0.0226
1664.0,0.0226
1663.0,0.0226
1662.0,0.0228
1661.0,0.0229
1660.0,0.023
1659.0,0.023
1658.0,0.023
1657.0,0.023
1656.0,0.0231
1655.0,0.0233
1654.0,0.0233
1653.0,0.0235
1652.0,0.0234
1651.0,0.0234
1650.0,0.0235
1649.0,0.0236
1648.0,0.0236
1647.0,0.0235
1646.0,0.0234
1645.0,0.0234
1644.0,0.0234
1643.0,0.0234
1642.0,0.0234
1641.0,0.0234
1640.0,0.0234
1639.0,0.0233
1638.0,0.0233
1637.0,0.0233
1636.0,0.0234
1635.0,0.0236
1634.0,0.0235
1633.0,0.0235
1632.0,0.0234
1631.0,0.0234
1630.0,0.0233
1629.0,0.0233
1628.0,0.0234
1627.0,0.0234
1626.0,0.0233
1625.0,0.0233
1624.0,0.0233
1623.0,0.0233
1622.0,0.0233
1621.0,0.0233
1620.0,0.0232
1619.0,0.0232
1618.0,0.023
1617.0,0.023
1616.0,0.023
1615.0,0.0231
1614.0,0.0231
1613.0,0.0231
1612.0,0.023
1611.0,0.0229
1610.0,0.0229
1609.0,0.0229
1608.0,0.023
1607.0,0.023
1606.0,0.023
1605.0,0.023
1604.0,0.023
1603.0,0.023
1602.0,0.023
1601.0,0.023
1600.0,0.0231
1599.0,0.0231
1598.0,0.0231
1597.0,0.0232
1596.0,0.0232
1595.0,0.0232
1594.0,0.0232
1593.0,0.0232
1592.0,0.0232
1591.0,0.0232
1590.0,0.0232
1589.0,0.0233
1588.0,0.0233
1587.0,0.0233
1586.0,0.0233
1585.0,0.0233
1584.0,0.0233
1583.0,0.0234
1582.0,0.0234
1581.0,0.0234
1580.0,0.0234
1579.0,0.0235
1578.0,0.0235
1577.0,0.0235
1576.0,0.0236
1575.0,0.0236
1574.0,0.0236
1573.0,0.0237
1572.0,0.0237
1571.0,0.0237
1570.0,0.0236
1569.0,0.0235
1568.0,0.0235
1567.0,0.0234
1566.0,0.0234
1565.0,0.0233
1564.0,0.0233
1563.0,0.0232
1562.0,0.0232
1561.0,0.0232
1560.0,0.0231
1559.0,0.0231
1558.0,0.0231
1557.0,0.023
1556.0,0.023
1555.0,0.023
1554.0,0.023
1553.0,0.023
1552.0,0.0231
1551.0,0.0231
1550.0,0.0231
1549.0,0.0231
1548.0,0.0231
1547.0,0.0231
1546.0,0.0231
1545.0,0.0232
1544.0,0.0232
1543.0,0.0232
1542.0,0.0231
1541.0,0.0232
1540.0,0.0234
1539.0,0.0232
1538.0,0.023
1537.0,0.0229
1536.0,0.023
1535.0,0.023
1534.0,0.0229
1533.0,0.0229
1532.0,0.0228
1531.0,0.0227
1530.0,0.0226
1529.0,0.0225
1528.0,0.0225
1527.0,0.0224
1526.0,0.0223
1525.0,0.0221
1524.0,0.0221
1523.0,0.022
1522.0,0.022
1521.0,0.0221
1520.0,0.0223
1519.0,0.0223
1518.0,0.0223
1517.0,0.0223
1516.0,0.0223
1515.0,0.0221
1514.0,0.0219
1513.0,0.0219
1512.0,0.022
1511.0,0.0221
1510.0,0.0222
1509.0,0.0224
1508.0,0.0226
1507.0,0.0225
1506.0,0.0222
1505.0,0.022
1504.0,0.0219
1503.0,0.0219
1502.0,0.0218
1501.0,0.0218
1500.0,0.0218
1499.0,0.0217
1498.0,0.0215
1497.0,0.0216
1496.0,0.0217
1495.0,0.0216
1494.0,0.0216
1493.0,0.0216
1492.0,0.0217
1491.0,0.0215
1490.0,0.0213
1489.0,0.0214
1488.0,0.0216
1487.0,0.0215
1486.0,0.0214
1485.0,0.0214
1484.0,0.0216
1483.0,0.0218
1482.0,0.022
1481.0,0.0225
1480.0,0.0232
1479.0,0.0244
1478.0,0.0272
1477.0,0.0329
1476.0,0.042
1475.0,0.0539
1474.0,0.0675
1473.0,0.0791
1472.0,0.0827
1471.0,0.0799
1470.0,0.0761
1469.0,0.0732
1468.0,0.0713
1467.0,0.0708
1466.0,0.0734
1465.0,0.0799
1464.0,0.0868
1463.0,0.0895
1462.0,0.0873
1461.0,0.0814
1460.0,0.0734
1459.0,0.0647
1458.0,0.0569
1457.0,0.0516
1456.0,0.0487
1455.0,0.0471
1454.0,0.0456
1453.0,0.0441
1452.0,0.0426
1451.0,0.0413
1450.0,0.0403
1449.0,0.0395
1448.0,0.0389
1447.0,0.0384
1446.0,0.038
1445.0,0.0376
1444.0,0.0372
1443.0,0.0369
1442.0,0.0366
1441.0,0.0363
1440.0,0.0359
1439.0,0.0356
1438.0,0.0353
1437.0,0.035
1436.0,0.0348
1435.0,0.0347
1434.0,0.0345
1433.0,0.0341
1432.0,0.0337
1431.0,0.0332
1430.0,0.0328
1429.0,0.0324
1428.0,0.0319
1427.0,0.0315
1426.0,0.0312
1425.0,0.0308
1424.0,0.0306
1423.0,0.0303
1422.0,0.03
1421.0,0.0297
1420.0,0.0295
1419.0,0.0294
1418.0,0.0295
1417.0,0.0295
1416.0,0.0293
1415.0,0.0291
1414.0,0.0289
1413.0,0.0287
1412.0,0.0286
1411.0,0.0285
1410.0,0.0284
1409.0,0.0282
1408.0,0.0281
1407.0,0.0279
1406.0,0.0279
1405.0,0.0278
1404.0,0.0277
1403.0,0.0277
1402.0,0.0276
1401.0,0.0275
1400.0,0.0274
1399.0,0.0274
1398.0,0.0273
1397.0,0.0272
1396.0,0.0272
1395.0,0.0272
1394.0,0.0272
1393.0,0.0271
1392.0,0.027
1391.0,0.0269
1390.0,0.0269
1389.0,0.0268
1388.0,0.0269
1387.0,0.027
1386.0,0.0271
1385.0,0.0271
1384.0,0.0271
1383.0,0.0273
1382.0,0.0275
1381.0,0.0278
1380.0,0.028
1379.0,0.0283
1378.0,0.0285
1377.0,0.0286
1376.0,0.0286
1375.0,0.0286
1374.0,0.0287
1373.0,0.0289
1372.0,0.029
1371.0,0.0291
1370.0,0.0293
1369.0,0.0295
1368.0,0.0295
1367.0,0.0295
1366.0,0.0294
1365.0,0.0292
1364.0,0.029
1363.0,0.0289
1362.0,0.0289
1361.0,0.0288
1360.0,0.0286
1359.0,0.0285
1358.0,0.0285
1357.0,0.0286
1356.0,0.0286
1355.0,0.0287
1354.0,0.0288
1353.0,0.0287
1352.0,0.0286
1351.0,0.0286
1350.0,0.0286
1349.0,0.0285
1348.0,0.0284
1347.0,0.0283
1346.0,0.0281
1345.0,0.028
1344.0,0.0279
1343.0,0.0278
1342.0,0.0278
1341.0,0.0277
1340.0,0.0277
1339.0,0.0278
1338.0,0.0278
1337.0,0.0277
1336.0,0.0275
1335.0,0.0274
1334.0,0.0273
1333.0,0.0272
1332.0,0.0272
1331.0,0.0272
1330.0,0.0272
1329.0,0.0273
1328.0,0.0273
1327.0,0.0274
1326.0,0.0274
1325.0,0.0275
1324.0,0.0275
1323.0,0.0276
1322.0,0.0276
1321.0,0.0277
1320.0,0.0277
1319.0,0.0278
1318.0,0.0279
1317.0,0.0279
1316.0,0.0279
1315.0,0.0279
1314.0,0.028
1313.0,0.028
1312.0,0.0281
1311.0,0.0281
1310.0,0.0282
1309.0,0.0283
1308.0,0.0283
1307.0,0.0284
1306.0,0.0285
1305.0,0.0286
1304.0,0.0286
1303.0,0.0287
1302.0,0.0287
1301.0,0.0286
1300.0,0.0286
1299.0,0.0286
1298.0,0.0286
1297.0,0.0286
1296.0,0.0286
1295.0,0.0285
1294.0,0.0285
1293.0,0.0284
1292.0,0.0284
1291.0,0.0283
1290.0,0.0282
1289.0,0.0281
1288.0,0.028
1287.0,0.028
1286.0,0.028
1285.0,0.0281
1284.0,0.0281
1283.0,0.0281
1282.0,0.0281
1281.0,0.028
1280.0,0.028
1279.0,0.028
1278.0,0.028
1277.0,0.0281
1276.0,0.0281
1275.0,0.0281
1274.0,0.0281
1273.0,0.0281
1272.0,0.0281
1271.0,0.028
1270.0,0.028
1269.0,0.028
1268.0,0.0281
1267.0,0.0281
1266.0,0.0281
1265.0,0.0282
1264.0,0.0282
1263.0,0.0283
1262.0,0.0283
1261.0,0.0282
1260.0,0.0282
1259.0,0.0282
1258.0,0.0282
1257.0,0.0281
1256.0,0.0281
1255.0,0.0281
1254.0,0.0281
1253.0,0.028
1252.0,0.028
1251.0,0.028
1250.0,0.0281
1249.0,0.0281
1248.0,0.0281
1247.0,0.0281
1246.0,0.0282
1245.0,0.0282
1244.0,0.0282
1243.0,0.0281
1242.0,0.0281
1241.0,0.028
1240.0,0.028
1239.0,0.0281
1238.0,0.0281
1237.0,0.0282
1236.0,0.0281
1235.0,0.0281
1234.0,0.0281
1233.0,0.0281
1232.0,0.0281
1231.0,0.0281
1230.0,0.0282
1229.0,0.0281
1228.0,0.0281
1227.0,0.028
1226.0,0.028
1225.0,0.028
1224.0,0.028
1223.0,0.028
1222.0,0.0281
1221.0,0.0281
1220.0,0.0281
1219.0,0.0281
1218.0,0.0281
1217.0,0.0281
1216.0,0.0281
1215.0,0.0281
1214.0,0.0281
1213.0,0.0281
1212.0,0.0281
1211.0,0.0281
1210.0,0.0282
1209.0,0.0283
1208.0,0.0283
1207.0,0.0282
1206.0,0.0282
1205.0,0.0282
1204.0,0.0282
1203.0,0.0282
1202.0,0.0283
1201.0,0.0282
1200.0,0.0282
1199.0,0.0282
1198.0,0.0283
1197.0,0.0283
1196.0,0.0283
1195.0,0.0283
1194.0,0.0283
1193.0,0.0282
1192.0,0.0282
1191.0,0.0283
1190.0,0.0283
1189.0,0.0284
1188.0,0.0285
1187.0,0.0285
1186.0,0.0286
1185.0,0.0286
1184.0,0.0287
1183.0,0.0287
1182.0,0.0288
1181.0,0.0289
1180.0,0.0289
1179.0,0.029
1178.0,0.029
1177.0,0.0291
1176.0,0.0291
1175.0,0.0292
1174.0,0.0293
1173.0,0.0294
1172.0,0.0295
1171.0,0.0296
1170.0,0.0296
1169.0,0.0296
1168.0,0.0295
1167.0,0.0295
1166.0,0.0296
1165.0,0.0296
1164.0,0.0297
1163.0,0.0296
1162.0,0.0296
1161.0,0.0295
1160.0,0.0294
1159.0,0.0293
1158.0,0.0292
1157.0,0.0292
1156.0,0.0292
1155.0,0.0292
1154.0,0.0292
1153.0,0.0292
1152.0,0.0293
1151.0,0.0293
1150.0,0.0293
1149.0,0.0294
1148.0,0.0294
1147.0,0.0295
1146.0,0.0294
1145.0,0.0294
1144.0,0.0294
1143.0,0.0294
1142.0,0.0293
1141.0,0.0293
1140.0,0.0292
1139.0,0.0292
1138.0,0.0293
1137.0,0.0295
1136.0,0.0295
1135.0,0.0296
1134.0,0.0296
1133.0,0.0296
1132.0,0.0295
1131.0,0.0296
1130.0,0.0296
1129.0,0.0296
1128.0,0.0295
1127.0,0.0295
1126.0,0.0295
1125.0,0.0296
1124.0,0.0297
1123.0,0.0297
1122.0,0.0297
1121.0,0.0297
1120.0,0.0297
1119.0,0.0298
1118.0,0.0298
1117.0,0.0297
1116.0,0.0297
1115.0,0.0297
1114.0,0.0297
1113.0,0.0298
1112.0,0.0298
1111.0,0.0297
1110.0,0.0297
1109.0,0.0297
1108.0,0.0297
1107.0,0.0298
1106.0,0.0298
1105.0,0.0298
1104.0,0.0297
1103.0,0.0297
1102.0,0.0296
1101.0,0.0297
1100.0,0.0297
1099.0,0.0298
1098.0,0.0298
1097.0,0.0299
1096.0,0.0299
1095.0,0.03
1094.0,0.03
1093.0,0.03
1092.0,0.0301
1091.0,0.0302
1090.0,0.0302
1089.0,0.0302
1088.0,0.0301
1087.0,0.0302
1086.0,0.0303
1085.0,0.0304
1084.0,0.0305
1083.0,0.0305
1082.0,0.0304
1081.0,0.0304
1080.0,0.0303
1079.0,0.0303
1078.0,0.0304
1077.0,0.0305
1076.0,0.0305
1075.0,0.0304
1074.0,0.0304
1073.0,0.0304
1072.0,0.0303
1071.0,0.0303
1070.0,0.0302
1069.0,0.0302
1068.0,0.0302
1067.0,0.0302
1066.0,0.0303
1065.0,0.0303
1064.0,0.0303
1063.0,0.0303
1062.0,0.0303
1061.0,0.0304
1060.0,0.0304
1059.0,0.0304
1058.0,0.0304
1057.0,0.0304
1056.0,0.0304
1055.0,0.0304
1054.0,0.0305
1053.0,0.0305
1052.0,0.0304
1051.0,0.0304
1050.0,0.0305
1049.0,0.0306
1048.0,0.0307
1047.0,0.0307
1046.0,0.0307
1045.0,0.0305
1044.0,0.0303
1043.0,0.0302
1042.0,0.0302
1041.0,0.0302
1040.0,0.0302
1039.0,0.0302
1038.0,0.0302
1037.0,0.0302
1036.0,0.0302
1035.0,0.0302
1034.0,0.0302
1033.0,0.0302
1032.0,0.0303
1031.0,0.0304
1030.0,0.0304
1029.0,0.0304
1028.0,0.0302
1027.0,0.0301
1026.0,0.03
1025.0,0.03
1024.0,0.0302
1023.0,0.0303
1022.0,0.0305
1021.0,0.0305
1020.0,0.0305
1019.0,0.0304
1018.0,0.0304
1017.0,0.0305
1016.0,0.0305
1015.0,0.0306
1014.0,0.0306
1013.0,0.0306
1012.0,0.0306
1011.0,0.0306
1010.0,0.0305
1009.0,0.0304
1008.0,0.0304
1007.0,0.0304
1006.0,0.0304
1005.0,0.0304
1004.0,0.0304
1003.0,0.0305
1002.0,0.0304
1001.0,0.0304
1000.0,0.0303
999.0,0.0303
998.0,0.0303
997.0,0.0305
996.0,0.0306
995.0,0.0307
994.0,0.0307
993.0,0.0307
992.0,0.0307
991.0,0.0307
990.0,0.0306
989.0,0.0306
988.0,0.0306
987.0,0.0307
986.0,0.0308
985.0,0.0309
984.0,0.0309
983.0,0.0309
982.0,0.0309
981.0,0.031
980.0,0.031
979.0,0.031
978.0,0.031
977.0,0.0311
976.0,0.0312
975.0,0.0313
974.0,0.0314
973.0,0.0314
972.0,0.0313
971.0,0.0313
970.0,0.0313
969.0,0.0313
968.0,0.0314
967.0,0.0314
966.0,0.0316
965.0,0.0317
964.0,0.0319
963.0,0.032
962.0,0.032
961.0,0.032
960.0,0.032
959.0,0.032
958.0,0.032
957.0,0.032
956.0,0.032
955.0,0.0319
954.0,0.0319
953.0,0.0319
952.0,0.0319
951.0,0.032
950.0,0.0321
949.0,0.0321
948.0,0.0321
947.0,0.0321
946.0,0.0322
945.0,0.0323
944.0,0.0323
943.0,0.0324
942.0,0.0324
941.0,0.0323
940.0,0.0323
939.0,0.0324
938.0,0.0324
937.0,0.0325
936.0,0.0325
935.0,0.0326
934.0,0.0326
933.0,0.0327
932.0,0.0328
931.0,0.0328
930.0,0.0329
929.0,0.0329
928.0,0.0329
927.0,0.0329
926.0,0.0329
925.0,0.033
924.0,0.0331
923.0,0.0332
922.0,0.0333
921.0,0.0334
920.0,0.0336
919.0,0.0337
918.0,0.0337
917.0,0.0337
916.0,0.0337
915.0,0.0337
914.0,0.0338
913.0,0.034
912.0,0.0341
911.0,0.0342
910.0,0.0344
909.0,0.0344
908.0,0.0344
907.0,0.0345
906.0,0.0345
905.0,0.0346
904.0,0.0346
903.0,0.0346
902.0,0.0346
901.0,0.0347
900.0,0.0349
899.0,0.0351
898.0,0.0352
897.0,0.0353
896.0,0.0353
895.0,0.0354
894.0,0.0354
893.0,0.0355
892.0,0.0355
891.0,0.0355
890.0,0.0356
889.0,0.0357
888.0,0.0357
887.0,0.0358
886.0,0.0359
885.0,0.0359
884.0,0.0359
883.0,0.0359
882.0,0.036
881.0,0.0362
880.0,0.0364
879.0,0.0365
878.0,0.0365
877.0,0.0364
876.0,0.0363
875.0,0.0363
874.0,0.0363
873.0,0.0365
872.0,0.0365
871.0,0.0365
870.0,0.0365
869.0,0.0366
868.0,0.0367
867.0,0.0368
866.0,0.0368
865.0,0.0367
864.0,0.0367
863.0,0.0367
862.0,0.0366
861.0,0.0366
860.0,0.0367
859.0,0.0368
858.0,0.0368
857.0,0.0368
856.0,0.0367
855.0,0.0367
854.0,0.0368
853.0,0.0369
852.0,0.0369
851.0,0.0369
850.0,0.0369
849.0,0.037
848.0,0.0371
847.0,0.0372
846.0,0.0371
845.0,0.037
844.0,0.0368
843.0,0.0367
842.0,0.0366
841.0,0.0365
840.0,0.0365
839.0,0.0366
838.0,0.0368
837.0,0.0369
836.0,0.0371
835.0,0.0373
834.0,0.0374
833.0,0.0375
832.0,0.0376
831.0,0.0377
830.0,0.0378
829.0,0.0377
828.0,0.0376
827.0,0.0375
826.0,0.0376
825.0,0.0377
824.0,0.0377
823.0,0.0377
822.0,0.0377
821.0,0.0378
820.0,0.0379
819.0,0.0381
818.0,0.0381
817.0,0.0381
816.0,0.0381
815.0,0.038
814.0,0.0379
813.0,0.038
812.0,0.0381
811.0,0.0383
810.0,0.0384
809.0,0.0385
808.0,0.0386
807.0,0.0386
806.0,0.0385
805.0,0.0384
804.0,0.0384
803.0,0.0385
802.0,0.0386
801.0,0.0386
800.0,0.0386
799.0,0.0385
798.0,0.0383
797.0,0.0383
796.0,0.0383
795.0,0.0384
794.0,0.0386
793.0,0.0387
792.0,0.0388
791.0,0.0388
790.0,0.0386
789.0,0.0384
788.0,0.0383
787.0,0.0384
786.0,0.0388
785.0,0.0391
784.0,0.0394
783.0,0.0394
782.0,0.0394
781.0,0.0394
780.0,0.0394
779.0,0.0394
778.0,0.0394
777.0,0.0394
776.0,0.0394
775.0,0.0394
774.0,0.0394
773.0,0.0394
772.0,0.0393
771.0,0.0392
770.0,0.0391
769.0,0.0391
768.0,0.0392
767.0,0.0393
766.0,0.0395
765.0,0.0397
764.0,0.0398
763.0,0.0399
762.0,0.04
761.0,0.0401
760.0,0.0401
759.0,0.0399
758.0,0.0397
757.0,0.0395
756.0,0.0394
755.0,0.0393
754.0,0.0391
753.0,0.0389
752.0,0.0387
751.0,0.0385
750.0,0.0384
749.0,0.0386
748.0,0.0389
747.0,0.0392
746.0,0.0393
745.0,0.0392
744.0,0.039
743.0,0.0388
742.0,0.0387
741.0,0.0387
740.0,0.0389
739.0,0.0392
738.0,0.0397
737.0,0.0404
736.0,0.0416
735.0,0.0446
734.0,0.0507
733.0,0.0605
732.0,0.0724
731.0,0.0826
730.0,0.0874
729.0,0.0861
728.0,0.0814
727.0,0.0764
726.0,0.0733
725.0,0.0726
724.0,0.0747
723.0,0.0802
722.0,0.0899
721.0,0.1027
720.0,0.1144
719.0,0.1199
718.0,0.1177
717.0,0.11
716.0,0.1001
715.0,0.0903
714.0,0.0817
713.0,0.0749
712.0,0.07
711.0,0.0665
710.0,0.0641
709.0,0.0622
708.0,0.0605
707.0,0.059
706.0,0.0576
705.0,0.0563
704.0,0.0555
703.0,0.0551
702.0,0.0551
701.0,0.0551
700.0,0.0547
699.0,0.0537
698.0,0.0524
697.0,0.0512
696.0,0.0504
695.0,0.0502
694.0,0.0504
693.0,0.0508
692.0,0.0512
691.0,0.0516
690.0,0.0517
689.0,0.0514
688.0,0.0507
687.0,0.0497
686.0,0.0488
685.0,0.0482
684.0,0.048
683.0,0.048
682.0,0.0483
681.0,0.0488
680.0,0.0492
679.0,0.0493
678.0,0.049
677.0,0.0485
676.0,0.0476
675.0,0.0466
674.0,0.046
673.0,0.0461
672.0,0.0465
671.0,0.0464
670.0,0.0456
669.0,0.0446
668.0,0.0446
667.0,0.0461
666.0,0.0475
665.0,0.0477
664.0,0.0474
663.0,0.0471
662.0,0.0469
661.0,0.0472
660.0,0.0477
659.0,0.0479
658.0,0.0475
657.0,0.0463
656.0,0.045
655.0,0.044
654.0,0.0437
653.0,0.0436
652.0,0.0435
651.0,0.0435
650.0,0.0435
649.0,0.0437
648.0,0.044
647.0,0.0446
646.0,0.0454
645.0,0.0462
644.0,0.0466
643.0,0.0465
642.0,0.0461
641.0,0.0461
640.0,0.0468
639.0,0.048
638.0,0.0496
637.0,0.0512
636.0,0.0527
635.0,0.0531
634.0,0.0521
633.0,0.0503
632.0,0.0491
631.0,0.049
630.0,0.0495
629.0,0.0501
628.0,0.0508
627.0,0.0512
626.0,0.0509
625.0,0.05
624.0,0.049
623.0,0.0482
622.0,0.0474
621.0,0.0464
620.0,0.0455
619.0,0.0456
618.0,0.0468
617.0,0.0484
616.0,0.0497
615.0,0.0507
614.0,0.051
613.0,0.0505
612.0,0.0495
611.0,0.0486
610.0,0.0485
609.0,0.0491
608.0,0.0498
607.0,0.0502
606.0,0.0499
605.0,0.0495
604.0,0.0495
603.0,0.0504
602.0,0.0522
601.0,0.0538
600.0,0.0547
