cm-1,A
4000.0,0.006
3999.0,0.006
3998.0,0.006
3997.0,0.006
3996.0,0.0059
3995.0,0.0059
3994.0,0.0058
3993.0,0.0058
3992.0,0.0059
3991.0,0.0059
3990.0,0.006
3989.0,0.006
3988.0,0.006
3987.0,0.006
3986.0,0.006
3985.0,0.006
3984.0,0.006
3983.0,0.006
3982.0,0.0061
3981.0,0.006
3980.0,0.006
3979.0,0.006
3978.0,0.006
3977.0,0.006
3976.0,0.006
3975.0,0.006
3974.0,0.006
3973.0,0.006
3972.0,0.0059
3971.0,0.0059
3970.0,0.0058
3969.0,0.0058
3968.0,0.0059
3967.0,0.006
3966.0,0.006
3965.0,0.006
3964.0,0.006
3963.0,0.006
3962.0,0.006
3961.0,0.006
3960.0,0.006
3959.0,0.006
3958.0,0.006
3957.0,0.006
3956.0,0.006
3955.0,0.0059
3954.0,0.0059
3953.0,0.0059
3952.0,0.006
3951.0,0.0061
3950.0,0.0062
3949.0,0.0062
3948.0,0.0063
3947.0,0.0062
3946.0,0.0062
3945.0,0.0061
3944.0,0.006
3943.0,0.006
3942.0,0.0061
3941.0,0.0061
3940.0,0.0061
3939.0,0.0061
3938.0,0.006
3937.0,0.0061
3936.0,0.0062
3935.0,0.0063
3934.0,0.0063
3933.0,0.0064
3932.0,0.0064
3931.0,0.0063
3930.0,0.0062
3929.0,0.0062
3928.0,0.0062
3927.0,0.0062
3926.0,0.0062
3925.0,0.0062
3924.0,0.0063
3923.0,0.0064
3922.0,0.0064
3921.0,0.0065
3920.0,0.0066
3919.0,0.0066
3918.0,0.0066
3917.0,0.0065
3916.0,0.0064
3915.0,0.0063
3914.0,0.0062
3913.0,0.0061
3912.0,0.006
3911.0,0.006
3910.0,0.0061
3909.0,0.0062
3908.0,0.0063
3907.0,0.0064
3906.0,0.0065
3905.0,0.0066
3904.0,0.0068
3903.0,0.007
3902.0,0.007
3901.0,0.007
3900.0,0.0068
3899.0,0.0067
3898.0,0.0066
3897.0,0.0065
3896.0,0.0064
3895.0,0.0064
3894.0,0.0064
3893.0,0.0064
3892.0,0.0064
3891.0,0.0064
3890.0,0.0064
3889.0,0.0065
3888.0,0.0065
3887.0,0.0065
3886.0,0.0066
3885.0,0.0067
3884.0,0.0069
3883.0,0.0069
3882.0,0.0068
3881.0,0.0066
3880.0,0.0064
3879.0,0.0064
3878.0,0.0065
3877.0,0.0067
3876.0,0.0068
3875.0,0.007
3874.0,0.0072
3873.0,0.0073
3872.0,0.0071
3871.0,0.0069
3870.0,0.0067
3869.0,0.0067
3868.0,0.0067
3867.0,0.0068
3866.0,0.0068
3865.0,0.0068
3864.0,0.007
3863.0,0.007
3862.0,0.0069
3861.0,0.0067
3860.0,0.0066
3859.0,0.0066
3858.0,0.0068
3857.0,0.007
3856.0,0.0072
3855.0,0.0071
3854.0,0.0073
3853.0,0.0075
3852.0,0.0074
3851.0,0.0072
3850.0,0.007
3849.0,0.0068
3848.0,0.0067
3847.0,0.0066
3846.0,0.0066
3845.0,0.0066
3844.0,0.0066
3843.0,0.0067
3842.0,0.0069
3841.0,0.007
3840.0,0.007
3839.0,0.0069
3838.0,0.007
3837.0,0.0071
3836.0,0.0071
3835.0,0.0071
3834.0,0.0069
3833.0,0.0068
3832.0,0.0067
3831.0,0.0067
3830.0,0.0066
3829.0,0.0066
3828.0,0.0065
3827.0,0.0065
3826.0,0.0066
3825.0,0.0069
3824.0,0.0072
3823.0,0.0072
3822.0,0.0071
3821.0,0.0072
3820.0,0.0073
3819.0,0.0073
3818.0,0.0072
3817.0,0.0071
3816.0,0.007
3815.0,0.007
3814.0,0.007
3813.0,0.0069
3812.0,0.0068
3811.0,0.0068
3810.0,0.0069
3809.0,0.0068
3808.0,0.0068
3807.0,0.0068
3806.0,0.0069
3805.0,0.0071
3804.0,0.0072
3803.0,0.007
3802.0,0.0069
3801.0,0.007
3800.0,0.0072
3799.0,0.0072
3798.0,0.0071
3797.0,0.007
3796.0,0.0069
3795.0,0.0069
3794.0,0.0068
3793.0,0.0066
3792.0,0.0066
3791.0,0.0066
3790.0,0.0066
3789.0,0.0066
3788.0,0.0065
3787.0,0.0065
3786.0,0.0065
3785.0,0.0065
3784.0,0.0066
3783.0,0.0067
3782.0,0.0068
3781.0,0.0067
3780.0,0.0067
3779.0,0.0068
3778.0,0.0068
3777.0,0.0069
3776.0,0.0068
3775.0,0.0068
3774.0,0.0069
3773.0,0.0069
3772.0,0.0069
3771.0,0.0069
3770.0,0.0069
3769.0,0.007
3768.0,0.0071
3767.0,0.007
3766.0,0.007
3765.0,0.007
3764.0,0.0071
3763.0,0.0071
3762.0,0.0071
3761.0,0.0071
3760.0,0.0072
3759.0,0.0072
3758.0,0.0072
3757.0,0.0072
3756.0,0.0073
3755.0,0.0074
3754.0,0.0074
3753.0,0.0074
3752.0,0.0074
3751.0,0.0075
3750.0,0.0076
3749.0,0.0076
3748.0,0.0077
3747.0,0.0077
3746.0,0.0074
3745.0,0.0072
3744.0,0.0071
3743.0,0.0072
3742.0,0.0073
3741.0,0.0073
3740.0,0.0074
3739.0,0.0074
3738.0,0.0073
3737.0,0.0071
3736.0,0.0071
3735.0,0.0072
3734.0,0.0072
3733.0,0.007
3732.0,0.0067
3731.0,0.0066
3730.0,0.0066
3729.0,0.0066
3728.0,0.0065
3727.0,0.0065
3726.0,0.0067
3725.0,0.0068
3724.0,0.0069
3723.0,0.007
3722.0,0.007
3721.0,0.007
3720.0,0.007
3719.0,0.007
3718.0,0.0071
3717.0,0.0072
3716.0,0.0073
3715.0,0.0073
3714.0,0.0072
3713.0,0.0069
3712.0,0.0068
3711.0,0.0068
3710.0,0.0069
3709.0,0.007
3708.0,0.0069
3707.0,0.0068
3706.0,0.0068
3705.0,0.0067
3704.0,0.0068
3703.0,0.0068
3702.0,0.0068
3701.0,0.0069
3700.0,0.0069
3699.0,0.0068
3698.0,0.0068
3697.0,0.0068
3696.0,0.0068
3695.0,0.0069
3694.0,0.0071
3693.0,0.0072
3692.0,0.0074
3691.0,0.0076
3690.0,0.0076
3689.0,0.0076
3688.0,0.0074
3687.0,0.0072
3686.0,0.007
3685.0,0.0068
3684.0,0.0068
3683.0,0.0068
3682.0,0.0068
3681.0,0.0068
3680.0,0.0069
3679.0,0.0071
3678.0,0.0073
3677.0,0.0073
3676.0,0.0075
3675.0,0.0076
3674.0,0.0077
3673.0,0.0076
3672.0,0.0074
3671.0,0.0072
3670.0,0.0073
3669.0,0.0073
3668.0,0.0073
3667.0,0.0071
3666.0,0.007
3665.0,0.0069
3664.0,0.0069
3663.0,0.0068
3662.0,0.0068
3661.0,0.0069
3660.0,0.007
3659.0,0.0072
3658.0,0.0072
3657.0,0.0072
3656.0,0.0073
3655.0,0.0073
3654.0,0.0074
3653.0,0.0076
3652.0,0.0076
3651.0,0.0076
3650.0,0.0076
3649.0,0.0077
3648.0,0.0078
3647.0,0.0078
3646.0,0.0077
3645.0,0.0076
3644.0,0.0075
3643.0,0.0074
3642.0,0.0074
3641.0,0.0073
3640.0,0.0073
3639.0,0.0072
3638.0,0.0071
3637.0,0.0071
3636.0,0.007
3635.0,0.007
3634.0,0.007
3633.0,0.0071
3632.0,0.0072
3631.0,0.0073
3630.0,0.0074
3629.0,0.0076
3628.0,0.0077
3627.0,0.0077
3626.0,0.0076
3625.0,0.0075
3624.0,0.0075
3623.0,0.0077
3622.0,0.0079
3621.0,0.008
3620.0,0.008
3619.0,0.0079
3618.0,0.0077
3617.0,0.0076
3616.0,0.0075
3615.0,0.0074
3614.0,0.0075
3613.0,0.0076
3612.0,0.0077
3611.0,0.0076
3610.0,0.0075
3609.0,0.0074
3608.0,0.0074
3607.0,0.0075
3606.0,0.0074
3605.0,0.0073
3604.0,0.0073
3603.0,0.0073
3602.0,0.0074
3601.0,0.0075
3600.0,0.0076
3599.0,0.0076
3598.0,0.0075
3597.0,0.0074
3596.0,0.0073
3595.0,0.0073
3594.0,0.0075
3593.0,0.0076
3592.0,0.0077
3591.0,0.0079
3590.0,0.008
3589.0,0.0081
3588.0,0.0081
3587.0,0.0081
3586.0,0.008
3585.0,0.0079
3584.0,0.0078
3583.0,0.0077
3582.0,0.0076
3581.0,0.0076
3580.0,0.0076
3579.0,0.0076
3578.0,0.0076
3577.0,0.0077
3576.0,0.0078
3575.0,0.0079
3574.0,0.0079
3573.0,0.008
3572.0,0.008
3571.0,0.0081
3570.0,0.0082
3569.0,0.0082
3568.0,0.0084
3567.0,0.0085
3566.0,0.0085
3565.0,0.0084
3564.0,0.0082
3563.0,0.0081
3562.0,0.008
3561.0,0.0079
3560.0,0.0079
3559.0,0.0079
3558.0,0.008
3557.0,0.0081
3556.0,0.0081
3555.0,0.0081
3554.0,0.0079
3553.0,0.0078
3552.0,0.0078
3551.0,0.0079
3550.0,0.0081
3549.0,0.0083
3548.0,0.0084
3547.0,0.0085
3546.0,0.0085
3545.0,0.0085
3544.0,0.0084
3543.0,0.0082
3542.0,0.0082
3541.0,0.0082
3540.0,0.0082
3539.0,0.0082
3538.0,0.0081
3537.0,0.0081
3536.0,0.0081
3535.0,0.0081
3534.0,0.0082
3533.0,0.0083
3532.0,0.0083
3531.0,0.0083
3530.0,0.0083
3529.0,0.0082
3528.0,0.0081
3527.0,0.008
3526.0,0.0081
3525.0,0.0082
3524.0,0.0083
3523.0,0.0083
3522.0,0.0082
3521.0,0.0081
3520.0,0.008
3519.0,0.008
3518.0,0.008
3517.0,0.008
3516.0,0.008
3515.0,0.008
3514.0,0.008
3513.0,0.0081
3512.0,0.0081
3511.0,0.0082
3510.0,0.0082
3509.0,0.0081
3508.0,0.0081
3507.0,0.0081
3506.0,0.0082
3505.0,0.0083
3504.0,0.0084
3503.0,0.0085
3502.0,0.0084
3501.0,0.0083
3500.0,0.0082
3499.0,0.0082
3498.0,0.0083
3497.0,0.0084
3496.0,0.0085
3495.0,0.0086
3494.0,0.0085
3493.0,0.0085
3492.0,0.0084
3491.0,0.0083
3490.0,0.0082
3489.0,0.0082
3488.0,0.0081
3487.0,0.0081
3486.0,0.0081
3485.0,0.0082
3484.0,0.0083
3483.0,0.0084
3482.0,0.0084
3481.0,0.0084
3480.0,0.0084
3479.0,0.0083
3478.0,0.0083
3477.0,0.0084
3476.0,0.0085
3475.0,0.0085
3474.0,0.0084
3473.0,0.0084
3472.0,0.0083
3471.0,0.0083
3470.0,0.0083
3469.0,0.0083
3468.0,0.0082
3467.0,0.0082
3466.0,0.0082
3465.0,0.0083
3464.0,0.0083
3463.0,0.0083
3462.0,0.0082
3461.0,0.0082
3460.0,0.0081
3459.0,0.008
3458.0,0.008
3457.0,0.008
3456.0,0.008
3455.0,0.008
3454.0,0.008
3453.0,0.0081
3452.0,0.0082
3451.0,0.0083
3450.0,0.0083
3449.0,0.0083
3448.0,0.0082
3447.0,0.0082
3446.0,0.0083
3445.0,0.0084
3444.0,0.0084
3443.0,0.0083
3442.0,0.0083
3441.0,0.0082
3440.0,0.0081
3439.0,0.0081
3438.0,0.0081
3437.0,0.0081
3436.0,0.0082
3435.0,0.0082
3434.0,0.0083
3433.0,0.0083
3432.0,0.0083
3431.0,0.0083
3430.0,0.0083
3429.0,0.0083
3428.0,0.0084
3427.0,0.0084
3426.0,0.0085
3425.0,0.0084
3424.0,0.0083
3423.0,0.0082
3422.0,0.0081
3421.0,0.0081
3420.0,0.0082
3419.0,0.0083
3418.0,0.0084
3417.0,0.0084
3416.0,0.0084
3415.0,0.0084
3414.0,0.0083
3413.0,0.0082
3412.0,0.0082
3411.0,0.0082
3410.0,0.0083
3409.0,0.0083
3408.0,0.0083
3407.0,0.0083
3406.0,0.0082
3405.0,0.0083
3404.0,0.0084
3403.0,0.0085
3402.0,0.0086
3401.0,0.0087
3400.0,0.0087
3399.0,0.0087
3398.0,0.0086
3397.0,0.0085
3396.0,0.0084
3395.0,0.0085
3394.0,0.0086
3393.0,0.0086
3392.0,0.0086
3391.0,0.0085
3390.0,0.0084
3389.0,0.0083
3388.0,0.0083
3387.0,0.0083
3386.0,0.0084
3385.0,0.0084
3384.0,0.0083
3383.0,0.0083
3382.0,0.0082
3381.0,0.0081
3380.0,0.0081
3379.0,0.008
3378.0,0.008
3377.0,0.0081
3376.0,0.0082
3375.0,0.0083
3374.0,0.0084
3373.0,0.0084
3372.0,0.0084
3371.0,0.0084
3370.0,0.0084
3369.0,0.0084
3368.0,0.0083
3367.0,0.0083
3366.0,0.0083
3365.0,0.0084
3364.0,0.0085
3363.0,0.0086
3362.0,0.0086
3361.0,0.0086
3360.0,0.0085
3359.0,0.0084
3358.0,0.0083
3357.0,0.0082
3356.0,0.0081
3355.0,0.0081
3354.0,0.0081
3353.0,0.0082
3352.0,0.0082
3351.0,0.0082
3350.0,0.0083
3349.0,0.0082
3348.0,0.0082
3347.0,0.0081
3346.0,0.008
3345.0,0.008
3344.0,0.008
3343.0,0.0081
3342.0,0.0081
3341.0,0.0082
3340.0,0.0082
3339.0,0.0082
3338.0,0.0081
3337.0,0.008
3336.0,0.0079
3335.0,0.0079
3334.0,0.008
3333.0,0.008
3332.0,0.008
3331.0,0.008
3330.0,0.0079
3329.0,0.0079
3328.0,0.0079
3327.0,0.0079
3326.0,0.0079
3325.0,0.0079
3324.0,0.0079
3323.0,0.008
3322.0,0.008
3321.0,0.0079
3320.0,0.0079
3319.0,0.0078
3318.0,0.0078
3317.0,0.0077
3316.0,0.0077
3315.0,0.0077
3314.0,0.0077
3313.0,0.0078
3312.0,0.0078
3311.0,0.0078
3310.0,0.0078
3309.0,0.0078
3308.0,0.0078
3307.0,0.0079
3306.0,0.0078
3305.0,0.0078
3304.0,0.0078
3303.0,0.0078
3302.0,0.0079
3301.0,0.0079
3300.0,0.008
3299.0,0.0079
3298.0,0.0079
3297.0,0.0078
3296.0,0.0077
3295.0,0.0076
3294.0,0.0076
3293.0,0.0076
3292.0,0.0077
3291.0,0.0077
3290.0,0.0077
3289.0,0.0077
3288.0,0.0076
3287.0,0.0076
3286.0,0.0075
3285.0,0.0074
3284.0,0.0074
3283.0,0.0074
3282.0,0.0074
3281.0,0.0075
3280.0,0.0075
3279.0,0.0075
3278.0,0.0075
3277.0,0.0075
3276.0,0.0075
3275.0,0.0075
3274.0,0.0074
3273.0,0.0074
3272.0,0.0074
3271.0,0.0075
3270.0,0.0075
3269.0,0.0076
3268.0,0.0076
3267.0,0.0075
3266.0,0.0074
3265.0,0.0073
3264.0,0.0073
3263.0,0.0073
3262.0,0.0073
3261.0,0.0074
3260.0,0.0074
3259.0,0.0075
3258.0,0.0075
3257.0,0.0075
3256.0,0.0074
3255.0,0.0073
3254.0,0.0073
3253.0,0.0073
3252.0,0.0073
3251.0,0.0074
3250.0,0.0075
3249.0,0.0075
3248.0,0.0075
3247.0,0.0074
3246.0,0.0074
3245.0,0.0073
3244.0,0.0073
3243.0,0.0072
3242.0,0.0072
3241.0,0.0072
3240.0,0.0073
3239.0,0.0073
3238.0,0.0074
3237.0,0.0074
3236.0,0.0074
3235.0,0.0073
3234.0,0.0073
3233.0,0.0072
3232.0,0.0072
3231.0,0.0072
3230.0,0.0073
3229.0,0.0073
3228.0,0.0073
3227.0,0.0072
3226.0,0.0072
3225.0,0.0072
3224.0,0.0073
3223.0,0.0073
3222.0,0.0074
3221.0,0.0074
3220.0,0.0074
3219.0,0.0074
3218.0,0.0073
3217.0,0.0073
3216.0,0.0072
3215.0,0.0072
3214.0,0.0072
3213.0,0.0072
3212.0,0.0072
3211.0,0.0072
3210.0,0.0072
3209.0,0.0073
3208.0,0.0073
3207.0,0.0074
3206.0,0.0074
3205.0,0.0073
3204.0,0.0072
3203.0,0.0072
3202.0,0.0072
3201.0,0.0073
3200.0,0.0073
3199.0,0.0073
3198.0,0.0073
3197.0,0.0073
3196.0,0.0073
3195.0,0.0073
3194.0,0.0072
3193.0,0.0071
3192.0,0.0071
3191.0,0.0071
3190.0,0.0071
3189.0,0.0071
3188.0,0.0071
3187.0,0.007
3186.0,0.007
3185.0,0.007
3184.0,0.007
3183.0,0.007
3182.0,0.007
3181.0,0.007
3180.0,0.0071
3179.0,0.0071
3178.0,0.007
3177.0,0.007
3176.0,0.0069
3175.0,0.0068
3174.0,0.0068
3173.0,0.0069
3172.0,0.0069
3171.0,0.0069
3170.0,0.0068
3169.0,0.0068
3168.0,0.0068
3167.0,0.0068
3166.0,0.0069
3165.0,0.0069
3164.0,0.0068
3163.0,0.0067
3162.0,0.0067
3161.0,0.0067
3160.0,0.0067
3159.0,0.0067
3158.0,0.0067
3157.0,0.0066
3156.0,0.0066
3155.0,0.0066
3154.0,0.0066
3153.0,0.0065
3152.0,0.0065
3151.0,0.0065
3150.0,0.0065
3149.0,0.0065
3148.0,0.0065
3147.0,0.0065
3146.0,0.0066
3145.0,0.0066
3144.0,0.0065
3143.0,0.0064
3142.0,0.0064
3141.0,0.0063
3140.0,0.0063
3139.0,0.0063
3138.0,0.0062
3137.0,0.0062
3136.0,0.0063
3135.0,0.0064
3134.0,0.0064
3133.0,0.0064
3132.0,0.0063
3131.0,0.0062
3130.0,0.0061
3129.0,0.006
3128.0,0.0059
3127.0,0.0059
3126.0,0.0059
3125.0,0.0059
3124.0,0.0059
3123.0,0.0059
3122.0,0.006
3121.0,0.006
3120.0,0.006
3119.0,0.006
3118.0,0.0059
3117.0,0.0059
3116.0,0.0058
3115.0,0.0057
3114.0,0.0057
3113.0,0.0057
3112.0,0.0057
3111.0,0.0057
3110.0,0.0056
3109.0,0.0056
3108.0,0.0056
3107.0,0.0056
3106.0,0.0056
3105.0,0.0057
3104.0,0.0057
3103.0,0.0057
3102.0,0.0056
3101.0,0.0055
3100.0,0.0055
3099.0,0.0054
3098.0,0.0054
3097.0,0.0053
3096.0,0.0053
3095.0,0.0051
3094.0,0.005
3093.0,0.0049
3092.0,0.0049
3091.0,0.005
3090.0,0.005
3089.0,0.005
3088.0,0.0049
3087.0,0.0049
3086.0,0.0049
3085.0,0.005
3084.0,0.005
3083.0,0.005
3082.0,0.0049
3081.0,0.0049
3080.0,0.0049
3079.0,0.0048
3078.0,0.0048
3077.0,0.0047
3076.0,0.0046
3075.0,0.0045
3074.0,0.0045
3073.0,0.0044
3072.0,0.0044
3071.0,0.0044
3070.0,0.0044
3069.0,0.0043
3068.0,0.0043
3067.0,0.0042
3066.0,0.0042
3065.0,0.0042
3064.0,0.0042
3063.0,0.0042
3062.0,0.0041
3061.0,0.004
3060.0,0.004
3059.0,0.004
3058.0,0.004
3057.0,0.004
3056.0,0.004
3055.0,0.004
3054.0,0.0039
3053.0,0.0039
3052.0,0.0039
3051.0,0.0038
3050.0,0.0037
3049.0,0.0037
3048.0,0.0036
3047.0,0.0036
3046.0,0.0035
3045.0,0.0035
3044.0,0.0034
3043.0,0.0033
3042.0,0.0032
3041.0,0.0032
3040.0,0.0031
3039.0,0.003
3038.0,0.003
3037.0,0.0029
3036.0,0.003
3035.0,0.003
3034.0,0.003
3033.0,0.003
3032.0,0.003
3031.0,0.0029
3030.0,0.0029
3029.0,0.0028
3028.0,0.0028
3027.0,0.0028
3026.0,0.0028
3025.0,0.0027
3024.0,0.0026
3023.0,0.0025
3022.0,0.0025
3021.0,0.0024
3020.0,0.0024
3019.0,0.0024
3018.0,0.0024
3017.0,0.0023
3016.0,0.0023
3015.0,0.0022
3014.0,0.0022
3013.0,0.0022
3012.0,0.0022
3011.0,0.0021
3010.0,0.0021
3009.0,0.0021
3008.0,0.002
3007.0,0.002
3006.0,0.002
3005.0,0.002
3004.0,0.0019
3003.0,0.0019
3002.0,0.0018
3001.0,0.0018
3000.0,0.0019
2999.0,0.002
2998.0,0.002
2997.0,0.0021
2996.0,0.0021
2995.0,0.0021
2994.0,0.0022
2993.0,0.0024
2992.0,0.0025
2991.0,0.0027
2990.0,0.0029
2989.0,0.0032
2988.0,0.0035
2987.0,0.0039
2986.0,0.0043
2985.0,0.0047
2984.0,0.0052
2983.0,0.0059
2982.0,0.0066
2981.0,0.0075
2980.0,0.0085
2979.0,0.0097
2978.0,0.011
2977.0,0.0124
2976.0,0.0141
2975.0,0.016
2974.0,0.0182
2973.0,0.0206
2972.0,0.0234
2971.0,0.0264
2970.0,0.0298
2969.0,0.0334
2968.0,0.0373
2967.0,0.0413
2966.0,0.0454
2965.0,0.0494
2964.0,0.0532
2963.0,0.0567
2962.0,0.0596
2961.0,0.0619
2960.0,0.0639
2959.0,0.0659
2958.0,0.0682
2957.0,0.0711
2956.0,0.0748
2955.0,0.0793
2954.0,0.0843
2953.0,0.0896
2952.0,0.0943
2951.0,0.0978
2950.0,0.0996
2949.0,0.0991
2948.0,0.0964
2947.0,0.0916
2946.0,0.0855
2945.0,0.0787
2944.0,0.0719
2943.0,0.0658
2942.0,0.0607
2941.0,0.0568
2940.0,0.054
2939.0,0.0524
2938.0,0.052
2937.0,0.0525
2936.0,0.054
2935.0,0.0564
2934.0,0.0596
2933.0,0.0635
2932.0,0.068
2931.0,0.0729
2930.0,0.0783
2929.0,0.0838
2928.0,0.0894
2927.0,0.0947
2926.0,0.0999
2925.0,0.1048
2924.0,0.1098
2923.0,0.1148
2922.0,0.1198
2921.0,0.1246
2920.0,0.129
2919.0,0.1323
2918.0,0.1342
2917.0,0.1343
2916.0,0.1325
2915.0,0.1293
2914.0,0.1253
2913.0,0.1209
2912.0,0.1167
2911.0,0.1128
2910.0,0.1093
2909.0,0.1061
2908.0,0.103
2907.0,0.1002
2906.0,0.0973
2905.0,0.0944
2904.0,0.0914
2903.0,0.0884
2902.0,0.0854
2901.0,0.0825
2900.0,0.0798
2899.0,0.0772
2898.0,0.0747
2897.0,0.0724
2896.0,0.0702
2895.0,0.0684
2894.0,0.0669
2893.0,0.0656
2892.0,0.0648
2891.0,0.0643
2890.0,0.064
2889.0,0.064
2888.0,0.0642
2887.0,0.0644
2886.0,0.0648
2885.0,0.0653
2884.0,0.0661
2883.0,0.0672
2882.0,0.0685
2881.0,0.07
2880.0,0.0716
2879.0,0.073
2878.0,0.074
2877.0,0.0745
2876.0,0.0745
2875.0,0.0742
2874.0,0.074
2873.0,0.074
2872.0,0.0744
2871.0,0.0753
2870.0,0.0766
2869.0,0.078
2868.0,0.079
2867.0,0.0792
2866.0,0.0783
2865.0,0.0759
2864.0,0.0724
2863.0,0.0679
2862.0,0.0631
2861.0,0.0585
2860.0,0.0543
2859.0,0.0509
2858.0,0.0481
2857.0,0.0459
2856.0,0.0443
2855.0,0.0431
2854.0,0.0424
2853.0,0.042
2852.0,0.0421
2851.0,0.0426
2850.0,0.0435
2849.0,0.0448
2848.0,0.0466
2847.0,0.0488
2846.0,0.0515
2845.0,0.0546
2844.0,0.0582
2843.0,0.062
2842.0,0.0658
2841.0,0.0693
2840.0,0.0722
2839.0,0.0741
2838.0,0.0749
2837.0,0.0743
2836.0,0.0723
2835.0,0.069
2834.0,0.065
2833.0,0.0606
2832.0,0.0562
2831.0,0.0522
2830.0,0.0487
2829.0,0.0457
2828.0,0.0433
2827.0,0.0412
2826.0,0.0395
2825.0,0.038
2824.0,0.0368
2823.0,0.0357
2822.0,0.0348
2821.0,0.034
2820.0,0.0333
2819.0,0.0327
2818.0,0.0321
2817.0,0.0316
2816.0,0.0311
2815.0,0.0307
2814.0,0.0303
2813.0,0.0299
2812.0,0.0294
2811.0,0.029
2810.0,0.0286
2809.0,0.0283
2808.0,0.0279
2807.0,0.0275
2806.0,0.027
2805.0,0.0266
2804.0,0.0262
2803.0,0.0258
2802.0,0.0255
2801.0,0.0251
2800.0,0.0248
2799.0,0.0244
2798.0,0.0241
2797.0,0.0238
2796.0,0.0236
2795.0,0.0234
2794.0,0.0232
2793.0,0.0231
2792.0,0.0229
2791.0,0.0227
2790.0,0.0225
2789.0,0.0222
2788.0,0.022
2787.0,0.0217
2786.0,0.0215
2785.0,0.0213
2784.0,0.0211
2783.0,0.0209
2782.0,0.0206
2781.0,0.0204
2780.0,0.0203
2779.0,0.0201
2778.0,0.0199
2777.0,0.0197
2776.0,0.0197
2775.0,0.0197
2774.0,0.0196
2773.0,0.0196
2772.0,0.0195
2771.0,0.0193
2770.0,0.0192
2769.0,0.019
2768.0,0.019
2767.0,0.0189
2766.0,0.0188
2765.0,0.0187
2764.0,0.0186
2763.0,0.0184
2762.0,0.0182
2761.0,0.0181
2760.0,0.018
2759.0,0.018
2758.0,0.0181
2757.0,0.0181
2756.0,0.018
2755.0,0.018
2754.0,0.0179
2753.0,0.0178
2752.0,0.0177
2751.0,0.0176
2750.0,0.0176
2749.0,0.0175
2748.0,0.0175
2747.0,0.0175
2746.0,0.0175
2745.0,0.0175
2744.0,0.0175
2743.0,0.0175
2742.0,0.0176
2741.0,0.0177
2740.0,0.0177
2739.0,0.0178
2738.0,0.0178
2737.0,0.0178
2736.0,0.0178
2735.0,0.0178
2734.0,0.0179
2733.0,0.018
2732.0,0.0181
2731.0,0.0182
2730.0,0.0184
2729.0,0.0185
2728.0,0.0187
2727.0,0.0188
2726.0,0.019
2725.0,0.0191
2724.0,0.0192
2723.0,0.0193
2722.0,0.0193
2721.0,0.0192
2720.0,0.0191
2719.0,0.0189
2718.0,0.0188
2717.0,0.0186
2716.0,0.0184
2715.0,0.0182
2714.0,0.018
2713.0,0.0178
2712.0,0.0176
2711.0,0.0175
2710.0,0.0174
2709.0,0.0173
2708.0,0.0171
2707.0,0.0169
2706.0,0.0168
2705.0,0.0167
2704.0,0.0166
2703.0,0.0166
2702.0,0.0165
2701.0,0.0164
2700.0,0.0164
2699.0,0.0164
2698.0,0.0163
2697.0,0.0163
2696.0,0.0162
2695.0,0.0162
2694.0,0.0162
2693.0,0.0162
2692.0,0.0162
2691.0,0.0162
2690.0,0.0161
2689.0,0.016
2688.0,0.016
2687.0,0.0159
2686.0,0.0159
2685.0,0.0159
2684.0,0.0159
2683.0,0.0159
2682.0,0.016
2681.0,0.016
2680.0,0.016
2679.0,0.016
2678.0,0.0159
2677.0,0.0159
2676.0,0.0158
2675.0,0.0158
2674.0,0.0158
2673.0,0.0157
2672.0,0.0157
2671.0,0.0156
2670.0,0.0156
2669.0,0.0156
2668.0,0.0156
2667.0,0.0155
2666.0,0.0155
2665.0,0.0154
2664.0,0.0155
2663.0,0.0155
2662.0,0.0155
2661.0,0.0155
2660.0,0.0154
2659.0,0.0154
2658.0,0.0154
2657.0,0.0155
2656.0,0.0155
2655.0,0.0155
2654.0,0.0155
2653.0,0.0155
2652.0,0.0154
2651.0,0.0153
2650.0,0.0152
2649.0,0.0151
2648.0,0.015
2647.0,0.0149
2646.0,0.0149
2645.0,0.0148
2644.0,0.0149
2643.0,0.0149
2642.0,0.0149
2641.0,0.015
2640.0,0.015
2639.0,0.015
2638.0,0.015
2637.0,0.0149
2636.0,0.0148
2635.0,0.0147
2634.0,0.0146
2633.0,0.0146
2632.0,0.0146
2631.0,0.0145
2630.0,0.0145
2629.0,0.0145
2628.0,0.0145
2627.0,0.0146
2626.0,0.0146
2625.0,0.0146
2624.0,0.0146
2623.0,0.0146
2622.0,0.0146
2621.0,0.0146
2620.0,0.0146
2619.0,0.0147
2618.0,0.0147
2617.0,0.0148
2616.0,0.0148
2615.0,0.0148
2614.0,0.0148
2613.0,0.0147
2612.0,0.0147
2611.0,0.0147
2610.0,0.0146
2609.0,0.0146
2608.0,0.0145
2607.0,0.0144
2606.0,0.0143
2605.0,0.0143
2604.0,0.0142
2603.0,0.0142
2602.0,0.0142
2601.0,0.0142
2600.0,0.0142
2599.0,0.0142
2598.0,0.0142
2597.0,0.0142
2596.0,0.0142
2595.0,0.0142
2594.0,0.0142
2593.0,0.0142
2592.0,0.0142
2591.0,0.0142
2590.0,0.0143
2589.0,0.0143
2588.0,0.0144
2587.0,0.0146
2586.0,0.0146
2585.0,0.0147
2584.0,0.0147
2583.0,0.0147
2582.0,0.0147
2581.0,0.0148
2580.0,0.0148
2579.0,0.0147
2578.0,0.0146
2577.0,0.0145
2576.0,0.0145
2575.0,0.0145
2574.0,0.0145
2573.0,0.0144
2572.0,0.0143
2571.0,0.0142
2570.0,0.0141
2569.0,0.0141
2568.0,0.0141
2567.0,0.014
2566.0,0.0139
2565.0,0.0138
2564.0,0.0137
2563.0,0.0136
2562.0,0.0135
2561.0,0.0135
2560.0,0.0136
2559.0,0.0136
2558.0,0.0136
2557.0,0.0136
2556.0,0.0136
2555.0,0.0136
2554.0,0.0136
2553.0,0.0136
2552.0,0.0135
2551.0,0.0135
2550.0,0.0134
2549.0,0.0134
2548.0,0.0134
2547.0,0.0134
2546.0,0.0134
2545.0,0.0134
2544.0,0.0134
2543.0,0.0133
2542.0,0.0133
2541.0,0.0134
2540.0,0.0134
2539.0,0.0134
2538.0,0.0133
2537.0,0.0132
2536.0,0.0132
2535.0,0.0132
2534.0,0.0132
2533.0,0.0131
2532.0,0.0131
2531.0,0.0131
2530.0,0.0131
2529.0,0.0131
2528.0,0.0131
2527.0,0.0131
2526.0,0.0131
2525.0,0.013
2524.0,0.013
2523.0,0.013
2522.0,0.013
2521.0,0.013
2520.0,0.013
2519.0,0.0129
2518.0,0.0129
2517.0,0.0128
2516.0,0.0127
2515.0,0.0127
2514.0,0.0126
2513.0,0.0126
2512.0,0.0126
2511.0,0.0126
2510.0,0.0126
2509.0,0.0126
2508.0,0.0127
2507.0,0.0127
2506.0,0.0127
2505.0,0.0127
2504.0,0.0126
2503.0,0.0126
2502.0,0.0127
2501.0,0.0127
2500.0,0.0127
2499.0,0.0127
2498.0,0.0126
2497.0,0.0126
2496.0,0.0126
2495.0,0.0126
2494.0,0.0126
2493.0,0.0126
2492.0,0.0126
2491.0,0.0126
2490.0,0.0127
2489.0,0.0127
2488.0,0.0127
2487.0,0.0127
2486.0,0.0127
2485.0,0.0127
2484.0,0.0127
2483.0,0.0127
2482.0,0.0127
2481.0,0.0126
2480.0,0.0125
2479.0,0.0125
2478.0,0.0125
2477.0,0.0125
2476.0,0.0125
2475.0,0.0125
2474.0,0.0125
2473.0,0.0125
2472.0,0.0125
2471.0,0.0124
2470.0,0.0124
2469.0,0.0124
2468.0,0.0124
2467.0,0.0125
2466.0,0.0125
2465.0,0.0125
2464.0,0.0125
2463.0,0.0124
2462.0,0.0124
2461.0,0.0123
2460.0,0.0123
2459.0,0.0123
2458.0,0.0124
2457.0,0.0124
2456.0,0.0124
2455.0,0.0123
2454.0,0.0123
2453.0,0.0123
2452.0,0.0123
2451.0,0.0124
2450.0,0.0125
2449.0,0.0125
2448.0,0.0125
2447.0,0.0125
2446.0,0.0124
2445.0,0.0123
2444.0,0.0123
2443.0,0.0123
2442.0,0.0124
2441.0,0.0124
2440.0,0.0125
2439.0,0.0125
2438.0,0.0125
2437.0,0.0125
2436.0,0.0124
2435.0,0.0124
2434.0,0.0125
2433.0,0.0125
2432.0,0.0125
2431.0,0.0125
2430.0,0.0126
2429.0,0.0126
2428.0,0.0127
2427.0,0.0127
2426.0,0.0127
2425.0,0.0126
2424.0,0.0126
2423.0,0.0126
2422.0,0.0126
2421.0,0.0125
2420.0,0.0125
2419.0,0.0124
2418.0,0.0124
2417.0,0.0124
2416.0,0.0123
2415.0,0.0123
2414.0,0.0123
2413.0,0.0123
2412.0,0.0123
2411.0,0.0123
2410.0,0.0123
2409.0,0.0124
2408.0,0.0124
2407.0,0.0125
2406.0,0.0125
2405.0,0.0125
2404.0,0.0124
2403.0,0.0124
2402.0,0.0124
2401.0,0.0124
2400.0,0.0124
2399.0,0.0124
2398.0,0.0124
2397.0,0.0124
2396.0,0.0124
2395.0,0.0124
2394.0,0.0124
2393.0,0.0123
2392.0,0.0123
2391.0,0.0123
2390.0,0.0123
2389.0,0.0122
2388.0,0.0121
2387.0,0.012
2386.0,0.0119
2385.0,0.0118
2384.0,0.0117
2383.0,0.0117
2382.0,0.0117
2381.0,0.0118
2380.0,0.0119
2379.0,0.012
2378.0,0.012
2377.0,0.012
2376.0,0.0119
2375.0,0.0116
2374.0,0.0113
2373.0,0.0111
2372.0,0.0111
2371.0,0.0114
2370.0,0.0116
2369.0,0.0116
2368.0,0.0116
2367.0,0.012
2366.0,0.0131
2365.0,0.0144
2364.0,0.0143
2363.0,0.0124
2362.0,0.0099
2361.0,0.0089
2360.0,0.0099
2359.0,0.0116
2358.0,0.0127
2357.0,0.0124
2356.0,0.0114
2355.0,0.0104
2354.0,0.0102
2353.0,0.0104
2352.0,0.0107
2351.0,0.0108
2350.0,0.0108
2349.0,0.0108
2348.0,0.0109
2347.0,0.011
2346.0,0.0111
2345.0,0.0109
2344.0,0.0103
2343.0,0.0092
2342.0,0.0085
2341.0,0.0084
2340.0,0.0089
2339.0,0.0096
2338.0,0.0103
2337.0,0.0108
2336.0,0.0108
2335.0,0.0103
2334.0,0.0099
2333.0,0.0103
2332.0,0.011
2331.0,0.0116
2330.0,0.0116
2329.0,0.011
2328.0,0.0103
2327.0,0.0099
2326.0,0.0101
2325.0,0.0106
2324.0,0.0111
2323.0,0.0113
2322.0,0.0112
2321.0,0.0111
2320.0,0.0111
2319.0,0.011
2318.0,0.0109
2317.0,0.0109
2316.0,0.0109
2315.0,0.011
2314.0,0.0109
2313.0,0.0109
2312.0,0.0108
2311.0,0.0107
2310.0,0.0106
2309.0,0.0106
2308.0,0.0107
2307.0,0.0107
2306.0,0.0108
2305.0,0.0108
2304.0,0.0108
2303.0,0.0107
2302.0,0.0106
2301.0,0.0106
2300.0,0.0107
2299.0,0.0108
2298.0,0.0108
2297.0,0.0109
2296.0,0.0109
2295.0,0.0109
2294.0,0.0109
2293.0,0.011
2292.0,0.0111
2291.0,0.0112
2290.0,0.0113
2289.0,0.0114
2288.0,0.0114
2287.0,0.0115
2286.0,0.0116
2285.0,0.0116
2284.0,0.0116
2283.0,0.0116
2282.0,0.0115
2281.0,0.0115
2280.0,0.0115
2279.0,0.0115
2278.0,0.0115
2277.0,0.0116
2276.0,0.0116
2275.0,0.0116
2274.0,0.0116
2273.0,0.0116
2272.0,0.0116
2271.0,0.0116
2270.0,0.0116
2269.0,0.0116
2268.0,0.0116
2267.0,0.0116
2266.0,0.0115
2265.0,0.0115
2264.0,0.0115
2263.0,0.0115
2262.0,0.0115
2261.0,0.0115
2260.0,0.0115
2259.0,0.0115
2258.0,0.0115
2257.0,0.0116
2256.0,0.0116
2255.0,0.0116
2254.0,0.0116
2253.0,0.0116
2252.0,0.0116
2251.0,0.0116
2250.0,0.0117
2249.0,0.0117
2248.0,0.0117
2247.0,0.0117
2246.0,0.0117
2245.0,0.0117
2244.0,0.0117
2243.0,0.0117
2242.0,0.0116
2241.0,0.0116
2240.0,0.0115
2239.0,0.0115
2238.0,0.0116
2237.0,0.0116
2236.0,0.0116
2235.0,0.0116
2234.0,0.0116
2233.0,0.0116
2232.0,0.0115
2231.0,0.0115
2230.0,0.0116
2229.0,0.0116
2228.0,0.0116
2227.0,0.0116
2226.0,0.0116
2225.0,0.0115
2224.0,0.0115
2223.0,0.0116
2222.0,0.0116
2221.0,0.0116
2220.0,0.0117
2219.0,0.0117
2218.0,0.0116
2217.0,0.0115
2216.0,0.0115
2215.0,0.0115
2214.0,0.0115
2213.0,0.0115
2212.0,0.0115
2211.0,0.0115
2210.0,0.0115
2209.0,0.0116
2208.0,0.0116
2207.0,0.0116
2206.0,0.0116
2205.0,0.0116
2204.0,0.0116
2203.0,0.0116
2202.0,0.0116
2201.0,0.0116
2200.0,0.0116
2199.0,0.0115
2198.0,0.0116
2197.0,0.0116
2196.0,0.0116
2195.0,0.0117
2194.0,0.0117
2193.0,0.0117
2192.0,0.0117
2191.0,0.0117
2190.0,0.0117
2189.0,0.0117
2188.0,0.0116
2187.0,0.0116
2186.0,0.0116
2185.0,0.0116
2184.0,0.0116
2183.0,0.0116
2182.0,0.0116
2181.0,0.0116
2180.0,0.0116
2179.0,0.0115
2178.0,0.0115
2177.0,0.0116
2176.0,0.0116
2175.0,0.0116
2174.0,0.0116
2173.0,0.0116
2172.0,0.0116
2171.0,0.0117
2170.0,0.0117
2169.0,0.0116
2168.0,0.0117
2167.0,0.0117
2166.0,0.0117
2165.0,0.0116
2164.0,0.0116
2163.0,0.0116
2162.0,0.0116
2161.0,0.0116
2160.0,0.0116
2159.0,0.0116
2158.0,0.0116
2157.0,0.0116
2156.0,0.0116
2155.0,0.0116
2154.0,0.0116
2153.0,0.0117
2152.0,0.0117
2151.0,0.0117
2150.0,0.0116
2149.0,0.0116
2148.0,0.0116
2147.0,0.0116
2146.0,0.0116
2145.0,0.0115
2144.0,0.0115
2143.0,0.0115
2142.0,0.0115
2141.0,0.0115
2140.0,0.0114
2139.0,0.0115
2138.0,0.0115
2137.0,0.0116
2136.0,0.0116
2135.0,0.0115
2134.0,0.0115
2133.0,0.0115
2132.0,0.0115
2131.0,0.0115
2130.0,0.0116
2129.0,0.0116
2128.0,0.0116
2127.0,0.0116
2126.0,0.0115
2125.0,0.0115
2124.0,0.0114
2123.0,0.0114
2122.0,0.0114
2121.0,0.0114
2120.0,0.0114
2119.0,0.0114
2118.0,0.0114
2117.0,0.0114
2116.0,0.0115
2115.0,0.0115
2114.0,0.0115
2113.0,0.0114
2112.0,0.0114
2111.0,0.0114
2110.0,0.0114
2109.0,0.0114
2108.0,0.0114
2107.0,0.0114
2106.0,0.0114
2105.0,0.0113
2104.0,0.0113
2103.0,0.0113
2102.0,0.0113
2101.0,0.0113
2100.0,0.0113
2099.0,0.0113
2098.0,0.0113
2097.0,0.0113
2096.0,0.0113
2095.0,0.0113
2094.0,0.0113
2093.0,0.0113
2092.0,0.0114
2091.0,0.0114
2090.0,0.0114
2089.0,0.0114
2088.0,0.0114
2087.0,0.0114
2086.0,0.0113
2085.0,0.0113
2084.0,0.0113
2083.0,0.0113
2082.0,0.0113
2081.0,0.0113
2080.0,0.0112
2079.0,0.0112
2078.0,0.0112
2077.0,0.0112
2076.0,0.0112
2075.0,0.0113
2074.0,0.0113
2073.0,0.0113
2072.0,0.0113
2071.0,0.0112
2070.0,0.0112
2069.0,0.0112
2068.0,0.0112
2067.0,0.0112
2066.0,0.0112
2065.0,0.0111
2064.0,0.0111
2063.0,0.0111
2062.0,0.0111
2061.0,0.0111
2060.0,0.0112
2059.0,0.0112
2058.0,0.0112
2057.0,0.0112
2056.0,0.0112
2055.0,0.0111
2054.0,0.0111
2053.0,0.0111
2052.0,0.0111
2051.0,0.0111
2050.0,0.0111
2049.0,0.0111
2048.0,0.0112
2047.0,0.0112
2046.0,0.0112
2045.0,0.0112
2044.0,0.0112
2043.0,0.0112
2042.0,0.0112
2041.0,0.0112
2040.0,0.0112
2039.0,0.0112
2038.0,0.0111
2037.0,0.0111
2036.0,0.0111
2035.0,0.0111
2034.0,0.0111
2033.0,0.0111
2032.0,0.0111
2031.0,0.0111
2030.0,0.0112
2029.0,0.0112
2028.0,0.0113
2027.0,0.0113
2026.0,0.0113
2025.0,0.0112
2024.0,0.0112
2023.0,0.0111
2022.0,0.0111
2021.0,0.0111
2020.0,0.0111
2019.0,0.0112
2018.0,0.0112
2017.0,0.0112
2016.0,0.0112
2015.0,0.0112
2014.0,0.0112
2013.0,0.0112
2012.0,0.0112
2011.0,0.0112
2010.0,0.0112
2009.0,0.0112
2008.0,0.0112
2007.0,0.0112
2006.0,0.0111
2005.0,0.0111
2004.0,0.011
2003.0,0.011
2002.0,0.011
2001.0,0.0111
2000.0,0.0111
1999.0,0.0111
1998.0,0.0111
1997.0,0.0111
1996.0,0.0111
1995.0,0.0111
1994.0,0.0111
1993.0,0.0112
1992.0,0.0112
1991.0,0.0112
1990.0,0.0111
1989.0,0.0111
1988.0,0.0112
1987.0,0.0112
1986.0,0.0112
1985.0,0.0112
1984.0,0.0112
1983.0,0.0111
1982.0,0.0111
1981.0,0.0111
1980.0,0.0111
1979.0,0.0111
1978.0,0.0112
1977.0,0.0112
1976.0,0.0112
1975.0,0.0112
1974.0,0.0111
1973.0,0.0111
1972.0,0.0112
1971.0,0.0112
1970.0,0.0112
1969.0,0.0112
1968.0,0.0112
1967.0,0.0112
1966.0,0.0112
1965.0,0.0112
1964.0,0.0112
1963.0,0.0112
1962.0,0.0112
1961.0,0.0112
1960.0,0.0112
1959.0,0.0112
1958.0,0.0112
1957.0,0.0113
1956.0,0.0113
1955.0,0.0112
1954.0,0.0112
1953.0,0.0112
1952.0,0.0112
1951.0,0.0111
1950.0,0.0111
1949.0,0.0111
1948.0,0.0111
1947.0,0.0111
1946.0,0.0111
1945.0,0.0111
1944.0,0.0111
1943.0,0.0111
1942.0,0.0111
1941.0,0.0112
1940.0,0.0112
1939.0,0.0112
1938.0,0.0111
1937.0,0.0111
1936.0,0.0111
1935.0,0.0111
1934.0,0.0112
1933.0,0.0112
1932.0,0.0112
1931.0,0.0111
1930.0,0.0111
1929.0,0.0111
1928.0,0.0111
1927.0,0.0112
1926.0,0.0112
1925.0,0.0112
1924.0,0.0112
1923.0,0.0112
1922.0,0.0112
1921.0,0.0112
1920.0,0.0112
1919.0,0.0111
1918.0,0.0111
1917.0,0.0112
1916.0,0.0112
1915.0,0.0112
1914.0,0.0112
1913.0,0.0111
1912.0,0.0111
1911.0,0.0111
1910.0,0.0111
1909.0,0.0112
1908.0,0.0112
1907.0,0.0112
1906.0,0.0112
1905.0,0.0112
1904.0,0.0112
1903.0,0.0112
1902.0,0.0111
1901.0,0.0111
1900.0,0.011
1899.0,0.011
1898.0,0.0111
1897.0,0.0112
1896.0,0.0113
1895.0,0.0113
1894.0,0.0113
1893.0,0.0113
1892.0,0.0113
1891.0,0.0113
1890.0,0.0113
1889.0,0.0113
1888.0,0.0113
1887.0,0.0113
1886.0,0.0112
1885.0,0.0112
1884.0,0.0112
1883.0,0.0112
1882.0,0.0112
1881.0,0.0112
1880.0,0.0112
1879.0,0.0111
1878.0,0.0111
1877.0,0.0111
1876.0,0.0112
1875.0,0.0112
1874.0,0.0112
1873.0,0.0112
1872.0,0.0112
1871.0,0.0111
1870.0,0.0111
1869.0,0.0111
1868.0,0.0112
1867.0,0.0112
1866.0,0.0113
1865.0,0.0112
1864.0,0.0112
1863.0,0.0112
1862.0,0.0112
1861.0,0.0113
1860.0,0.0112
1859.0,0.0112
1858.0,0.0112
1857.0,0.0112
1856.0,0.0112
1855.0,0.0112
1854.0,0.0112
1853.0,0.0112
1852.0,0.0112
1851.0,0.0112
1850.0,0.0112
1849.0,0.0112
1848.0,0.0112
1847.0,0.0112
1846.0,0.0112
1845.0,0.0112
1844.0,0.0112
1843.0,0.0113
1842.0,0.0113
1841.0,0.0113
1840.0,0.0113
1839.0,0.0112
1838.0,0.0112
1837.0,0.0112
1836.0,0.0112
1835.0,0.0112
1834.0,0.0112
1833.0,0.0113
1832.0,0.0114
1831.0,0.0114
1830.0,0.0114
1829.0,0.0114
1828.0,0.0113
1827.0,0.0112
1826.0,0.0112
1825.0,0.0111
1824.0,0.0112
1823.0,0.0112
1822.0,0.0112
1821.0,0.0112
1820.0,0.0112
1819.0,0.0112
1818.0,0.0112
1817.0,0.0112
1816.0,0.0112
1815.0,0.0111
1814.0,0.0111
1813.0,0.0112
1812.0,0.0112
1811.0,0.0112
1810.0,0.0112
1809.0,0.0112
1808.0,0.0112
1807.0,0.0112
1806.0,0.0112
1805.0,0.0111
1804.0,0.0111
1803.0,0.0111
1802.0,0.0111
1801.0,0.0111
1800.0,0.0112
1799.0,0.0111
1798.0,0.0111
1797.0,0.0111
1796.0,0.0111
1795.0,0.0111
1794.0,0.0111
1793.0,0.0111
1792.0,0.0111
1791.0,0.0112
1790.0,0.0112
1789.0,0.0112
1788.0,0.0112
1787.0,0.0111
1786.0,0.0111
1785.0,0.0111
1784.0,0.0112
1783.0,0.0112
1782.0,0.0113
1781.0,0.0113
1780.0,0.0113
1779.0,0.0113
1778.0,0.0113
1777.0,0.0112
1776.0,0.0112
1775.0,0.0112
1774.0,0.0113
1773.0,0.0113
1772.0,0.0114
1771.0,0.0114
1770.0,0.0114
1769.0,0.0113
1768.0,0.0112
1767.0,0.0111
1766.0,0.0111
1765.0,0.0111
1764.0,0.0111
1763.0,0.0111
1762.0,0.0111
1761.0,0.0112
1760.0,0.0113
1759.0,0.0114
1758.0,0.0114
1757.0,0.0114
1756.0,0.0114
1755.0,0.0114
1754.0,0.0114
1753.0,0.0114
1752.0,0.0115
1751.0,0.0116
1750.0,0.0118
1749.0,0.0118
1748.0,0.0118
1747.0,0.0118
1746.0,0.0118
1745.0,0.0118
1744.0,0.0118
1743.0,0.0118
1742.0,0.0118
1741.0,0.0118
1740.0,0.0117
1739.0,0.0116
1738.0,0.0116
1737.0,0.0116
1736.0,0.0115
1735.0,0.0114
1734.0,0.0114
1733.0,0.0115
1732.0,0.0116
1731.0,0.0117
1730.0,0.0117
1729.0,0.0117
1728.0,0.0117
1727.0,0.0117
1726.0,0.0117
1725.0,0.0117
1724.0,0.0118
1723.0,0.0118
1722.0,0.0118
1721.0,0.0118
1720.0,0.0117
1719.0,0.0116
1718.0,0.0116
1717.0,0.0118
1716.0,0.012
1715.0,0.012
1714.0,0.012
1713.0,0.012
1712.0,0.012
1711.0,0.0119
1710.0,0.0119
1709.0,0.0119
1708.0,0.0119
1707.0,0.012
1706.0,0.012
1705.0,0.0121
1704.0,0.0121
1703.0,0.0122
1702.0,0.0121
1701.0,0.012
1700.0,0.012
1699.0,0.0121
1698.0,0.0122
1697.0,0.0123
1696.0,0.0123
1695.0,0.0122
1694.0,0.0122
1693.0,0.0122
1692.0,0.0123
1691.0,0.0123
1690.0,0.0124
1689.0,0.0124
1688.0,0.0125
1687.0,0.0125
1686.0,0.0124
1685.0,0.0124
1684.0,0.0125
1683.0,0.0125
1682.0,0.0125
1681.0,0.0126
1680.0,0.0126
1679.0,0.0126
1678.0,0.0126
1677.0,0.0126
1676.0,0.0126
1675.0,0.0126
1674.0,0.0125
1673.0,0.0125
1672.0,0.0125
1671.0,0.0125
1670.0,0.0125
1669.0,0.0126
1668.0,0.0127
1667.0,0.0127
1666.0,0.0127
1665.0,0.0128
1664.0,0.0128
1663.0,0.0129
1662.0,0.013
1661.0,0.0131
1660.0,0.013
1659.0,0.0129
1658.0,0.0128
1657.0,0.0127
1656.0,0.0127
1655.0,0.0127
1654.0,0.0127
1653.0,0.0129
1652.0,0.0129
1651.0,0.0128
1650.0,0.0129
1649.0,0.0129
1648.0,0.013
1647.0,0.0131
1646.0,0.0131
1645.0,0.0131
1644.0,0.013
1643.0,0.013
1642.0,0.0129
1641.0,0.0128
1640.0,0.0128
1639.0,0.0128
1638.0,0.0128
1637.0,0.0128
1636.0,0.013
1635.0,0.0131
1634.0,0.013
1633.0,0.013
1632.0,0.013
1631.0,0.013
1630.0,0.013
1629.0,0.013
1628.0,0.013
1627.0,0.013
1626.0,0.0129
1625.0,0.0129
1624.0,0.0129
1623.0,0.0129
1622.0,0.0129
1621.0,0.0129
1620.0,0.0129
1619.0,0.0129
1618.0,0.0128
1617.0,0.0128
1616.0,0.0128
1615.0,0.0128
1614.0,0.0128
1613.0,0.0128
1612.0,0.0127
1611.0,0.0126
1610.0,0.0126
1609.0,0.0126
1608.0,0.0125
1607.0,0.0126
1606.0,0.0125
1605.0,0.0125
1604.0,0.0125
1603.0,0.0125
1602.0,0.0124
1601.0,0.0124
1600.0,0.0123
1599.0,0.0123
1598.0,0.0122
1597.0,0.0122
1596.0,0.0121
1595.0,0.0121
1594.0,0.012
1593.0,0.012
1592.0,0.012
1591.0,0.012
1590.0,0.012
1589.0,0.012
1588.0,0.012
1587.0,0.0119
1586.0,0.0119
1585.0,0.0119
1584.0,0.0118
1583.0,0.0118
1582.0,0.0118
1581.0,0.0118
1580.0,0.0118
1579.0,0.0118
1578.0,0.0118
1577.0,0.0117
1576.0,0.0117
1575.0,0.0117
1574.0,0.0117
1573.0,0.0117
1572.0,0.0117
1571.0,0.0117
1570.0,0.0117
1569.0,0.0118
1568.0,0.0118
1567.0,0.0118
1566.0,0.0118
1565.0,0.0118
1564.0,0.0118
1563.0,0.0117
1562.0,0.0117
1561.0,0.0116
1560.0,0.0114
1559.0,0.0116
1558.0,0.0117
1557.0,0.0117
1556.0,0.0118
1555.0,0.0118
1554.0,0.0117
1553.0,0.0117
1552.0,0.0117
1551.0,0.0118
1550.0,0.0117
1549.0,0.0117
1548.0,0.0116
1547.0,0.0116
1546.0,0.0115
1545.0,0.0116
1544.0,0.0116
1543.0,0.0116
1542.0,0.0116
1541.0,0.0117
1540.0,0.0118
1539.0,0.0117
1538.0,0.0115
1537.0,0.0115
1536.0,0.0115
1535.0,0.0114
1534.0,0.0114
1533.0,0.0114
1532.0,0.0113
1531.0,0.0113
1530.0,0.0112
1529.0,0.0112
1528.0,0.0112
1527.0,0.0112
1526.0,0.0111
1525.0,0.0111
1524.0,0.0111
1523.0,0.011
1522.0,0.011
1521.0,0.0111
1520.0,0.0111
1519.0,0.0112
1518.0,0.0111
1517.0,0.0111
1516.0,0.011
1515.0,0.0108
1514.0,0.0107
1513.0,0.0106
1512.0,0.0106
1511.0,0.0106
1510.0,0.0106
1509.0,0.0106
1508.0,0.0106
1507.0,0.0106
1506.0,0.0105
1505.0,0.0105
1504.0,0.0106
1503.0,0.0106
1502.0,0.0106
1501.0,0.0106
1500.0,0.0107
1499.0,0.0107
1498.0,0.0107
1497.0,0.0107
1496.0,0.0107
1495.0,0.0106
1494.0,0.0105
1493.0,0.0106
1492.0,0.0107
1491.0,0.0108
1490.0,0.0107
1489.0,0.0108
1488.0,0.0109
1487.0,0.0109
1486.0,0.0109
1485.0,0.0111
1484.0,0.0114
1483.0,0.0117
1482.0,0.0119
1481.0,0.0123
1480.0,0.0127
1479.0,0.0131
1478.0,0.0137
1477.0,0.0146
1476.0,0.0157
1475.0,0.0169
1474.0,0.0189
1473.0,0.0226
1472.0,0.0271
1471.0,0.031
1470.0,0.0345
1469.0,0.0382
1468.0,0.0424
1467.0,0.0472
1466.0,0.0532
1465.0,0.0602
1464.0,0.0662
1463.0,0.07
1462.0,0.0724
1461.0,0.074
1460.0,0.0751
1459.0,0.076
1458.0,0.0773
1457.0,0.0793
1456.0,0.0803
1455.0,0.0803
1454.0,0.0801
1453.0,0.0797
1452.0,0.0788
1451.0,0.0772
1450.0,0.0749
1449.0,0.0714
1448.0,0.0665
1447.0,0.0613
1446.0,0.0566
1445.0,0.0525
1444.0,0.0488
1443.0,0.0456
1442.0,0.0432
1441.0,0.0415
1440.0,0.0403
1439.0,0.0398
1438.0,0.0401
1437.0,0.0408
1436.0,0.041
1435.0,0.04
1434.0,0.038
1433.0,0.0354
1432.0,0.0324
1431.0,0.0297
1430.0,0.0275
1429.0,0.0258
1428.0,0.0246
1427.0,0.0237
1426.0,0.023
1425.0,0.0223
1424.0,0.0217
1423.0,0.0212
1422.0,0.0209
1421.0,0.0205
1420.0,0.0201
1419.0,0.0198
1418.0,0.0196
1417.0,0.0194
1416.0,0.0191
1415.0,0.0189
1414.0,0.0187
1413.0,0.0184
1412.0,0.0182
1411.0,0.018
1410.0,0.0179
1409.0,0.0176
1408.0,0.0174
1407.0,0.0173
1406.0,0.0172
1405.0,0.017
1404.0,0.0167
1403.0,0.0165
1402.0,0.0164
1401.0,0.0162
1400.0,0.0159
1399.0,0.0158
1398.0,0.0158
1397.0,0.0156
1396.0,0.0154
1395.0,0.0153
1394.0,0.0153
1393.0,0.0152
1392.0,0.0151
1391.0,0.0152
1390.0,0.0154
1389.0,0.0156
1388.0,0.0163
1387.0,0.0177
1386.0,0.02
1385.0,0.0232
1384.0,0.028
1383.0,0.035
1382.0,0.0447
1381.0,0.0571
1380.0,0.0728
1379.0,0.091
1378.0,0.1089
1377.0,0.1228
1376.0,0.1296
1375.0,0.127
1374.0,0.116
1373.0,0.1016
1372.0,0.088
1371.0,0.076
1370.0,0.0655
1369.0,0.0569
1368.0,0.0505
1367.0,0.0464
1366.0,0.0439
1365.0,0.0425
1364.0,0.0423
1363.0,0.043
1362.0,0.0444
1361.0,0.046
1360.0,0.0473
1359.0,0.0478
1358.0,0.0474
1357.0,0.0459
1356.0,0.0436
1355.0,0.0409
1354.0,0.0382
1353.0,0.0359
1352.0,0.034
1351.0,0.0324
1350.0,0.031
1349.0,0.0298
1348.0,0.0288
1347.0,0.0279
1346.0,0.0271
1345.0,0.0264
1344.0,0.0258
1343.0,0.0253
1342.0,0.0248
1341.0,0.0245
1340.0,0.0244
1339.0,0.0242
1338.0,0.0241
1337.0,0.0239
1336.0,0.0238
1335.0,0.0238
1334.0,0.0239
1333.0,0.0241
1332.0,0.0244
1331.0,0.0247
1330.0,0.0248
1329.0,0.0248
1328.0,0.0246
1327.0,0.0243
1326.0,0.0239
1325.0,0.0235
1324.0,0.023
1323.0,0.0226
1322.0,0.0222
1321.0,0.022
1320.0,0.0217
1319.0,0.0215
1318.0,0.0213
1317.0,0.0211
1316.0,0.0209
1315.0,0.0208
1314.0,0.0207
1313.0,0.0207
1312.0,0.0207
1311.0,0.0207
1310.0,0.0207
1309.0,0.0209
1308.0,0.0213
1307.0,0.0218
1306.0,0.0222
1305.0,0.0225
1304.0,0.0226
1303.0,0.0225
1302.0,0.0223
1301.0,0.0223
1300.0,0.0224
1299.0,0.0225
1298.0,0.0227
1297.0,0.0229
1296.0,0.023
1295.0,0.0229
1294.0,0.0227
1293.0,0.0224
1292.0,0.0221
1291.0,0.0218
1290.0,0.0215
1289.0,0.0212
1288.0,0.0211
1287.0,0.0209
1286.0,0.0208
1285.0,0.0206
1284.0,0.0204
1283.0,0.0202
1282.0,0.0201
1281.0,0.02
1280.0,0.0199
1279.0,0.0198
1278.0,0.0198
1277.0,0.0197
1276.0,0.0196
1275.0,0.0195
1274.0,0.0195
1273.0,0.0195
1272.0,0.0195
1271.0,0.0196
1270.0,0.0195
1269.0,0.0195
1268.0,0.0195
1267.0,0.0195
1266.0,0.0196
1265.0,0.0197
1264.0,0.0198
1263.0,0.02
1262.0,0.0202
1261.0,0.0204
1260.0,0.0207
1259.0,0.021
1258.0,0.0214
1257.0,0.0216
1256.0,0.0218
1255.0,0.0218
1254.0,0.0215
1253.0,0.0212
1252.0,0.0208
1251.0,0.0205
1250.0,0.0203
1249.0,0.0201
1248.0,0.02
1247.0,0.0199
1246.0,0.0198
1245.0,0.0197
1244.0,0.0196
1243.0,0.0196
1242.0,0.0195
1241.0,0.0195
1240.0,0.0195
1239.0,0.0195
1238.0,0.0194
1237.0,0.0194
1236.0,0.0193
1235.0,0.0193
1234.0,0.0193
1233.0,0.0194
1232.0,0.0194
1231.0,0.0195
1230.0,0.0196
1229.0,0.0196
1228.0,0.0197
1227.0,0.0198
1226.0,0.0199
1225.0,0.0201
1224.0,0.0203
1223.0,0.0206
1222.0,0.0209
1221.0,0.0211
1220.0,0.0213
1219.0,0.0213
1218.0,0.0213
1217.0,0.0212
1216.0,0.021
1215.0,0.0209
1214.0,0.0207
1213.0,0.0205
1212.0,0.0204
1211.0,0.0203
1210.0,0.0202
1209.0,0.0202
1208.0,0.0201
1207.0,0.02
1206.0,0.0199
1205.0,0.0199
1204.0,0.0199
1203.0,0.0199
1202.0,0.0199
1201.0,0.02
1200.0,0.02
1199.0,0.0201
1198.0,0.0201
1197.0,0.0201
1196.0,0.0201
1195.0,0.0201
1194.0,0.0202
1193.0,0.0202
1192.0,0.0203
1191.0,0.0204
1190.0,0.0205
1189.0,0.0205
1188.0,0.0205
1187.0,0.0205
1186.0,0.0205
1185.0,0.0206
1184.0,0.0207
1183.0,0.0209
1182.0,0.021
1181.0,0.0212
1180.0,0.0214
1179.0,0.0217
1178.0,0.022
1177.0,0.0224
1176.0,0.0229
1175.0,0.0237
1174.0,0.0247
1173.0,0.026
1172.0,0.0274
1171.0,0.0289
1170.0,0.0304
1169.0,0.0316
1168.0,0.0324
1167.0,0.0327
1166.0,0.0326
1165.0,0.0322
1164.0,0.0317
1163.0,0.0313
1162.0,0.0308
1161.0,0.0305
1160.0,0.0303
1159.0,0.0301
1158.0,0.03
1157.0,0.03
1156.0,0.0301
1155.0,0.0303
1154.0,0.0304
1153.0,0.0304
1152.0,0.0303
1151.0,0.03
1150.0,0.0295
1149.0,0.0289
1148.0,0.0283
1147.0,0.0277
1146.0,0.0272
1145.0,0.0267
1144.0,0.0263
1143.0,0.0258
1142.0,0.0254
1141.0,0.025
1140.0,0.0246
1139.0,0.0243
1138.0,0.0241
1137.0,0.0239
1136.0,0.0237
1135.0,0.0236
1134.0,0.0234
1133.0,0.0232
1132.0,0.023
1131.0,0.0229
1130.0,0.0228
1129.0,0.0228
1128.0,0.0227
1127.0,0.0226
1126.0,0.0225
1125.0,0.0225
1124.0,0.0225
1123.0,0.0224
1122.0,0.0225
1121.0,0.0225
1120.0,0.0225
1119.0,0.0225
1118.0,0.0225
1117.0,0.0225
1116.0,0.0225
1115.0,0.0225
1114.0,0.0226
1113.0,0.0227
1112.0,0.0228
1111.0,0.023
1110.0,0.0232
1109.0,0.0234
1108.0,0.0238
1107.0,0.0243
1106.0,0.0249
1105.0,0.0255
1104.0,0.026
1103.0,0.0263
1102.0,0.0263
1101.0,0.0261
1100.0,0.0257
1099.0,0.0253
1098.0,0.0248
1097.0,0.0244
1096.0,0.0241
1095.0,0.0238
1094.0,0.0235
1093.0,0.0233
1092.0,0.0231
1091.0,0.0229
1090.0,0.0227
1089.0,0.0226
1088.0,0.0224
1087.0,0.0223
1086.0,0.0222
1085.0,0.0222
1084.0,0.0221
1083.0,0.022
1082.0,0.0219
1081.0,0.0217
1080.0,0.0215
1079.0,0.0214
1078.0,0.0213
1077.0,0.0212
1076.0,0.0211
1075.0,0.021
1074.0,0.0209
1073.0,0.0207
1072.0,0.0206
1071.0,0.0206
1070.0,0.0206
1069.0,0.0206
1068.0,0.0206
1067.0,0.0206
1066.0,0.0205
1065.0,0.0204
1064.0,0.0203
1063.0,0.0203
1062.0,0.0203
1061.0,0.0204
1060.0,0.0204
1059.0,0.0204
1058.0,0.0203
1057.0,0.0203
1056.0,0.0202
1055.0,0.0202
1054.0,0.0203
1053.0,0.0203
1052.0,0.0204
1051.0,0.0204
1050.0,0.0204
1049.0,0.0205
1048.0,0.0206
1047.0,0.0207
1046.0,0.0209
1045.0,0.021
1044.0,0.0209
1043.0,0.0208
1042.0,0.0207
1041.0,0.0206
1040.0,0.0206
1039.0,0.0206
1038.0,0.0206
1037.0,0.0206
1036.0,0.0205
1035.0,0.0204
1034.0,0.0203
1033.0,0.0202
1032.0,0.0201
1031.0,0.02
1030.0,0.02
1029.0,0.02
1028.0,0.0201
1027.0,0.0201
1026.0,0.0202
1025.0,0.0202
1024.0,0.0202
1023.0,0.0202
1022.0,0.0202
1021.0,0.0202
1020.0,0.0202
1019.0,0.0203
1018.0,0.0204
1017.0,0.0205
1016.0,0.0206
1015.0,0.0207
1014.0,0.0207
1013.0,0.0208
1012.0,0.021
1011.0,0.0211
1010.0,0.0213
1009.0,0.0216
1008.0,0.0219
1007.0,0.0223
1006.0,0.0227
1005.0,0.0233
1004.0,0.0241
1003.0,0.0253
1002.0,0.0268
1001.0,0.0287
1000.0,0.0306
999.0,0.0322
998.0,0.0331
997.0,0.0329
996.0,0.0317
995.0,0.0299
994.0,0.0281
993.0,0.0264
992.0,0.0251
991.0,0.024
990.0,0.0232
989.0,0.0227
988.0,0.0223
987.0,0.0221
986.0,0.0221
985.0,0.0221
984.0,0.0222
983.0,0.0226
982.0,0.0233
981.0,0.0243
980.0,0.0257
979.0,0.0276
978.0,0.0298
977.0,0.0324
976.0,0.0351
975.0,0.0374
974.0,0.039
973.0,0.0395
972.0,0.0387
971.0,0.0369
970.0,0.0345
969.0,0.0322
968.0,0.0301
967.0,0.0285
966.0,0.0272
965.0,0.0263
964.0,0.0255
963.0,0.025
962.0,0.0247
961.0,0.0244
960.0,0.0241
959.0,0.0237
958.0,0.0233
957.0,0.023
956.0,0.0228
955.0,0.0226
954.0,0.0225
953.0,0.0223
952.0,0.0222
951.0,0.0222
950.0,0.0221
949.0,0.0221
948.0,0.0221
947.0,0.0221
946.0,0.0221
945.0,0.0223
944.0,0.0226
943.0,0.023
942.0,0.0234
941.0,0.0236
940.0,0.0237
939.0,0.0235
938.0,0.0232
937.0,0.0228
936.0,0.0225
935.0,0.0222
934.0,0.022
933.0,0.0217
932.0,0.0215
931.0,0.0214
930.0,0.0212
929.0,0.0212
928.0,0.0211
927.0,0.0211
926.0,0.0211
925.0,0.021
924.0,0.021
923.0,0.021
922.0,0.021
921.0,0.021
920.0,0.021
919.0,0.021
918.0,0.0209
917.0,0.0209
916.0,0.0209
915.0,0.021
914.0,0.0211
913.0,0.0211
912.0,0.0211
911.0,0.0211
910.0,0.0211
909.0,0.0212
908.0,0.0215
907.0,0.0219
906.0,0.0225
905.0,0.0234
904.0,0.0246
903.0,0.0261
902.0,0.0279
901.0,0.0296
900.0,0.031
899.0,0.0316
898.0,0.0313
897.0,0.0303
896.0,0.0289
895.0,0.0274
894.0,0.0262
893.0,0.0252
892.0,0.0246
891.0,0.0242
890.0,0.0239
889.0,0.0237
888.0,0.0235
887.0,0.0233
886.0,0.0232
885.0,0.023
884.0,0.0228
883.0,0.0227
882.0,0.0226
881.0,0.0227
880.0,0.0227
879.0,0.0227
878.0,0.0228
877.0,0.0229
876.0,0.0229
875.0,0.0229
874.0,0.0229
873.0,0.0229
872.0,0.0228
871.0,0.0228
870.0,0.0227
869.0,0.0227
868.0,0.0227
867.0,0.0227
866.0,0.0227
865.0,0.0228
864.0,0.023
863.0,0.0231
862.0,0.0231
861.0,0.0231
860.0,0.0231
859.0,0.0231
858.0,0.0232
857.0,0.0233
856.0,0.0234
855.0,0.0235
854.0,0.0236
853.0,0.0238
852.0,0.0241
851.0,0.0243
850.0,0.0245
849.0,0.0247
848.0,0.025
847.0,0.0256
846.0,0.0266
845.0,0.0281
844.0,0.0302
843.0,0.0325
842.0,0.0345
841.0,0.0351
840.0,0.0341
839.0,0.032
838.0,0.0298
837.0,0.0281
836.0,0.027
835.0,0.0264
834.0,0.0259
833.0,0.0256
832.0,0.0253
831.0,0.0251
830.0,0.0248
829.0,0.0246
828.0,0.0244
827.0,0.0243
826.0,0.0243
825.0,0.0242
824.0,0.0241
823.0,0.0239
822.0,0.0238
821.0,0.0238
820.0,0.0239
819.0,0.0241
818.0,0.0244
817.0,0.0249
816.0,0.0255
815.0,0.0264
814.0,0.0278
813.0,0.0294
812.0,0.0312
811.0,0.0329
810.0,0.0342
809.0,0.035
808.0,0.0351
807.0,0.0345
806.0,0.0334
805.0,0.0319
804.0,0.0306
803.0,0.0295
802.0,0.0288
801.0,0.0282
800.0,0.0278
799.0,0.0274
798.0,0.027
797.0,0.0267
796.0,0.0265
795.0,0.0262
794.0,0.026
793.0,0.0257
792.0,0.0252
791.0,0.0249
790.0,0.0246
789.0,0.0245
788.0,0.0245
787.0,0.0244
786.0,0.0243
785.0,0.0241
784.0,0.0239
783.0,0.0238
782.0,0.0237
781.0,0.0236
780.0,0.0236
779.0,0.0235
778.0,0.0234
777.0,0.0233
776.0,0.0232
775.0,0.023
774.0,0.0229
773.0,0.0229
772.0,0.023
771.0,0.0231
770.0,0.0231
769.0,0.0231
768.0,0.023
767.0,0.0228
766.0,0.0227
765.0,0.0225
764.0,0.0224
763.0,0.0222
762.0,0.0221
761.0,0.0222
760.0,0.0225
759.0,0.0228
758.0,0.0229
757.0,0.0229
756.0,0.0229
755.0,0.023
754.0,0.023
753.0,0.023
752.0,0.0229
751.0,0.0228
750.0,0.0227
749.0,0.0225
748.0,0.0224
747.0,0.0224
746.0,0.0225
745.0,0.0226
744.0,0.0226
743.0,0.0226
742.0,0.0227
741.0,0.023
740.0,0.0232
739.0,0.0231
738.0,0.023
737.0,0.0228
736.0,0.0227
735.0,0.0226
734.0,0.0225
733.0,0.0224
732.0,0.0224
731.0,0.0225
730.0,0.0226
729.0,0.0228
728.0,0.0228
727.0,0.0227
726.0,0.0226
725.0,0.0226
724.0,0.0226
723.0,0.0224
722.0,0.0223
721.0,0.0222
720.0,0.0225
719.0,0.0228
718.0,0.023
717.0,0.023
716.0,0.0229
715.0,0.0229
714.0,0.023
713.0,0.0231
712.0,0.023
711.0,0.0229
710.0,0.0229
709.0,0.0229
708.0,0.0229
707.0,0.0228
706.0,0.0227
705.0,0.0225
704.0,0.0223
703.0,0.0224
702.0,0.0227
701.0,0.0232
700.0,0.0237
699.0,0.0237
698.0,0.0234
697.0,0.0228
696.0,0.0224
695.0,0.0223
694.0,0.0224
693.0,0.0224
692.0,0.0222
691.0,0.0222
690.0,0.0226
689.0,0.0234
688.0,0.0243
687.0,0.0248
686.0,0.0249
685.0,0.0248
684.0,0.0249
683.0,0.0252
682.0,0.0257
681.0,0.026
680.0,0.0257
679.0,0.0248
678.0,0.0236
677.0,0.0228
676.0,0.0226
675.0,0.0229
674.0,0.023
673.0,0.0227
672.0,0.0226
671.0,0.0232
670.0,0.0243
669.0,0.025
668.0,0.0247
667.0,0.0237
666.0,0.023
665.0,0.0227
664.0,0.023
663.0,0.0238
662.0,0.0246
661.0,0.0251
660.0,0.0251
659.0,0.0249
658.0,0.0244
657.0,0.0238
656.0,0.023
655.0,0.0222
654.0,0.0216
653.0,0.0216
652.0,0.022
651.0,0.0224
650.0,0.0226
649.0,0.0227
648.0,0.0226
647.0,0.0226
646.0,0.0227
645.0,0.0228
644.0,0.0231
643.0,0.0234
642.0,0.0238
641.0,0.0241
640.0,0.0242
639.0,0.0241
638.0,0.0238
637.0,0.0237
636.0,0.024
635.0,0.0249
634.0,0.0259
633.0,0.0264
632.0,0.0262
631.0,0.0255
630.0,0.0247
629.0,0.0239
628.0,0.0234
627.0,0.0232
626.0,0.0236
625.0,0.0241
624.0,0.0247
623.0,0.0251
622.0,0.0253
621.0,0.0253
620.0,0.0247
619.0,0.0237
618.0,0.0227
617.0,0.0224
616.0,0.0231
615.0,0.0242
614.0,0.0251
613.0,0.0255
612.0,0.0253
611.0,0.0247
610.0,0.0239
609.0,0.0231
608.0,0.0229
607.0,0.0235
606.0,0.0251
605.0,0.0275
604.0,0.0297
603.0,0.031
602.0,0.0314
601.0,0.0311
600.0,0.0308
