cm-1,A
4000.0,0.0047
3999.0,0.0047
3998.0,0.0047
3997.0,0.0047
3996.0,0.0047
3995.0,0.0047
3994.0,0.0046
3993.0,0.0045
3992.0,0.0045
3991.0,0.0044
3990.0,0.0044
3989.0,0.0044
3988.0,0.0045
3987.0,0.0045
3986.0,0.0045
3985.0,0.0046
3984.0,0.0046
3983.0,0.0047
3982.0,0.0046
3981.0,0.0046
3980.0,0.0045
3979.0,0.0044
3978.0,0.0044
3977.0,0.0045
3976.0,0.0046
3975.0,0.0047
3974.0,0.0047
3973.0,0.0047
3972.0,0.0047
3971.0,0.0047
3970.0,0.0047
3969.0,0.0048
3968.0,0.0048
3967.0,0.0048
3966.0,0.0048
3965.0,0.0048
3964.0,0.0048
3963.0,0.0048
3962.0,0.0048
3961.0,0.0047
3960.0,0.0047
3959.0,0.0047
3958.0,0.0047
3957.0,0.0048
3956.0,0.0048
3955.0,0.0048
3954.0,0.0048
3953.0,0.0048
3952.0,0.0048
3951.0,0.0048
3950.0,0.0048
3949.0,0.0047
3948.0,0.0046
3947.0,0.0046
3946.0,0.0047
3945.0,0.0048
3944.0,0.0049
3943.0,0.0049
3942.0,0.0049
3941.0,0.0049
3940.0,0.0049
3939.0,0.0049
3938.0,0.0048
3937.0,0.0047
3936.0,0.0047
3935.0,0.0048
3934.0,0.0048
3933.0,0.0048
3932.0,0.0049
3931.0,0.0049
3930.0,0.0049
3929.0,0.0049
3928.0,0.0048
3927.0,0.0048
3926.0,0.0047
3925.0,0.0047
3924.0,0.0048
3923.0,0.0048
3922.0,0.0049
3921.0,0.0049
3920.0,0.0047
3919.0,0.0047
3918.0,0.0046
3917.0,0.0046
3916.0,0.0047
3915.0,0.0047
3914.0,0.0048
3913.0,0.0049
3912.0,0.0049
3911.0,0.0049
3910.0,0.0049
3909.0,0.0049
3908.0,0.0049
3907.0,0.0049
3906.0,0.0049
3905.0,0.0049
3904.0,0.0049
3903.0,0.0048
3902.0,0.0048
3901.0,0.0049
3900.0,0.0049
3899.0,0.0049
3898.0,0.0049
3897.0,0.0049
3896.0,0.005
3895.0,0.0051
3894.0,0.0052
3893.0,0.0053
3892.0,0.0053
3891.0,0.0051
3890.0,0.0049
3889.0,0.0048
3888.0,0.0049
3887.0,0.005
3886.0,0.005
3885.0,0.005
3884.0,0.005
3883.0,0.0051
3882.0,0.0052
3881.0,0.0053
3880.0,0.0053
3879.0,0.0052
3878.0,0.0052
3877.0,0.0053
3876.0,0.0054
3875.0,0.0053
3874.0,0.0052
3873.0,0.0052
3872.0,0.0053
3871.0,0.0054
3870.0,0.0054
3869.0,0.0052
3868.0,0.0052
3867.0,0.0053
3866.0,0.0053
3865.0,0.0052
3864.0,0.0051
3863.0,0.005
3862.0,0.005
3861.0,0.005
3860.0,0.005
3859.0,0.0049
3858.0,0.0048
3857.0,0.0048
3856.0,0.0048
3855.0,0.0049
3854.0,0.0048
3853.0,0.0047
3852.0,0.0047
3851.0,0.0048
3850.0,0.005
3849.0,0.005
3848.0,0.005
3847.0,0.005
3846.0,0.0051
3845.0,0.0052
3844.0,0.0053
3843.0,0.0053
3842.0,0.0053
3841.0,0.0053
3840.0,0.0054
3839.0,0.0054
3838.0,0.0055
3837.0,0.0054
3836.0,0.0054
3835.0,0.0053
3834.0,0.0054
3833.0,0.0056
3832.0,0.0056
3831.0,0.0057
3830.0,0.0056
3829.0,0.0056
3828.0,0.0055
3827.0,0.0054
3826.0,0.0052
3825.0,0.005
3824.0,0.005
3823.0,0.0051
3822.0,0.0052
3821.0,0.0052
3820.0,0.0053
3819.0,0.0054
3818.0,0.0056
3817.0,0.0056
3816.0,0.0054
3815.0,0.0052
3814.0,0.0051
3813.0,0.0051
3812.0,0.0051
3811.0,0.0052
3810.0,0.0053
3809.0,0.0055
3808.0,0.0057
3807.0,0.0057
3806.0,0.0055
3805.0,0.0054
3804.0,0.0055
3803.0,0.0056
3802.0,0.0057
3801.0,0.0057
3800.0,0.0056
3799.0,0.0056
3798.0,0.0057
3797.0,0.0057
3796.0,0.0056
3795.0,0.0055
3794.0,0.0055
3793.0,0.0054
3792.0,0.0054
3791.0,0.0054
3790.0,0.0054
3789.0,0.0055
3788.0,0.0055
3787.0,0.0055
3786.0,0.0055
3785.0,0.0053
3784.0,0.0053
3783.0,0.0053
3782.0,0.0055
3781.0,0.0057
3780.0,0.0058
3779.0,0.0058
3778.0,0.0057
3777.0,0.0057
3776.0,0.0056
3775.0,0.0056
3774.0,0.0055
3773.0,0.0054
3772.0,0.0054
3771.0,0.0054
3770.0,0.0054
3769.0,0.0054
3768.0,0.0055
3767.0,0.0056
3766.0,0.0056
3765.0,0.0055
3764.0,0.0054
3763.0,0.0053
3762.0,0.0054
3761.0,0.0054
3760.0,0.0054
3759.0,0.0054
3758.0,0.0054
3757.0,0.0053
3756.0,0.0053
3755.0,0.0052
3754.0,0.0052
3753.0,0.0052
3752.0,0.0052
3751.0,0.0052
3750.0,0.0052
3749.0,0.0052
3748.0,0.0052
3747.0,0.0053
3746.0,0.0055
3745.0,0.0053
3744.0,0.005
3743.0,0.0048
3742.0,0.005
3741.0,0.0052
3740.0,0.0054
3739.0,0.0054
3738.0,0.0054
3737.0,0.0051
3736.0,0.0048
3735.0,0.0045
3734.0,0.0045
3733.0,0.0047
3732.0,0.0049
3731.0,0.0049
3730.0,0.0049
3729.0,0.0048
3728.0,0.0046
3727.0,0.0045
3726.0,0.0045
3725.0,0.0047
3724.0,0.0049
3723.0,0.0051
3722.0,0.0052
3721.0,0.0053
3720.0,0.0054
3719.0,0.0055
3718.0,0.0056
3717.0,0.0056
3716.0,0.0056
3715.0,0.0057
3714.0,0.0057
3713.0,0.0057
3712.0,0.0056
3711.0,0.0056
3710.0,0.0056
3709.0,0.0055
3708.0,0.0055
3707.0,0.0054
3706.0,0.0054
3705.0,0.0055
3704.0,0.0056
3703.0,0.0058
3702.0,0.0059
3701.0,0.0058
3700.0,0.0057
3699.0,0.0057
3698.0,0.0056
3697.0,0.0056
3696.0,0.0056
3695.0,0.0056
3694.0,0.0056
3693.0,0.0058
3692.0,0.006
3691.0,0.0064
3690.0,0.0067
3689.0,0.0066
3688.0,0.0063
3687.0,0.0059
3686.0,0.0057
3685.0,0.0057
3684.0,0.0058
3683.0,0.0059
3682.0,0.0059
3681.0,0.0058
3680.0,0.0058
3679.0,0.0058
3678.0,0.0059
3677.0,0.0062
3676.0,0.0063
3675.0,0.0062
3674.0,0.006
3673.0,0.0061
3672.0,0.0063
3671.0,0.0065
3670.0,0.0066
3669.0,0.0067
3668.0,0.0067
3667.0,0.0067
3666.0,0.0067
3665.0,0.0067
3664.0,0.0066
3663.0,0.0066
3662.0,0.0066
3661.0,0.0066
3660.0,0.0067
3659.0,0.0068
3658.0,0.0069
3657.0,0.0069
3656.0,0.0069
3655.0,0.0069
3654.0,0.007
3653.0,0.0071
3652.0,0.0073
3651.0,0.0073
3650.0,0.0074
3649.0,0.0076
3648.0,0.0077
3647.0,0.0077
3646.0,0.0075
3645.0,0.0075
3644.0,0.0075
3643.0,0.0076
3642.0,0.0077
3641.0,0.0078
3640.0,0.0079
3639.0,0.0078
3638.0,0.0078
3637.0,0.0076
3636.0,0.0076
3635.0,0.0075
3634.0,0.0074
3633.0,0.0073
3632.0,0.0074
3631.0,0.0075
3630.0,0.0077
3629.0,0.0079
3628.0,0.008
3627.0,0.008
3626.0,0.0081
3625.0,0.0081
3624.0,0.0083
3623.0,0.0084
3622.0,0.0086
3621.0,0.0088
3620.0,0.0089
3619.0,0.0089
3618.0,0.0089
3617.0,0.009
3616.0,0.0091
3615.0,0.0093
3614.0,0.0095
3613.0,0.0096
3612.0,0.0097
3611.0,0.0098
3610.0,0.0098
3609.0,0.0098
3608.0,0.0098
3607.0,0.0099
3606.0,0.01
3605.0,0.01
3604.0,0.01
3603.0,0.0101
3602.0,0.0101
3601.0,0.0102
3600.0,0.0103
3599.0,0.0103
3598.0,0.0103
3597.0,0.0103
3596.0,0.0102
3595.0,0.0103
3594.0,0.0105
3593.0,0.0107
3592.0,0.0108
3591.0,0.011
3590.0,0.0111
3589.0,0.0113
3588.0,0.0114
3587.0,0.0115
3586.0,0.0116
3585.0,0.0117
3584.0,0.0119
3583.0,0.012
3582.0,0.0121
3581.0,0.0122
3580.0,0.0123
3579.0,0.0124
3578.0,0.0125
3577.0,0.0126
3576.0,0.0127
3575.0,0.0127
3574.0,0.0128
3573.0,0.0128
3572.0,0.0127
3571.0,0.0126
3570.0,0.0124
3569.0,0.0123
3568.0,0.0123
3567.0,0.0125
3566.0,0.0129
3565.0,0.0134
3564.0,0.0137
3563.0,0.0139
3562.0,0.014
3561.0,0.014
3560.0,0.014
3559.0,0.014
3558.0,0.0141
3557.0,0.0143
3556.0,0.0144
3555.0,0.0146
3554.0,0.0146
3553.0,0.0147
3552.0,0.0148
3551.0,0.0148
3550.0,0.0148
3549.0,0.0147
3548.0,0.0147
3547.0,0.0148
3546.0,0.0151
3545.0,0.0153
3544.0,0.0155
3543.0,0.0155
3542.0,0.0155
3541.0,0.0155
3540.0,0.0156
3539.0,0.0156
3538.0,0.0157
3537.0,0.0159
3536.0,0.016
3535.0,0.0162
3534.0,0.0162
3533.0,0.0163
3532.0,0.0163
3531.0,0.0164
3530.0,0.0165
3529.0,0.0166
3528.0,0.0166
3527.0,0.0167
3526.0,0.0168
3525.0,0.0169
3524.0,0.017
3523.0,0.0171
3522.0,0.0172
3521.0,0.0173
3520.0,0.0174
3519.0,0.0175
3518.0,0.0176
3517.0,0.0177
3516.0,0.0178
3515.0,0.0178
3514.0,0.0178
3513.0,0.0179
3512.0,0.018
3511.0,0.0181
3510.0,0.0183
3509.0,0.0185
3508.0,0.0186
3507.0,0.0187
3506.0,0.0188
3505.0,0.0189
3504.0,0.0189
3503.0,0.019
3502.0,0.0191
3501.0,0.0192
3500.0,0.0193
3499.0,0.0193
3498.0,0.0194
3497.0,0.0195
3496.0,0.0197
3495.0,0.0198
3494.0,0.0199
3493.0,0.0198
3492.0,0.0198
3491.0,0.0198
3490.0,0.0199
3489.0,0.02
3488.0,0.0202
3487.0,0.0204
3486.0,0.0205
3485.0,0.0206
3484.0,0.0207
3483.0,0.0207
3482.0,0.0208
3481.0,0.0208
3480.0,0.0209
3479.0,0.021
3478.0,0.0212
3477.0,0.0214
3476.0,0.0215
3475.0,0.0216
3474.0,0.0217
3473.0,0.0218
3472.0,0.022
3471.0,0.0221
3470.0,0.0222
3469.0,0.0222
3468.0,0.0222
3467.0,0.0223
3466.0,0.0223
3465.0,0.0224
3464.0,0.0226
3463.0,0.0228
3462.0,0.023
3461.0,0.0232
3460.0,0.0233
3459.0,0.0233
3458.0,0.0234
3457.0,0.0234
3456.0,0.0235
3455.0,0.0235
3454.0,0.0236
3453.0,0.0236
3452.0,0.0235
3451.0,0.0236
3450.0,0.0237
3449.0,0.0239
3448.0,0.0241
3447.0,0.0243
3446.0,0.0245
3445.0,0.0246
3444.0,0.0247
3443.0,0.0247
3442.0,0.0246
3441.0,0.0246
3440.0,0.0246
3439.0,0.0247
3438.0,0.0248
3437.0,0.025
3436.0,0.0251
3435.0,0.0252
3434.0,0.0253
3433.0,0.0253
3432.0,0.0253
3431.0,0.0253
3430.0,0.0254
3429.0,0.0256
3428.0,0.0259
3427.0,0.0261
3426.0,0.0261
3425.0,0.0261
3424.0,0.0262
3423.0,0.0263
3422.0,0.0264
3421.0,0.0264
3420.0,0.0264
3419.0,0.0263
3418.0,0.0262
3417.0,0.0262
3416.0,0.0263
3415.0,0.0263
3414.0,0.0264
3413.0,0.0265
3412.0,0.0265
3411.0,0.0266
3410.0,0.0267
3409.0,0.0267
3408.0,0.0267
3407.0,0.0267
3406.0,0.0267
3405.0,0.0268
3404.0,0.0269
3403.0,0.027
3402.0,0.0271
3401.0,0.0272
3400.0,0.0274
3399.0,0.0275
3398.0,0.0275
3397.0,0.0275
3396.0,0.0275
3395.0,0.0275
3394.0,0.0275
3393.0,0.0277
3392.0,0.0278
3391.0,0.0279
3390.0,0.0279
3389.0,0.0278
3388.0,0.0277
3387.0,0.0277
3386.0,0.0277
3385.0,0.0278
3384.0,0.0279
3383.0,0.0281
3382.0,0.0282
3381.0,0.0283
3380.0,0.0283
3379.0,0.0282
3378.0,0.0281
3377.0,0.028
3376.0,0.0279
3375.0,0.0279
3374.0,0.028
3373.0,0.0281
3372.0,0.0282
3371.0,0.0283
3370.0,0.0284
3369.0,0.0284
3368.0,0.0283
3367.0,0.0283
3366.0,0.0283
3365.0,0.0284
3364.0,0.0284
3363.0,0.0284
3362.0,0.0284
3361.0,0.0285
3360.0,0.0285
3359.0,0.0285
3358.0,0.0284
3357.0,0.0284
3356.0,0.0283
3355.0,0.0283
3354.0,0.0284
3353.0,0.0284
3352.0,0.0283
3351.0,0.0282
3350.0,0.0281
3349.0,0.0281
3348.0,0.0281
3347.0,0.028
3346.0,0.028
3345.0,0.0279
3344.0,0.0279
3343.0,0.0278
3342.0,0.0277
3341.0,0.0277
3340.0,0.0277
3339.0,0.0277
3338.0,0.0278
3337.0,0.0278
3336.0,0.0278
3335.0,0.0278
3334.0,0.0278
3333.0,0.0277
3332.0,0.0276
3331.0,0.0275
3330.0,0.0275
3329.0,0.0275
3328.0,0.0274
3327.0,0.0274
3326.0,0.0274
3325.0,0.0273
3324.0,0.0273
3323.0,0.0272
3322.0,0.0271
3321.0,0.027
3320.0,0.027
3319.0,0.0269
3318.0,0.0269
3317.0,0.0269
3316.0,0.0268
3315.0,0.0267
3314.0,0.0267
3313.0,0.0267
3312.0,0.0267
3311.0,0.0268
3310.0,0.0268
3309.0,0.0268
3308.0,0.0268
3307.0,0.0267
3306.0,0.0266
3305.0,0.0265
3304.0,0.0265
3303.0,0.0265
3302.0,0.0265
3301.0,0.0265
3300.0,0.0264
3299.0,0.0263
3298.0,0.0262
3297.0,0.0261
3296.0,0.0261
3295.0,0.0261
3294.0,0.026
3293.0,0.026
3292.0,0.0259
3291.0,0.0258
3290.0,0.0256
3289.0,0.0255
3288.0,0.0254
3287.0,0.0254
3286.0,0.0253
3285.0,0.0253
3284.0,0.0252
3283.0,0.0252
3282.0,0.0253
3281.0,0.0253
3280.0,0.0253
3279.0,0.0253
3278.0,0.0252
3277.0,0.0251
3276.0,0.025
3275.0,0.025
3274.0,0.0251
3273.0,0.0251
3272.0,0.0251
3271.0,0.0251
3270.0,0.025
3269.0,0.025
3268.0,0.0249
3267.0,0.0248
3266.0,0.0247
3265.0,0.0246
3264.0,0.0246
3263.0,0.0246
3262.0,0.0246
3261.0,0.0247
3260.0,0.0248
3259.0,0.0248
3258.0,0.0248
3257.0,0.0247
3256.0,0.0247
3255.0,0.0246
3254.0,0.0246
3253.0,0.0245
3252.0,0.0245
3251.0,0.0245
3250.0,0.0244
3249.0,0.0242
3248.0,0.0241
3247.0,0.024
3246.0,0.0241
3245.0,0.0242
3244.0,0.0242
3243.0,0.0242
3242.0,0.0241
3241.0,0.024
3240.0,0.0238
3239.0,0.0237
3238.0,0.0237
3237.0,0.0236
3236.0,0.0236
3235.0,0.0237
3234.0,0.0237
3233.0,0.0237
3232.0,0.0236
3231.0,0.0235
3230.0,0.0234
3229.0,0.0233
3228.0,0.0233
3227.0,0.0233
3226.0,0.0233
3225.0,0.0233
3224.0,0.0232
3223.0,0.0232
3222.0,0.0231
3221.0,0.023
3220.0,0.0229
3219.0,0.0227
3218.0,0.0225
3217.0,0.0225
3216.0,0.0225
3215.0,0.0225
3214.0,0.0225
3213.0,0.0224
3212.0,0.0223
3211.0,0.0223
3210.0,0.0222
3209.0,0.0222
3208.0,0.0221
3207.0,0.0219
3206.0,0.0218
3205.0,0.0217
3204.0,0.0217
3203.0,0.0216
3202.0,0.0216
3201.0,0.0215
3200.0,0.0214
3199.0,0.0212
3198.0,0.0211
3197.0,0.0211
3196.0,0.0211
3195.0,0.0211
3194.0,0.021
3193.0,0.0209
3192.0,0.0207
3191.0,0.0206
3190.0,0.0206
3189.0,0.0205
3188.0,0.0205
3187.0,0.0204
3186.0,0.0203
3185.0,0.0202
3184.0,0.0202
3183.0,0.0201
3182.0,0.0201
3181.0,0.02
3180.0,0.0199
3179.0,0.0198
3178.0,0.0196
3177.0,0.0194
3176.0,0.0193
3175.0,0.0193
3174.0,0.0194
3173.0,0.0194
3172.0,0.0194
3171.0,0.0192
3170.0,0.0191
3169.0,0.019
3168.0,0.0189
3167.0,0.0188
3166.0,0.0189
3165.0,0.0189
3164.0,0.0189
3163.0,0.0189
3162.0,0.0189
3161.0,0.0187
3160.0,0.0185
3159.0,0.0183
3158.0,0.0181
3157.0,0.0181
3156.0,0.018
3155.0,0.018
3154.0,0.0179
3153.0,0.0178
3152.0,0.0177
3151.0,0.0177
3150.0,0.0177
3149.0,0.0177
3148.0,0.0176
3147.0,0.0176
3146.0,0.0176
3145.0,0.0175
3144.0,0.0174
3143.0,0.0174
3142.0,0.0173
3141.0,0.0173
3140.0,0.0172
3139.0,0.0171
3138.0,0.017
3137.0,0.0169
3136.0,0.0169
3135.0,0.0168
3134.0,0.0167
3133.0,0.0165
3132.0,0.0164
3131.0,0.0163
3130.0,0.0163
3129.0,0.0163
3128.0,0.0163
3127.0,0.0163
3126.0,0.0162
3125.0,0.0161
3124.0,0.016
3123.0,0.0159
3122.0,0.0158
3121.0,0.0158
3120.0,0.0157
3119.0,0.0157
3118.0,0.0156
3117.0,0.0156
3116.0,0.0156
3115.0,0.0156
3114.0,0.0157
3113.0,0.0157
3112.0,0.0158
3111.0,0.0158
3110.0,0.0158
3109.0,0.0158
3108.0,0.0159
3107.0,0.016
3106.0,0.0162
3105.0,0.0162
3104.0,0.0162
3103.0,0.016
3102.0,0.0159
3101.0,0.0158
3100.0,0.0157
3099.0,0.0157
3098.0,0.0157
3097.0,0.0157
3096.0,0.0156
3095.0,0.0156
3094.0,0.0156
3093.0,0.0156
3092.0,0.0157
3091.0,0.016
3090.0,0.0163
3089.0,0.0167
3088.0,0.0171
3087.0,0.0175
3086.0,0.0178
3085.0,0.0182
3084.0,0.0184
3083.0,0.0185
3082.0,0.0185
3081.0,0.0182
3080.0,0.0179
3079.0,0.0176
3078.0,0.0173
3077.0,0.017
3076.0,0.0168
3075.0,0.0167
3074.0,0.0166
3073.0,0.0165
3072.0,0.0165
3071.0,0.0166
3070.0,0.0168
3069.0,0.017
3068.0,0.0172
3067.0,0.0175
3066.0,0.0179
3065.0,0.0184
3064.0,0.0189
3063.0,0.0194
3062.0,0.0197
3061.0,0.0199
3060.0,0.0199
3059.0,0.0198
3058.0,0.0196
3057.0,0.0192
3056.0,0.0189
3055.0,0.0185
3054.0,0.018
3053.0,0.0175
3052.0,0.017
3051.0,0.0166
3050.0,0.0163
3049.0,0.0162
3048.0,0.016
3047.0,0.0158
3046.0,0.0157
3045.0,0.0156
3044.0,0.0155
3043.0,0.0155
3042.0,0.0156
3041.0,0.0157
3040.0,0.0158
3039.0,0.016
3038.0,0.0163
3037.0,0.0167
3036.0,0.0173
3035.0,0.0179
3034.0,0.0188
3033.0,0.0198
3032.0,0.021
3031.0,0.0221
3030.0,0.0233
3029.0,0.0244
3028.0,0.0254
3027.0,0.0261
3026.0,0.0266
3025.0,0.0266
3024.0,0.0262
3023.0,0.0254
3022.0,0.0242
3021.0,0.023
3020.0,0.0217
3019.0,0.0206
3018.0,0.0195
3017.0,0.0186
3016.0,0.0178
3015.0,0.0171
3014.0,0.0166
3013.0,0.0163
3012.0,0.016
3011.0,0.0158
3010.0,0.0156
3009.0,0.0154
3008.0,0.0153
3007.0,0.0153
3006.0,0.0154
3005.0,0.0156
3004.0,0.0158
3003.0,0.0159
3002.0,0.0159
3001.0,0.0158
3000.0,0.0156
2999.0,0.0153
2998.0,0.0149
2997.0,0.0146
2996.0,0.0143
2995.0,0.014
2994.0,0.0139
2993.0,0.0137
2992.0,0.0136
2991.0,0.0134
2990.0,0.0133
2989.0,0.0131
2988.0,0.013
2987.0,0.0129
2986.0,0.0128
2985.0,0.0128
2984.0,0.0127
2983.0,0.0126
2982.0,0.0126
2981.0,0.0125
2980.0,0.0126
2979.0,0.0126
2978.0,0.0127
2977.0,0.0128
2976.0,0.0128
2975.0,0.0129
2974.0,0.013
2973.0,0.013
2972.0,0.0129
2971.0,0.0129
2970.0,0.013
2969.0,0.0131
2968.0,0.0133
2967.0,0.0134
2966.0,0.0135
2965.0,0.0135
2964.0,0.0136
2963.0,0.0138
2962.0,0.014
2961.0,0.0142
2960.0,0.0143
2959.0,0.0145
2958.0,0.0146
2957.0,0.0148
2956.0,0.0149
2955.0,0.015
2954.0,0.0151
2953.0,0.0153
2952.0,0.0155
2951.0,0.0157
2950.0,0.0159
2949.0,0.016
2948.0,0.0161
2947.0,0.0164
2946.0,0.0167
2945.0,0.0172
2944.0,0.0177
2943.0,0.0181
2942.0,0.0185
2941.0,0.019
2940.0,0.0195
2939.0,0.0201
2938.0,0.0208
2937.0,0.0216
2936.0,0.0223
2935.0,0.0231
2934.0,0.0239
2933.0,0.0247
2932.0,0.0256
2931.0,0.0264
2930.0,0.0272
2929.0,0.0279
2928.0,0.0286
2927.0,0.0292
2926.0,0.0297
2925.0,0.0302
2924.0,0.0305
2923.0,0.0308
2922.0,0.0311
2921.0,0.0312
2920.0,0.0312
2919.0,0.0312
2918.0,0.0311
2917.0,0.0309
2916.0,0.0306
2915.0,0.0302
2914.0,0.0298
2913.0,0.0295
2912.0,0.0291
2911.0,0.0287
2910.0,0.0282
2909.0,0.0277
2908.0,0.0271
2907.0,0.0266
2906.0,0.0261
2905.0,0.0257
2904.0,0.0252
2903.0,0.0248
2902.0,0.0243
2901.0,0.0238
2900.0,0.0234
2899.0,0.0229
2898.0,0.0225
2897.0,0.0221
2896.0,0.0217
2895.0,0.0213
2894.0,0.021
2893.0,0.0206
2892.0,0.0203
2891.0,0.02
2890.0,0.0198
2889.0,0.0195
2888.0,0.0193
2887.0,0.019
2886.0,0.0188
2885.0,0.0187
2884.0,0.0185
2883.0,0.0184
2882.0,0.0182
2881.0,0.018
2880.0,0.0178
2879.0,0.0177
2878.0,0.0175
2877.0,0.0174
2876.0,0.0172
2875.0,0.0171
2874.0,0.017
2873.0,0.017
2872.0,0.017
2871.0,0.017
2870.0,0.017
2869.0,0.0169
2868.0,0.017
2867.0,0.017
2866.0,0.0171
2865.0,0.0171
2864.0,0.0173
2863.0,0.0174
2862.0,0.0177
2861.0,0.0179
2860.0,0.0182
2859.0,0.0185
2858.0,0.0189
2857.0,0.0193
2856.0,0.0197
2855.0,0.0201
2854.0,0.0205
2853.0,0.0207
2852.0,0.0209
2851.0,0.021
2850.0,0.021
2849.0,0.021
2848.0,0.0209
2847.0,0.0207
2846.0,0.0205
2845.0,0.0202
2844.0,0.0198
2843.0,0.0194
2842.0,0.0189
2841.0,0.0183
2840.0,0.0177
2839.0,0.0171
2838.0,0.0166
2837.0,0.0162
2836.0,0.0158
2835.0,0.0155
2834.0,0.0153
2833.0,0.015
2832.0,0.0147
2831.0,0.0144
2830.0,0.0141
2829.0,0.014
2828.0,0.0138
2827.0,0.0137
2826.0,0.0137
2825.0,0.0136
2824.0,0.0136
2823.0,0.0135
2822.0,0.0135
2821.0,0.0135
2820.0,0.0134
2819.0,0.0133
2818.0,0.0132
2817.0,0.013
2816.0,0.013
2815.0,0.013
2814.0,0.013
2813.0,0.013
2812.0,0.013
2811.0,0.013
2810.0,0.0129
2809.0,0.0129
2808.0,0.0129
2807.0,0.0128
2806.0,0.0128
2805.0,0.0127
2804.0,0.0127
2803.0,0.0127
2802.0,0.0125
2801.0,0.0124
2800.0,0.0123
2799.0,0.0123
2798.0,0.0123
2797.0,0.0123
2796.0,0.0124
2795.0,0.0124
2794.0,0.0124
2793.0,0.0123
2792.0,0.0123
2791.0,0.0123
2790.0,0.0123
2789.0,0.0123
2788.0,0.0123
2787.0,0.0123
2786.0,0.0122
2785.0,0.0122
2784.0,0.0122
2783.0,0.0121
2782.0,0.0121
2781.0,0.012
2780.0,0.012
2779.0,0.012
2778.0,0.012
2777.0,0.0121
2776.0,0.012
2775.0,0.012
2774.0,0.0119
2773.0,0.0119
2772.0,0.0119
2771.0,0.012
2770.0,0.0121
2769.0,0.0121
2768.0,0.012
2767.0,0.012
2766.0,0.012
2765.0,0.012
2764.0,0.012
2763.0,0.012
2762.0,0.012
2761.0,0.012
2760.0,0.012
2759.0,0.0119
2758.0,0.0118
2757.0,0.0117
2756.0,0.0117
2755.0,0.0116
2754.0,0.0117
2753.0,0.0117
2752.0,0.0118
2751.0,0.0118
2750.0,0.0118
2749.0,0.0118
2748.0,0.0118
2747.0,0.0118
2746.0,0.0118
2745.0,0.0117
2744.0,0.0116
2743.0,0.0116
2742.0,0.0116
2741.0,0.0117
2740.0,0.0118
2739.0,0.0118
2738.0,0.0119
2737.0,0.0119
2736.0,0.0119
2735.0,0.0118
2734.0,0.0118
2733.0,0.0117
2732.0,0.0116
2731.0,0.0115
2730.0,0.0115
2729.0,0.0115
2728.0,0.0116
2727.0,0.0117
2726.0,0.0117
2725.0,0.0116
2724.0,0.0116
2723.0,0.0116
2722.0,0.0116
2721.0,0.0116
2720.0,0.0116
2719.0,0.0116
2718.0,0.0115
2717.0,0.0115
2716.0,0.0114
2715.0,0.0114
2714.0,0.0115
2713.0,0.0115
2712.0,0.0116
2711.0,0.0116
2710.0,0.0116
2709.0,0.0116
2708.0,0.0116
2707.0,0.0116
2706.0,0.0115
2705.0,0.0115
2704.0,0.0115
2703.0,0.0115
2702.0,0.0115
2701.0,0.0115
2700.0,0.0115
2699.0,0.0115
2698.0,0.0115
2697.0,0.0114
2696.0,0.0114
2695.0,0.0115
2694.0,0.0115
2693.0,0.0116
2692.0,0.0116
2691.0,0.0116
2690.0,0.0116
2689.0,0.0116
2688.0,0.0116
2687.0,0.0115
2686.0,0.0114
2685.0,0.0114
2684.0,0.0114
2683.0,0.0114
2682.0,0.0115
2681.0,0.0115
2680.0,0.0116
2679.0,0.0116
2678.0,0.0117
2677.0,0.0117
2676.0,0.0116
2675.0,0.0116
2674.0,0.0115
2673.0,0.0114
2672.0,0.0114
2671.0,0.0113
2670.0,0.0113
2669.0,0.0113
2668.0,0.0114
2667.0,0.0115
2666.0,0.0116
2665.0,0.0116
2664.0,0.0115
2663.0,0.0114
2662.0,0.0114
2661.0,0.0113
2660.0,0.0113
2659.0,0.0113
2658.0,0.0113
2657.0,0.0112
2656.0,0.0112
2655.0,0.0111
2654.0,0.0111
2653.0,0.0111
2652.0,0.0111
2651.0,0.0112
2650.0,0.0113
2649.0,0.0114
2648.0,0.0114
2647.0,0.0114
2646.0,0.0114
2645.0,0.0113
2644.0,0.0114
2643.0,0.0114
2642.0,0.0115
2641.0,0.0115
2640.0,0.0114
2639.0,0.0114
2638.0,0.0114
2637.0,0.0114
2636.0,0.0114
2635.0,0.0113
2634.0,0.0113
2633.0,0.0113
2632.0,0.0114
2631.0,0.0115
2630.0,0.0116
2629.0,0.0115
2628.0,0.0114
2627.0,0.0114
2626.0,0.0113
2625.0,0.0114
2624.0,0.0113
2623.0,0.0113
2622.0,0.0112
2621.0,0.0112
2620.0,0.0112
2619.0,0.0112
2618.0,0.0112
2617.0,0.0113
2616.0,0.0114
2615.0,0.0115
2614.0,0.0115
2613.0,0.0115
2612.0,0.0115
2611.0,0.0114
2610.0,0.0113
2609.0,0.0113
2608.0,0.0112
2607.0,0.0112
2606.0,0.0112
2605.0,0.0112
2604.0,0.0113
2603.0,0.0113
2602.0,0.0113
2601.0,0.0113
2600.0,0.0113
2599.0,0.0113
2598.0,0.0112
2597.0,0.0113
2596.0,0.0113
2595.0,0.0114
2594.0,0.0115
2593.0,0.0115
2592.0,0.0115
2591.0,0.0114
2590.0,0.0113
2589.0,0.0112
2588.0,0.0112
2587.0,0.0112
2586.0,0.0112
2585.0,0.0112
2584.0,0.0112
2583.0,0.0112
2582.0,0.0112
2581.0,0.0112
2580.0,0.0112
2579.0,0.0113
2578.0,0.0113
2577.0,0.0114
2576.0,0.0114
2575.0,0.0113
2574.0,0.0113
2573.0,0.0112
2572.0,0.0112
2571.0,0.0112
2570.0,0.0112
2569.0,0.0112
2568.0,0.0112
2567.0,0.0112
2566.0,0.0113
2565.0,0.0113
2564.0,0.0113
2563.0,0.0113
2562.0,0.0113
2561.0,0.0112
2560.0,0.0112
2559.0,0.0112
2558.0,0.0112
2557.0,0.0112
2556.0,0.0112
2555.0,0.0112
2554.0,0.0112
2553.0,0.0112
2552.0,0.0112
2551.0,0.0112
2550.0,0.0112
2549.0,0.0113
2548.0,0.0113
2547.0,0.0113
2546.0,0.0113
2545.0,0.0113
2544.0,0.0114
2543.0,0.0114
2542.0,0.0114
2541.0,0.0113
2540.0,0.0112
2539.0,0.0112
2538.0,0.0113
2537.0,0.0113
2536.0,0.0113
2535.0,0.0114
2534.0,0.0114
2533.0,0.0114
2532.0,0.0113
2531.0,0.0113
2530.0,0.0113
2529.0,0.0113
2528.0,0.0113
2527.0,0.0113
2526.0,0.0113
2525.0,0.0114
2524.0,0.0114
2523.0,0.0114
2522.0,0.0113
2521.0,0.0112
2520.0,0.0111
2519.0,0.0112
2518.0,0.0113
2517.0,0.0114
2516.0,0.0114
2515.0,0.0114
2514.0,0.0113
2513.0,0.0113
2512.0,0.0113
2511.0,0.0113
2510.0,0.0113
2509.0,0.0113
2508.0,0.0114
2507.0,0.0114
2506.0,0.0114
2505.0,0.0114
2504.0,0.0115
2503.0,0.0115
2502.0,0.0115
2501.0,0.0115
2500.0,0.0115
2499.0,0.0115
2498.0,0.0115
2497.0,0.0115
2496.0,0.0115
2495.0,0.0115
2494.0,0.0115
2493.0,0.0114
2492.0,0.0114
2491.0,0.0114
2490.0,0.0114
2489.0,0.0114
2488.0,0.0114
2487.0,0.0114
2486.0,0.0114
2485.0,0.0114
2484.0,0.0114
2483.0,0.0114
2482.0,0.0113
2481.0,0.0113
2480.0,0.0113
2479.0,0.0113
2478.0,0.0113
2477.0,0.0114
2476.0,0.0114
2475.0,0.0114
2474.0,0.0113
2473.0,0.0113
2472.0,0.0113
2471.0,0.0113
2470.0,0.0114
2469.0,0.0114
2468.0,0.0113
2467.0,0.0113
2466.0,0.0112
2465.0,0.0112
2464.0,0.0113
2463.0,0.0114
2462.0,0.0114
2461.0,0.0113
2460.0,0.0112
2459.0,0.0112
2458.0,0.0112
2457.0,0.0112
2456.0,0.0113
2455.0,0.0113
2454.0,0.0113
2453.0,0.0113
2452.0,0.0114
2451.0,0.0114
2450.0,0.0113
2449.0,0.0113
2448.0,0.0113
2447.0,0.0113
2446.0,0.0114
2445.0,0.0115
2444.0,0.0115
2443.0,0.0115
2442.0,0.0114
2441.0,0.0113
2440.0,0.0113
2439.0,0.0113
2438.0,0.0114
2437.0,0.0114
2436.0,0.0113
2435.0,0.0113
2434.0,0.0113
2433.0,0.0112
2432.0,0.0112
2431.0,0.0112
2430.0,0.0113
2429.0,0.0113
2428.0,0.0113
2427.0,0.0113
2426.0,0.0113
2425.0,0.0113
2424.0,0.0113
2423.0,0.0113
2422.0,0.0113
2421.0,0.0114
2420.0,0.0114
2419.0,0.0114
2418.0,0.0114
2417.0,0.0114
2416.0,0.0115
2415.0,0.0115
2414.0,0.0115
2413.0,0.0115
2412.0,0.0114
2411.0,0.0114
2410.0,0.0114
2409.0,0.0114
2408.0,0.0115
2407.0,0.0115
2406.0,0.0115
2405.0,0.0115
2404.0,0.0115
2403.0,0.0114
2402.0,0.0113
2401.0,0.0113
2400.0,0.0114
2399.0,0.0115
2398.0,0.0116
2397.0,0.0116
2396.0,0.0116
2395.0,0.0116
2394.0,0.0116
2393.0,0.0116
2392.0,0.0116
2391.0,0.0116
2390.0,0.0115
2389.0,0.0113
2388.0,0.0111
2387.0,0.0109
2386.0,0.0106
2385.0,0.0104
2384.0,0.0103
2383.0,0.0103
2382.0,0.0103
2381.0,0.0104
2380.0,0.0105
2379.0,0.0106
2378.0,0.0107
2377.0,0.0107
2376.0,0.0106
2375.0,0.0105
2374.0,0.0104
2373.0,0.0102
2372.0,0.0099
2371.0,0.0097
2370.0,0.0095
2369.0,0.0096
2368.0,0.0096
2367.0,0.0094
2366.0,0.0092
2365.0,0.0092
2364.0,0.0093
2363.0,0.0095
2362.0,0.0099
2361.0,0.0104
2360.0,0.0103
2359.0,0.0095
2358.0,0.0086
2357.0,0.0085
2356.0,0.0089
2355.0,0.0094
2354.0,0.0099
2353.0,0.0103
2352.0,0.0101
2351.0,0.0094
2350.0,0.0089
2349.0,0.0091
2348.0,0.0099
2347.0,0.0105
2346.0,0.0102
2345.0,0.0092
2344.0,0.0078
2343.0,0.0068
2342.0,0.0067
2341.0,0.0077
2340.0,0.0091
2339.0,0.01
2338.0,0.0102
2337.0,0.0099
2336.0,0.0095
2335.0,0.0091
2334.0,0.009
2333.0,0.0092
2332.0,0.0094
2331.0,0.0091
2330.0,0.0087
2329.0,0.0082
2328.0,0.008
2327.0,0.0082
2326.0,0.0087
2325.0,0.0093
2324.0,0.0098
2323.0,0.0098
2322.0,0.0097
2321.0,0.0095
2320.0,0.0093
2319.0,0.0091
2318.0,0.0091
2317.0,0.0091
2316.0,0.0092
2315.0,0.0093
2314.0,0.0094
2313.0,0.0095
2312.0,0.0093
2311.0,0.0091
2310.0,0.009
2309.0,0.0091
2308.0,0.0092
2307.0,0.0094
2306.0,0.0095
2305.0,0.0096
2304.0,0.0097
2303.0,0.0097
2302.0,0.0098
2301.0,0.0099
2300.0,0.01
2299.0,0.0101
2298.0,0.0101
2297.0,0.0101
2296.0,0.0101
2295.0,0.0101
2294.0,0.0102
2293.0,0.0104
2292.0,0.0105
2291.0,0.0107
2290.0,0.0109
2289.0,0.0111
2288.0,0.0112
2287.0,0.0113
2286.0,0.0113
2285.0,0.0114
2284.0,0.0115
2283.0,0.0115
2282.0,0.0115
2281.0,0.0115
2280.0,0.0115
2279.0,0.0115
2278.0,0.0115
2277.0,0.0115
2276.0,0.0115
2275.0,0.0115
2274.0,0.0115
2273.0,0.0116
2272.0,0.0116
2271.0,0.0116
2270.0,0.0116
2269.0,0.0116
2268.0,0.0116
2267.0,0.0117
2266.0,0.0116
2265.0,0.0116
2264.0,0.0116
2263.0,0.0117
2262.0,0.0117
2261.0,0.0118
2260.0,0.0118
2259.0,0.0118
2258.0,0.0119
2257.0,0.0119
2256.0,0.0119
2255.0,0.0119
2254.0,0.0119
2253.0,0.0119
2252.0,0.0119
2251.0,0.0119
2250.0,0.0119
2249.0,0.0119
2248.0,0.0119
2247.0,0.012
2246.0,0.012
2245.0,0.012
2244.0,0.0121
2243.0,0.0121
2242.0,0.0121
2241.0,0.012
2240.0,0.012
2239.0,0.012
2238.0,0.0121
2237.0,0.0121
2236.0,0.012
2235.0,0.012
2234.0,0.012
2233.0,0.0121
2232.0,0.0122
2231.0,0.0122
2230.0,0.0123
2229.0,0.0123
2228.0,0.0123
2227.0,0.0122
2226.0,0.0122
2225.0,0.0122
2224.0,0.0122
2223.0,0.0121
2222.0,0.0121
2221.0,0.0121
2220.0,0.0121
2219.0,0.0122
2218.0,0.0122
2217.0,0.0122
2216.0,0.0122
2215.0,0.0123
2214.0,0.0123
2213.0,0.0123
2212.0,0.0123
2211.0,0.0122
2210.0,0.0122
2209.0,0.0122
2208.0,0.0122
2207.0,0.0122
2206.0,0.0121
2205.0,0.0121
2204.0,0.0121
2203.0,0.0121
2202.0,0.0122
2201.0,0.0122
2200.0,0.0122
2199.0,0.0123
2198.0,0.0122
2197.0,0.0122
2196.0,0.0122
2195.0,0.0122
2194.0,0.0122
2193.0,0.0122
2192.0,0.0122
2191.0,0.0123
2190.0,0.0123
2189.0,0.0123
2188.0,0.0123
2187.0,0.0123
2186.0,0.0123
2185.0,0.0123
2184.0,0.0123
2183.0,0.0123
2182.0,0.0124
2181.0,0.0124
2180.0,0.0124
2179.0,0.0124
2178.0,0.0124
2177.0,0.0123
2176.0,0.0123
2175.0,0.0123
2174.0,0.0122
2173.0,0.0122
2172.0,0.0123
2171.0,0.0124
2170.0,0.0124
2169.0,0.0124
2168.0,0.0123
2167.0,0.0123
2166.0,0.0122
2165.0,0.0122
2164.0,0.0123
2163.0,0.0123
2162.0,0.0123
2161.0,0.0123
2160.0,0.0123
2159.0,0.0122
2158.0,0.0122
2157.0,0.0122
2156.0,0.0123
2155.0,0.0123
2154.0,0.0124
2153.0,0.0125
2152.0,0.0124
2151.0,0.0124
2150.0,0.0123
2149.0,0.0122
2148.0,0.0122
2147.0,0.0123
2146.0,0.0123
2145.0,0.0124
2144.0,0.0124
2143.0,0.0124
2142.0,0.0124
2141.0,0.0124
2140.0,0.0123
2139.0,0.0123
2138.0,0.0123
2137.0,0.0124
2136.0,0.0124
2135.0,0.0124
2134.0,0.0124
2133.0,0.0124
2132.0,0.0124
2131.0,0.0123
2130.0,0.0123
2129.0,0.0123
2128.0,0.0124
2127.0,0.0124
2126.0,0.0125
2125.0,0.0125
2124.0,0.0125
2123.0,0.0125
2122.0,0.0124
2121.0,0.0124
2120.0,0.0123
2119.0,0.0124
2118.0,0.0124
2117.0,0.0124
2116.0,0.0125
2115.0,0.0125
2114.0,0.0124
2113.0,0.0124
2112.0,0.0123
2111.0,0.0123
2110.0,0.0124
2109.0,0.0124
2108.0,0.0124
2107.0,0.0124
2106.0,0.0124
2105.0,0.0123
2104.0,0.0124
2103.0,0.0124
2102.0,0.0124
2101.0,0.0125
2100.0,0.0125
2099.0,0.0125
2098.0,0.0125
2097.0,0.0125
2096.0,0.0125
2095.0,0.0125
2094.0,0.0124
2093.0,0.0124
2092.0,0.0124
2091.0,0.0125
2090.0,0.0125
2089.0,0.0125
2088.0,0.0124
2087.0,0.0124
2086.0,0.0124
2085.0,0.0124
2084.0,0.0124
2083.0,0.0124
2082.0,0.0124
2081.0,0.0124
2080.0,0.0125
2079.0,0.0125
2078.0,0.0125
2077.0,0.0125
2076.0,0.0125
2075.0,0.0125
2074.0,0.0125
2073.0,0.0125
2072.0,0.0125
2071.0,0.0125
2070.0,0.0125
2069.0,0.0125
2068.0,0.0125
2067.0,0.0125
2066.0,0.0125
2065.0,0.0125
2064.0,0.0125
2063.0,0.0125
2062.0,0.0125
2061.0,0.0125
2060.0,0.0125
2059.0,0.0126
2058.0,0.0126
2057.0,0.0126
2056.0,0.0127
2055.0,0.0127
2054.0,0.0126
2053.0,0.0126
2052.0,0.0125
2051.0,0.0125
2050.0,0.0125
2049.0,0.0126
2048.0,0.0126
2047.0,0.0126
2046.0,0.0126
2045.0,0.0126
2044.0,0.0126
2043.0,0.0126
2042.0,0.0125
2041.0,0.0125
2040.0,0.0125
2039.0,0.0125
2038.0,0.0125
2037.0,0.0125
2036.0,0.0126
2035.0,0.0126
2034.0,0.0126
2033.0,0.0126
2032.0,0.0126
2031.0,0.0126
2030.0,0.0126
2029.0,0.0125
2028.0,0.0125
2027.0,0.0125
2026.0,0.0125
2025.0,0.0126
2024.0,0.0126
2023.0,0.0126
2022.0,0.0126
2021.0,0.0126
2020.0,0.0125
2019.0,0.0125
2018.0,0.0125
2017.0,0.0125
2016.0,0.0125
2015.0,0.0125
2014.0,0.0125
2013.0,0.0126
2012.0,0.0127
2011.0,0.0127
2010.0,0.0127
2009.0,0.0127
2008.0,0.0126
2007.0,0.0126
2006.0,0.0126
2005.0,0.0126
2004.0,0.0127
2003.0,0.0127
2002.0,0.0127
2001.0,0.0126
2000.0,0.0126
1999.0,0.0126
1998.0,0.0126
1997.0,0.0126
1996.0,0.0126
1995.0,0.0126
1994.0,0.0127
1993.0,0.0127
1992.0,0.0127
1991.0,0.0127
1990.0,0.0127
1989.0,0.0126
1988.0,0.0126
1987.0,0.0126
1986.0,0.0126
1985.0,0.0126
1984.0,0.0126
1983.0,0.0126
1982.0,0.0126
1981.0,0.0126
1980.0,0.0126
1979.0,0.0126
1978.0,0.0126
1977.0,0.0126
1976.0,0.0126
1975.0,0.0127
1974.0,0.0127
1973.0,0.0127
1972.0,0.0127
1971.0,0.0127
1970.0,0.0128
1969.0,0.0128
1968.0,0.0129
1967.0,0.0129
1966.0,0.013
1965.0,0.0131
1964.0,0.0131
1963.0,0.0132
1962.0,0.0133
1961.0,0.0134
1960.0,0.0134
1959.0,0.0135
1958.0,0.0135
1957.0,0.0135
1956.0,0.0135
1955.0,0.0136
1954.0,0.0137
1953.0,0.0137
1952.0,0.0138
1951.0,0.0138
1950.0,0.0139
1949.0,0.014
1948.0,0.0141
1947.0,0.0142
1946.0,0.0143
1945.0,0.0144
1944.0,0.0144
1943.0,0.0145
1942.0,0.0145
1941.0,0.0145
1940.0,0.0145
1939.0,0.0144
1938.0,0.0144
1937.0,0.0143
1936.0,0.0143
1935.0,0.0142
1934.0,0.0141
1933.0,0.0141
1932.0,0.014
1931.0,0.0138
1930.0,0.0137
1929.0,0.0137
1928.0,0.0136
1927.0,0.0136
1926.0,0.0136
1925.0,0.0135
1924.0,0.0135
1923.0,0.0134
1922.0,0.0133
1921.0,0.0132
1920.0,0.0131
1919.0,0.0131
1918.0,0.013
1917.0,0.013
1916.0,0.013
1915.0,0.013
1914.0,0.013
1913.0,0.013
1912.0,0.013
1911.0,0.013
1910.0,0.013
1909.0,0.013
1908.0,0.013
1907.0,0.013
1906.0,0.013
1905.0,0.013
1904.0,0.013
1903.0,0.013
1902.0,0.0131
1901.0,0.0131
1900.0,0.0131
1899.0,0.0131
1898.0,0.0131
1897.0,0.0132
1896.0,0.0132
1895.0,0.0132
1894.0,0.0132
1893.0,0.0132
1892.0,0.0133
1891.0,0.0134
1890.0,0.0135
1889.0,0.0136
1888.0,0.0136
1887.0,0.0137
1886.0,0.0138
1885.0,0.0139
1884.0,0.0139
1883.0,0.014
1882.0,0.0141
1881.0,0.0142
1880.0,0.0143
1879.0,0.0143
1878.0,0.0143
1877.0,0.0143
1876.0,0.0143
1875.0,0.0143
1874.0,0.0143
1873.0,0.0144
1872.0,0.0144
1871.0,0.0144
1870.0,0.0144
1869.0,0.0144
1868.0,0.0145
1867.0,0.0145
1866.0,0.0146
1865.0,0.0146
1864.0,0.0145
1863.0,0.0144
1862.0,0.0143
1861.0,0.0142
1860.0,0.0142
1859.0,0.0141
1858.0,0.014
1857.0,0.0139
1856.0,0.0138
1855.0,0.0137
1854.0,0.0136
1853.0,0.0136
1852.0,0.0136
1851.0,0.0136
1850.0,0.0135
1849.0,0.0135
1848.0,0.0135
1847.0,0.0135
1846.0,0.0134
1845.0,0.0134
1844.0,0.0133
1843.0,0.0133
1842.0,0.0132
1841.0,0.0132
1840.0,0.0132
1839.0,0.0132
1838.0,0.0132
1837.0,0.0132
1836.0,0.0133
1835.0,0.0133
1834.0,0.0133
1833.0,0.0133
1832.0,0.0134
1831.0,0.0134
1830.0,0.0134
1829.0,0.0134
1828.0,0.0135
1827.0,0.0135
1826.0,0.0136
1825.0,0.0136
1824.0,0.0136
1823.0,0.0136
1822.0,0.0136
1821.0,0.0136
1820.0,0.0136
1819.0,0.0137
1818.0,0.0137
1817.0,0.0138
1816.0,0.0138
1815.0,0.0139
1814.0,0.014
1813.0,0.0141
1812.0,0.0142
1811.0,0.0142
1810.0,0.0143
1809.0,0.0143
1808.0,0.0144
1807.0,0.0145
1806.0,0.0145
1805.0,0.0146
1804.0,0.0147
1803.0,0.0147
1802.0,0.0148
1801.0,0.0148
1800.0,0.0149
1799.0,0.0149
1798.0,0.0149
1797.0,0.0148
1796.0,0.0148
1795.0,0.0148
1794.0,0.0147
1793.0,0.0146
1792.0,0.0145
1791.0,0.0144
1790.0,0.0142
1789.0,0.0141
1788.0,0.0141
1787.0,0.014
1786.0,0.014
1785.0,0.0139
1784.0,0.0139
1783.0,0.0139
1782.0,0.0139
1781.0,0.0139
1780.0,0.0139
1779.0,0.0139
1778.0,0.0138
1777.0,0.0138
1776.0,0.0138
1775.0,0.0138
1774.0,0.0138
1773.0,0.0137
1772.0,0.0137
1771.0,0.0138
1770.0,0.0138
1769.0,0.0139
1768.0,0.0139
1767.0,0.0139
1766.0,0.0139
1765.0,0.0139
1764.0,0.014
1763.0,0.014
1762.0,0.0141
1761.0,0.0141
1760.0,0.0142
1759.0,0.0143
1758.0,0.0143
1757.0,0.0144
1756.0,0.0145
1755.0,0.0146
1754.0,0.0147
1753.0,0.0148
1752.0,0.0149
1751.0,0.0151
1750.0,0.0153
1749.0,0.0155
1748.0,0.0156
1747.0,0.0157
1746.0,0.0158
1745.0,0.0158
1744.0,0.0159
1743.0,0.016
1742.0,0.016
1741.0,0.016
1740.0,0.0159
1739.0,0.0159
1738.0,0.0159
1737.0,0.0159
1736.0,0.0159
1735.0,0.0159
1734.0,0.016
1733.0,0.016
1732.0,0.0159
1731.0,0.0159
1730.0,0.0158
1729.0,0.0158
1728.0,0.0158
1727.0,0.0158
1726.0,0.0157
1725.0,0.0157
1724.0,0.0156
1723.0,0.0156
1722.0,0.0157
1721.0,0.0157
1720.0,0.0157
1719.0,0.0156
1718.0,0.0155
1717.0,0.0155
1716.0,0.0156
1715.0,0.0157
1714.0,0.0157
1713.0,0.0158
1712.0,0.0158
1711.0,0.0158
1710.0,0.0158
1709.0,0.0159
1708.0,0.016
1707.0,0.016
1706.0,0.016
1705.0,0.0159
1704.0,0.016
1703.0,0.016
1702.0,0.0161
1701.0,0.0162
1700.0,0.0164
1699.0,0.0166
1698.0,0.0167
1697.0,0.0169
1696.0,0.0172
1695.0,0.0173
1694.0,0.0173
1693.0,0.0174
1692.0,0.0176
1691.0,0.0177
1690.0,0.0179
1689.0,0.0181
1688.0,0.0183
1687.0,0.0185
1686.0,0.0186
1685.0,0.0189
1684.0,0.0192
1683.0,0.0193
1682.0,0.0194
1681.0,0.0195
1680.0,0.0197
1679.0,0.0199
1678.0,0.02
1677.0,0.0202
1676.0,0.0203
1675.0,0.0205
1674.0,0.0207
1673.0,0.0209
1672.0,0.0211
1671.0,0.0213
1670.0,0.0215
1669.0,0.0218
1668.0,0.0219
1667.0,0.0221
1666.0,0.0222
1665.0,0.0223
1664.0,0.0224
1663.0,0.0227
1662.0,0.0229
1661.0,0.0231
1660.0,0.0232
1659.0,0.0233
1658.0,0.0233
1657.0,0.0233
1656.0,0.0233
1655.0,0.0233
1654.0,0.0233
1653.0,0.0237
1652.0,0.024
1651.0,0.0241
1650.0,0.0241
1649.0,0.024
1648.0,0.024
1647.0,0.0241
1646.0,0.0241
1645.0,0.0241
1644.0,0.0241
1643.0,0.0241
1642.0,0.0241
1641.0,0.024
1640.0,0.024
1639.0,0.0239
1638.0,0.0239
1637.0,0.0238
1636.0,0.0238
1635.0,0.0238
1634.0,0.0236
1633.0,0.0235
1632.0,0.0234
1631.0,0.0232
1630.0,0.0231
1629.0,0.0229
1628.0,0.0228
1627.0,0.0227
1626.0,0.0226
1625.0,0.0224
1624.0,0.0223
1623.0,0.0223
1622.0,0.0222
1621.0,0.0221
1620.0,0.0219
1619.0,0.0217
1618.0,0.0215
1617.0,0.0214
1616.0,0.0215
1615.0,0.0215
1614.0,0.0214
1613.0,0.0214
1612.0,0.0214
1611.0,0.0216
1610.0,0.022
1609.0,0.0227
1608.0,0.0237
1607.0,0.0249
1606.0,0.0262
1605.0,0.0277
1604.0,0.0291
1603.0,0.0305
1602.0,0.0314
1601.0,0.0316
1600.0,0.0312
1599.0,0.0304
1598.0,0.0292
1597.0,0.0279
1596.0,0.0267
1595.0,0.0256
1594.0,0.0248
1593.0,0.024
1592.0,0.0234
1591.0,0.0229
1590.0,0.0226
1589.0,0.0224
1588.0,0.0223
1587.0,0.0225
1586.0,0.0229
1585.0,0.0232
1584.0,0.0235
1583.0,0.0235
1582.0,0.0233
1581.0,0.0228
1580.0,0.0222
1579.0,0.0217
1578.0,0.0212
1577.0,0.0208
1576.0,0.0203
1575.0,0.02
1574.0,0.0197
1573.0,0.0195
1572.0,0.0193
1571.0,0.0191
1570.0,0.0189
1569.0,0.0187
1568.0,0.0187
1567.0,0.0186
1566.0,0.0185
1565.0,0.0185
1564.0,0.0184
1563.0,0.0183
1562.0,0.0183
1561.0,0.0183
1560.0,0.0183
1559.0,0.0183
1558.0,0.0182
1557.0,0.018
1556.0,0.0179
1555.0,0.0178
1554.0,0.0179
1553.0,0.0179
1552.0,0.018
1551.0,0.0181
1550.0,0.0181
1549.0,0.0181
1548.0,0.018
1547.0,0.018
1546.0,0.0179
1545.0,0.0179
1544.0,0.0179
1543.0,0.0179
1542.0,0.0179
1541.0,0.0179
1540.0,0.0181
1539.0,0.0181
1538.0,0.0179
1537.0,0.0178
1536.0,0.0178
1535.0,0.0179
1534.0,0.0179
1533.0,0.0178
1532.0,0.0176
1531.0,0.0174
1530.0,0.0173
1529.0,0.0171
1528.0,0.0171
1527.0,0.017
1526.0,0.0169
1525.0,0.0168
1524.0,0.0168
1523.0,0.0168
1522.0,0.0167
1521.0,0.0166
1520.0,0.0165
1519.0,0.0164
1518.0,0.0164
1517.0,0.0164
1516.0,0.0164
1515.0,0.0164
1514.0,0.0162
1513.0,0.0161
1512.0,0.0161
1511.0,0.0161
1510.0,0.0162
1509.0,0.0162
1508.0,0.0163
1507.0,0.0164
1506.0,0.0162
1505.0,0.016
1504.0,0.0159
1503.0,0.0159
1502.0,0.0161
1501.0,0.0165
1500.0,0.0173
1499.0,0.0189
1498.0,0.0221
1497.0,0.0278
1496.0,0.0348
1495.0,0.0411
1494.0,0.0455
1493.0,0.0479
1492.0,0.0478
1491.0,0.0447
1490.0,0.0394
1489.0,0.0344
1488.0,0.031
1487.0,0.0287
1486.0,0.0269
1485.0,0.0254
1484.0,0.0243
1483.0,0.0233
1482.0,0.0225
1481.0,0.0218
1480.0,0.0213
1479.0,0.0209
1478.0,0.0206
1477.0,0.0203
1476.0,0.0201
1475.0,0.0198
1474.0,0.0196
1473.0,0.0194
1472.0,0.0194
1471.0,0.0195
1470.0,0.0195
1469.0,0.0195
1468.0,0.0197
1467.0,0.0198
1466.0,0.0199
1465.0,0.0198
1464.0,0.0198
1463.0,0.0197
1462.0,0.0197
1461.0,0.0198
1460.0,0.0201
1459.0,0.021
1458.0,0.0238
1457.0,0.0296
1456.0,0.0359
1455.0,0.0408
1454.0,0.0448
1453.0,0.0479
1452.0,0.0494
1451.0,0.0492
1450.0,0.0478
1449.0,0.0457
1448.0,0.0434
1447.0,0.0414
1446.0,0.0397
1445.0,0.0383
1444.0,0.0368
1443.0,0.0353
1442.0,0.0339
1441.0,0.0328
1440.0,0.0318
1439.0,0.0309
1438.0,0.0298
1437.0,0.0286
1436.0,0.0274
1435.0,0.0266
1434.0,0.026
1433.0,0.0255
1432.0,0.025
1431.0,0.0244
1430.0,0.0239
1429.0,0.0235
1428.0,0.0231
1427.0,0.0228
1426.0,0.0226
1425.0,0.0224
1424.0,0.0221
1423.0,0.0219
1422.0,0.0218
1421.0,0.0216
1420.0,0.0214
1419.0,0.0213
1418.0,0.0212
1417.0,0.0212
1416.0,0.0211
1415.0,0.021
1414.0,0.0209
1413.0,0.0209
1412.0,0.0208
1411.0,0.0207
1410.0,0.0206
1409.0,0.0205
1408.0,0.0205
1407.0,0.0204
1406.0,0.0203
1405.0,0.0202
1404.0,0.0202
1403.0,0.0201
1402.0,0.0201
1401.0,0.0201
1400.0,0.0201
1399.0,0.0201
1398.0,0.0201
1397.0,0.0201
1396.0,0.0201
1395.0,0.0201
1394.0,0.0202
1393.0,0.0203
1392.0,0.0203
1391.0,0.0204
1390.0,0.0205
1389.0,0.0206
1388.0,0.0208
1387.0,0.0211
1386.0,0.0214
1385.0,0.0217
1384.0,0.022
1383.0,0.0223
1382.0,0.0226
1381.0,0.0228
1380.0,0.023
1379.0,0.0233
1378.0,0.0236
1377.0,0.0239
1376.0,0.0242
1375.0,0.0244
1374.0,0.0244
1373.0,0.0244
1372.0,0.0244
1371.0,0.0244
1370.0,0.0244
1369.0,0.0243
1368.0,0.0243
1367.0,0.0242
1366.0,0.0242
1365.0,0.0241
1364.0,0.024
1363.0,0.0239
1362.0,0.0238
1361.0,0.0237
1360.0,0.0236
1359.0,0.0234
1358.0,0.0233
1357.0,0.0232
1356.0,0.0231
1355.0,0.023
1354.0,0.023
1353.0,0.0229
1352.0,0.0229
1351.0,0.0228
1350.0,0.0228
1349.0,0.0229
1348.0,0.0229
1347.0,0.0229
1346.0,0.0229
1345.0,0.0229
1344.0,0.0228
1343.0,0.0228
1342.0,0.0226
1341.0,0.0225
1340.0,0.0223
1339.0,0.0222
1338.0,0.0221
1337.0,0.0221
1336.0,0.0221
1335.0,0.0222
1334.0,0.0223
1333.0,0.0224
1332.0,0.0225
1331.0,0.0226
1330.0,0.0227
1329.0,0.0228
1328.0,0.0229
1327.0,0.0229
1326.0,0.0228
1325.0,0.0228
1324.0,0.0227
1323.0,0.0226
1322.0,0.0226
1321.0,0.0225
1320.0,0.0224
1319.0,0.0224
1318.0,0.0224
1317.0,0.0225
1316.0,0.0226
1315.0,0.0227
1314.0,0.0227
1313.0,0.0228
1312.0,0.0228
1311.0,0.0227
1310.0,0.0226
1309.0,0.0225
1308.0,0.0224
1307.0,0.0224
1306.0,0.0223
1305.0,0.0223
1304.0,0.0222
1303.0,0.0222
1302.0,0.0222
1301.0,0.0221
1300.0,0.022
1299.0,0.022
1298.0,0.0219
1297.0,0.0219
1296.0,0.0218
1295.0,0.0218
1294.0,0.0218
1293.0,0.0218
1292.0,0.0217
1291.0,0.0217
1290.0,0.0216
1289.0,0.0216
1288.0,0.0216
1287.0,0.0216
1286.0,0.0216
1285.0,0.0216
1284.0,0.0216
1283.0,0.0216
1282.0,0.0216
1281.0,0.0216
1280.0,0.0216
1279.0,0.0215
1278.0,0.0215
1277.0,0.0215
1276.0,0.0214
1275.0,0.0213
1274.0,0.0213
1273.0,0.0212
1272.0,0.0212
1271.0,0.0212
1270.0,0.0212
1269.0,0.0211
1268.0,0.0211
1267.0,0.0211
1266.0,0.0211
1265.0,0.0211
1264.0,0.0211
1263.0,0.021
1262.0,0.021
1261.0,0.0211
1260.0,0.0211
1259.0,0.0211
1258.0,0.0211
1257.0,0.0211
1256.0,0.0211
1255.0,0.021
1254.0,0.021
1253.0,0.021
1252.0,0.021
1251.0,0.021
1250.0,0.0211
1249.0,0.0211
1248.0,0.0211
1247.0,0.0211
1246.0,0.0211
1245.0,0.0212
1244.0,0.0213
1243.0,0.0213
1242.0,0.0213
1241.0,0.0213
1240.0,0.0213
1239.0,0.0214
1238.0,0.0215
1237.0,0.0216
1236.0,0.0217
1235.0,0.0219
1234.0,0.0221
1233.0,0.0223
1232.0,0.0226
1231.0,0.0228
1230.0,0.0231
1229.0,0.0234
1228.0,0.0237
1227.0,0.024
1226.0,0.0243
1225.0,0.0245
1224.0,0.0248
1223.0,0.025
1222.0,0.0251
1221.0,0.0252
1220.0,0.0253
1219.0,0.0252
1218.0,0.0252
1217.0,0.0251
1216.0,0.025
1215.0,0.0249
1214.0,0.0248
1213.0,0.0247
1212.0,0.0246
1211.0,0.0245
1210.0,0.0244
1209.0,0.0244
1208.0,0.0244
1207.0,0.0244
1206.0,0.0244
1205.0,0.0243
1204.0,0.0243
1203.0,0.0244
1202.0,0.0245
1201.0,0.0246
1200.0,0.0246
1199.0,0.0247
1198.0,0.0248
1197.0,0.0248
1196.0,0.0249
1195.0,0.0249
1194.0,0.025
1193.0,0.0251
1192.0,0.0252
1191.0,0.0252
1190.0,0.0253
1189.0,0.0255
1188.0,0.0258
1187.0,0.0261
1186.0,0.0265
1185.0,0.0269
1184.0,0.0273
1183.0,0.0277
1182.0,0.028
1181.0,0.0283
1180.0,0.0284
1179.0,0.0283
1178.0,0.0281
1177.0,0.0278
1176.0,0.0276
1175.0,0.0274
1174.0,0.0272
1173.0,0.0271
1172.0,0.027
1171.0,0.0269
1170.0,0.027
1169.0,0.027
1168.0,0.027
1167.0,0.0271
1166.0,0.0272
1165.0,0.0273
1164.0,0.0274
1163.0,0.0275
1162.0,0.0276
1161.0,0.0278
1160.0,0.0281
1159.0,0.0286
1158.0,0.0292
1157.0,0.0298
1156.0,0.0304
1155.0,0.0309
1154.0,0.0311
1153.0,0.0311
1152.0,0.0309
1151.0,0.0306
1150.0,0.0302
1149.0,0.0299
1148.0,0.0297
1147.0,0.0296
1146.0,0.0295
1145.0,0.0295
1144.0,0.0296
1143.0,0.0297
1142.0,0.0297
1141.0,0.0298
1140.0,0.0298
1139.0,0.0298
1138.0,0.0297
1137.0,0.0297
1136.0,0.0296
1135.0,0.0296
1134.0,0.0295
1133.0,0.0295
1132.0,0.0294
1131.0,0.0293
1130.0,0.0293
1129.0,0.0292
1128.0,0.0291
1127.0,0.029
1126.0,0.029
1125.0,0.029
1124.0,0.029
1123.0,0.0291
1122.0,0.0291
1121.0,0.0292
1120.0,0.0293
1119.0,0.0293
1118.0,0.0294
1117.0,0.0295
1116.0,0.0296
1115.0,0.0297
1114.0,0.0298
1113.0,0.0299
1112.0,0.03
1111.0,0.0301
1110.0,0.0302
1109.0,0.0303
1108.0,0.0303
1107.0,0.0303
1106.0,0.0303
1105.0,0.0303
1104.0,0.0304
1103.0,0.0305
1102.0,0.0306
1101.0,0.0308
1100.0,0.0309
1099.0,0.0311
1098.0,0.0312
1097.0,0.0312
1096.0,0.0312
1095.0,0.0312
1094.0,0.0311
1093.0,0.0311
1092.0,0.0311
1091.0,0.0312
1090.0,0.0313
1089.0,0.0314
1088.0,0.0315
1087.0,0.0316
1086.0,0.0318
1085.0,0.032
1084.0,0.0321
1083.0,0.0322
1082.0,0.0322
1081.0,0.0322
1080.0,0.0321
1079.0,0.0321
1078.0,0.032
1077.0,0.032
1076.0,0.032
1075.0,0.032
1074.0,0.0321
1073.0,0.0322
1072.0,0.0323
1071.0,0.0324
1070.0,0.0325
1069.0,0.0325
1068.0,0.0323
1067.0,0.032
1066.0,0.0315
1065.0,0.0311
1064.0,0.0306
1063.0,0.0302
1062.0,0.0298
1061.0,0.0294
1060.0,0.0289
1059.0,0.0284
1058.0,0.0279
1057.0,0.0276
1056.0,0.0275
1055.0,0.0273
1054.0,0.0271
1053.0,0.0269
1052.0,0.0267
1051.0,0.0265
1050.0,0.0263
1049.0,0.026
1048.0,0.0257
1047.0,0.0255
1046.0,0.0254
1045.0,0.0253
1044.0,0.0252
1043.0,0.0252
1042.0,0.0251
1041.0,0.025
1040.0,0.025
1039.0,0.025
1038.0,0.0252
1037.0,0.0257
1036.0,0.0264
1035.0,0.0274
1034.0,0.0287
1033.0,0.0302
1032.0,0.0317
1031.0,0.0332
1030.0,0.0344
1029.0,0.0354
1028.0,0.0359
1027.0,0.0359
1026.0,0.0355
1025.0,0.0347
1024.0,0.0338
1023.0,0.0329
1022.0,0.0321
1021.0,0.0315
1020.0,0.0309
1019.0,0.0305
1018.0,0.0301
1017.0,0.0297
1016.0,0.0295
1015.0,0.0293
1014.0,0.0291
1013.0,0.0289
1012.0,0.0286
1011.0,0.0284
1010.0,0.0283
1009.0,0.0283
1008.0,0.0284
1007.0,0.0285
1006.0,0.0286
1005.0,0.0286
1004.0,0.0286
1003.0,0.0286
1002.0,0.0284
1001.0,0.0281
1000.0,0.0278
999.0,0.0275
998.0,0.0273
997.0,0.0272
996.0,0.0271
995.0,0.0271
994.0,0.0271
993.0,0.0271
992.0,0.0272
991.0,0.0273
990.0,0.0275
989.0,0.0276
988.0,0.0276
987.0,0.0275
986.0,0.0275
985.0,0.0275
984.0,0.0276
983.0,0.0277
982.0,0.0279
981.0,0.028
980.0,0.0281
979.0,0.0281
978.0,0.028
977.0,0.0279
976.0,0.0277
975.0,0.0276
974.0,0.0274
973.0,0.0274
972.0,0.0274
971.0,0.0275
970.0,0.0277
969.0,0.0279
968.0,0.0282
967.0,0.0285
966.0,0.0288
965.0,0.029
964.0,0.0291
963.0,0.0291
962.0,0.0291
961.0,0.029
960.0,0.0288
959.0,0.0286
958.0,0.0283
957.0,0.0281
956.0,0.0279
955.0,0.0278
954.0,0.0278
953.0,0.0278
952.0,0.0278
951.0,0.0278
950.0,0.0279
949.0,0.028
948.0,0.0281
947.0,0.0282
946.0,0.0284
945.0,0.0284
944.0,0.0285
943.0,0.0285
942.0,0.0285
941.0,0.0284
940.0,0.0284
939.0,0.0284
938.0,0.0283
937.0,0.0283
936.0,0.0282
935.0,0.028
934.0,0.0279
933.0,0.0278
932.0,0.0277
931.0,0.0276
930.0,0.0276
929.0,0.0275
928.0,0.0275
927.0,0.0275
926.0,0.0275
925.0,0.0275
924.0,0.0277
923.0,0.0278
922.0,0.028
921.0,0.0281
920.0,0.0282
919.0,0.0283
918.0,0.0285
917.0,0.0287
916.0,0.029
915.0,0.0295
914.0,0.03
913.0,0.0307
912.0,0.0315
911.0,0.0324
910.0,0.0333
909.0,0.0342
908.0,0.035
907.0,0.0357
906.0,0.0361
905.0,0.0364
904.0,0.0363
903.0,0.0359
902.0,0.0353
901.0,0.0346
900.0,0.0339
899.0,0.0332
898.0,0.0326
897.0,0.0321
896.0,0.0318
895.0,0.0314
894.0,0.0311
893.0,0.0309
892.0,0.0307
891.0,0.0307
890.0,0.0307
889.0,0.0306
888.0,0.0306
887.0,0.0305
886.0,0.0303
885.0,0.0302
884.0,0.03
883.0,0.03
882.0,0.0301
881.0,0.0301
880.0,0.0301
879.0,0.03
878.0,0.0299
877.0,0.0298
876.0,0.0297
875.0,0.0297
874.0,0.0297
873.0,0.0296
872.0,0.0296
871.0,0.0296
870.0,0.0295
869.0,0.0294
868.0,0.0292
867.0,0.0291
866.0,0.029
865.0,0.029
864.0,0.029
863.0,0.0291
862.0,0.0292
861.0,0.0292
860.0,0.0292
859.0,0.0291
858.0,0.029
857.0,0.0289
856.0,0.0289
855.0,0.0288
854.0,0.0289
853.0,0.0289
852.0,0.029
851.0,0.0291
850.0,0.0292
849.0,0.0295
848.0,0.0299
847.0,0.0303
846.0,0.0307
845.0,0.031
844.0,0.0314
843.0,0.0316
842.0,0.0318
841.0,0.0319
840.0,0.0319
839.0,0.0318
838.0,0.0316
837.0,0.0314
836.0,0.0312
835.0,0.0309
834.0,0.0306
833.0,0.0303
832.0,0.0301
831.0,0.03
830.0,0.0298
829.0,0.0297
828.0,0.0295
827.0,0.0293
826.0,0.0291
825.0,0.0289
824.0,0.0289
823.0,0.0289
822.0,0.029
821.0,0.0289
820.0,0.0289
819.0,0.0289
818.0,0.0288
817.0,0.0287
816.0,0.0287
815.0,0.0287
814.0,0.0288
813.0,0.029
812.0,0.0291
811.0,0.029
810.0,0.0289
809.0,0.0287
808.0,0.0287
807.0,0.0287
806.0,0.0288
805.0,0.0287
804.0,0.0285
803.0,0.0282
802.0,0.0281
801.0,0.028
800.0,0.0281
799.0,0.0281
798.0,0.0282
797.0,0.0283
796.0,0.0285
795.0,0.0287
794.0,0.0288
793.0,0.029
792.0,0.0291
791.0,0.0291
790.0,0.0291
789.0,0.0293
788.0,0.0297
787.0,0.03
786.0,0.0303
785.0,0.0305
784.0,0.0306
783.0,0.0308
782.0,0.0313
781.0,0.0319
780.0,0.0326
779.0,0.0334
778.0,0.0343
777.0,0.0353
776.0,0.0364
775.0,0.0376
774.0,0.0388
773.0,0.0401
772.0,0.0417
771.0,0.0436
770.0,0.0457
769.0,0.0478
768.0,0.0499
767.0,0.0519
766.0,0.0538
765.0,0.0559
764.0,0.0583
763.0,0.0609
762.0,0.0636
761.0,0.0665
760.0,0.0694
759.0,0.0723
758.0,0.0748
757.0,0.077
756.0,0.0787
755.0,0.0799
754.0,0.0806
753.0,0.0809
752.0,0.081
751.0,0.081
750.0,0.0809
749.0,0.0807
748.0,0.0805
747.0,0.08
746.0,0.0791
745.0,0.0776
744.0,0.0755
743.0,0.073
742.0,0.0704
741.0,0.0679
740.0,0.0656
739.0,0.0633
738.0,0.0611
737.0,0.059
736.0,0.0571
735.0,0.0554
734.0,0.0538
733.0,0.052
732.0,0.0502
731.0,0.0485
730.0,0.047
729.0,0.0457
728.0,0.0445
727.0,0.0435
726.0,0.0426
725.0,0.0419
724.0,0.0413
723.0,0.0406
722.0,0.0398
721.0,0.0388
720.0,0.0378
719.0,0.037
718.0,0.0364
717.0,0.0359
716.0,0.0354
715.0,0.0349
714.0,0.0345
713.0,0.0345
712.0,0.035
711.0,0.036
710.0,0.038
709.0,0.0411
708.0,0.0458
707.0,0.0521
706.0,0.06
705.0,0.0695
704.0,0.0809
703.0,0.0941
702.0,0.109
701.0,0.1253
700.0,0.1426
699.0,0.1603
698.0,0.1771
697.0,0.1917
696.0,0.202
695.0,0.2056
694.0,0.2011
693.0,0.1893
692.0,0.1728
691.0,0.1548
690.0,0.1377
689.0,0.1232
688.0,0.112
687.0,0.1036
686.0,0.0975
685.0,0.0927
684.0,0.0889
683.0,0.0858
682.0,0.083
681.0,0.0805
680.0,0.0781
679.0,0.0761
678.0,0.0745
677.0,0.0734
676.0,0.0726
675.0,0.0718
674.0,0.0709
673.0,0.0701
672.0,0.0695
671.0,0.0695
670.0,0.0702
669.0,0.0711
668.0,0.0709
667.0,0.0683
666.0,0.0648
665.0,0.0626
664.0,0.0617
663.0,0.0614
662.0,0.0608
661.0,0.0597
660.0,0.0585
659.0,0.0575
658.0,0.0572
657.0,0.0575
656.0,0.0578
655.0,0.0579
654.0,0.0577
653.0,0.0574
652.0,0.0571
651.0,0.0565
650.0,0.0558
649.0,0.0552
648.0,0.0548
647.0,0.0547
646.0,0.0547
645.0,0.0544
644.0,0.054
643.0,0.0534
642.0,0.053
641.0,0.053
640.0,0.0532
639.0,0.0535
638.0,0.0539
637.0,0.0542
636.0,0.0546
635.0,0.0548
634.0,0.0551
633.0,0.0556
632.0,0.056
631.0,0.056
630.0,0.0558
629.0,0.0556
628.0,0.0555
627.0,0.0554
626.0,0.0552
625.0,0.0552
624.0,0.0557
623.0,0.0565
622.0,0.0573
621.0,0.058
620.0,0.0586
619.0,0.0589
618.0,0.0591
617.0,0.0593
616.0,0.0595
615.0,0.0594
614.0,0.059
613.0,0.0587
612.0,0.0589
611.0,0.0595
610.0,0.0599
609.0,0.0599
608.0,0.06
607.0,0.0605
606.0,0.0612
605.0,0.0621
604.0,0.0629
603.0,0.0633
602.0,0.0631
601.0,0.0626
600.0,0.062
