cm-1,A
4000.0,0.0018
3999.0,0.0018
3998.0,0.0019
3997.0,0.0019
3996.0,0.002
3995.0,0.0021
3994.0,0.0021
3993.0,0.0021
3992.0,0.0021
3991.0,0.0021
3990.0,0.002
3989.0,0.002
3988.0,0.002
3987.0,0.0021
3986.0,0.0021
3985.0,0.0021
3984.0,0.0021
3983.0,0.002
3982.0,0.002
3981.0,0.002
3980.0,0.0021
3979.0,0.0022
3978.0,0.0022
3977.0,0.0022
3976.0,0.0021
3975.0,0.0021
3974.0,0.0021
3973.0,0.002
3972.0,0.002
3971.0,0.002
3970.0,0.002
3969.0,0.0021
3968.0,0.0022
3967.0,0.0023
3966.0,0.0023
3965.0,0.0023
3964.0,0.0023
3963.0,0.0022
3962.0,0.0021
3961.0,0.002
3960.0,0.0019
3959.0,0.002
3958.0,0.002
3957.0,0.0021
3956.0,0.0021
3955.0,0.0022
3954.0,0.0021
3953.0,0.0021
3952.0,0.002
3951.0,0.0019
3950.0,0.0018
3949.0,0.0017
3948.0,0.0016
3947.0,0.0015
3946.0,0.0015
3945.0,0.0016
3944.0,0.0017
3943.0,0.0017
3942.0,0.0017
3941.0,0.0018
3940.0,0.002
3939.0,0.0021
3938.0,0.0022
3937.0,0.0022
3936.0,0.0021
3935.0,0.002
3934.0,0.0019
3933.0,0.0018
3932.0,0.0017
3931.0,0.0018
3930.0,0.0019
3929.0,0.0019
3928.0,0.002
3927.0,0.0021
3926.0,0.0022
3925.0,0.0021
3924.0,0.002
3923.0,0.0019
3922.0,0.0017
3921.0,0.0016
3920.0,0.0016
3919.0,0.0017
3918.0,0.0018
3917.0,0.0019
3916.0,0.0019
3915.0,0.002
3914.0,0.0022
3913.0,0.0023
3912.0,0.0023
3911.0,0.0023
3910.0,0.0021
3909.0,0.002
3908.0,0.0019
3907.0,0.0018
3906.0,0.0017
3905.0,0.0015
3904.0,0.0014
3903.0,0.0013
3902.0,0.0014
3901.0,0.0015
3900.0,0.0015
3899.0,0.0014
3898.0,0.0015
3897.0,0.0017
3896.0,0.0019
3895.0,0.002
3894.0,0.002
3893.0,0.002
3892.0,0.0019
3891.0,0.0018
3890.0,0.0018
3889.0,0.002
3888.0,0.0022
3887.0,0.0022
3886.0,0.002
3885.0,0.0017
3884.0,0.0016
3883.0,0.0018
3882.0,0.0019
3881.0,0.0019
3880.0,0.0018
3879.0,0.0016
3878.0,0.0018
3877.0,0.0021
3876.0,0.0022
3875.0,0.002
3874.0,0.0017
3873.0,0.0014
3872.0,0.0015
3871.0,0.0016
3870.0,0.0015
3869.0,0.0014
3868.0,0.0015
3867.0,0.0018
3866.0,0.002
3865.0,0.0021
3864.0,0.002
3863.0,0.002
3862.0,0.0019
3861.0,0.0019
3860.0,0.0019
3859.0,0.0018
3858.0,0.0017
3857.0,0.0016
3856.0,0.0015
3855.0,0.0018
3854.0,0.0022
3853.0,0.002
3852.0,0.0019
3851.0,0.0022
3850.0,0.0024
3849.0,0.0024
3848.0,0.0023
3847.0,0.0021
3846.0,0.0019
3845.0,0.0017
3844.0,0.0015
3843.0,0.0013
3842.0,0.0011
3841.0,0.001
3840.0,0.001
3839.0,0.001
3838.0,0.0011
3837.0,0.0012
3836.0,0.0014
3835.0,0.0017
3834.0,0.0019
3833.0,0.0019
3832.0,0.0018
3831.0,0.0017
3830.0,0.0018
3829.0,0.0019
3828.0,0.0021
3827.0,0.0021
3826.0,0.0019
3825.0,0.0017
3824.0,0.0016
3823.0,0.0017
3822.0,0.0018
3821.0,0.0017
3820.0,0.0014
3819.0,0.0015
3818.0,0.0018
3817.0,0.002
3816.0,0.002
3815.0,0.002
3814.0,0.0022
3813.0,0.0025
3812.0,0.0025
3811.0,0.0024
3810.0,0.0023
3809.0,0.0022
3808.0,0.0021
3807.0,0.0017
3806.0,0.0014
3805.0,0.0014
3804.0,0.0016
3803.0,0.0019
3802.0,0.0021
3801.0,0.002
3800.0,0.0018
3799.0,0.002
3798.0,0.0022
3797.0,0.0022
3796.0,0.0022
3795.0,0.0022
3794.0,0.0023
3793.0,0.0025
3792.0,0.0025
3791.0,0.0025
3790.0,0.0024
3789.0,0.0023
3788.0,0.0023
3787.0,0.0024
3786.0,0.0024
3785.0,0.0023
3784.0,0.0021
3783.0,0.002
3782.0,0.0019
3781.0,0.0019
3780.0,0.002
3779.0,0.002
3778.0,0.0021
3777.0,0.0022
3776.0,0.0022
3775.0,0.0022
3774.0,0.0021
3773.0,0.002
3772.0,0.0019
3771.0,0.0019
3770.0,0.0019
3769.0,0.0018
3768.0,0.0019
3767.0,0.0021
3766.0,0.0022
3765.0,0.0021
3764.0,0.002
3763.0,0.002
3762.0,0.002
3761.0,0.002
3760.0,0.0019
3759.0,0.0018
3758.0,0.0018
3757.0,0.0017
3756.0,0.0017
3755.0,0.0017
3754.0,0.0017
3753.0,0.0017
3752.0,0.0018
3751.0,0.0019
3750.0,0.0017
3749.0,0.0015
3748.0,0.0015
3747.0,0.0018
3746.0,0.0022
3745.0,0.0023
3744.0,0.0021
3743.0,0.0019
3742.0,0.0022
3741.0,0.0023
3740.0,0.002
3739.0,0.0016
3738.0,0.0013
3737.0,0.0012
3736.0,0.0011
3735.0,0.0011
3734.0,0.0013
3733.0,0.0015
3732.0,0.0017
3731.0,0.002
3730.0,0.0022
3729.0,0.0025
3728.0,0.0026
3727.0,0.0025
3726.0,0.0022
3725.0,0.0019
3724.0,0.0017
3723.0,0.0017
3722.0,0.0017
3721.0,0.0017
3720.0,0.0017
3719.0,0.0018
3718.0,0.0018
3717.0,0.0019
3716.0,0.0019
3715.0,0.0018
3714.0,0.0018
3713.0,0.002
3712.0,0.0023
3711.0,0.0026
3710.0,0.0026
3709.0,0.0025
3708.0,0.0023
3707.0,0.0022
3706.0,0.0022
3705.0,0.0021
3704.0,0.0021
3703.0,0.0022
3702.0,0.0022
3701.0,0.0021
3700.0,0.0022
3699.0,0.0023
3698.0,0.0025
3697.0,0.0025
3696.0,0.0024
3695.0,0.0022
3694.0,0.0021
3693.0,0.002
3692.0,0.002
3691.0,0.002
3690.0,0.0021
3689.0,0.0021
3688.0,0.002
3687.0,0.0022
3686.0,0.0025
3685.0,0.0027
3684.0,0.0026
3683.0,0.0025
3682.0,0.0024
3681.0,0.0022
3680.0,0.0019
3679.0,0.0016
3678.0,0.0014
3677.0,0.0015
3676.0,0.0016
3675.0,0.0014
3674.0,0.0013
3673.0,0.0016
3672.0,0.0019
3671.0,0.0022
3670.0,0.0023
3669.0,0.0022
3668.0,0.0022
3667.0,0.0023
3666.0,0.0024
3665.0,0.0025
3664.0,0.0026
3663.0,0.0027
3662.0,0.0027
3661.0,0.0027
3660.0,0.0026
3659.0,0.0026
3658.0,0.0028
3657.0,0.0029
3656.0,0.0028
3655.0,0.0025
3654.0,0.0022
3653.0,0.002
3652.0,0.0016
3651.0,0.0017
3650.0,0.0021
3649.0,0.0024
3648.0,0.0024
3647.0,0.0025
3646.0,0.0027
3645.0,0.003
3644.0,0.0032
3643.0,0.0033
3642.0,0.0033
3641.0,0.0033
3640.0,0.0034
3639.0,0.0034
3638.0,0.0035
3637.0,0.0036
3636.0,0.0036
3635.0,0.0036
3634.0,0.0034
3633.0,0.0032
3632.0,0.003
3631.0,0.003
3630.0,0.0034
3629.0,0.0038
3628.0,0.0039
3627.0,0.004
3626.0,0.0043
3625.0,0.0044
3624.0,0.0043
3623.0,0.0041
3622.0,0.0039
3621.0,0.004
3620.0,0.0042
3619.0,0.0043
3618.0,0.0043
3617.0,0.0042
3616.0,0.0042
3615.0,0.0043
3614.0,0.0044
3613.0,0.0044
3612.0,0.0044
3611.0,0.0044
3610.0,0.0045
3609.0,0.0047
3608.0,0.005
3607.0,0.0051
3606.0,0.0053
3605.0,0.0054
3604.0,0.0056
3603.0,0.0058
3602.0,0.0061
3601.0,0.0062
3600.0,0.0061
3599.0,0.006
3598.0,0.0059
3597.0,0.006
3596.0,0.0062
3595.0,0.0064
3594.0,0.0066
3593.0,0.0066
3592.0,0.0065
3591.0,0.0063
3590.0,0.0062
3589.0,0.0062
3588.0,0.0063
3587.0,0.0064
3586.0,0.0065
3585.0,0.0067
3584.0,0.007
3583.0,0.0072
3582.0,0.0073
3581.0,0.0074
3580.0,0.0075
3579.0,0.0076
3578.0,0.0077
3577.0,0.0078
3576.0,0.008
3575.0,0.0081
3574.0,0.0081
3573.0,0.008
3572.0,0.0079
3571.0,0.0078
3570.0,0.0076
3569.0,0.0076
3568.0,0.0078
3567.0,0.0082
3566.0,0.0085
3565.0,0.0087
3564.0,0.009
3563.0,0.0093
3562.0,0.0095
3561.0,0.0098
3560.0,0.0101
3559.0,0.0103
3558.0,0.0105
3557.0,0.0106
3556.0,0.0107
3555.0,0.0108
3554.0,0.011
3553.0,0.0112
3552.0,0.0115
3551.0,0.0116
3550.0,0.0116
3549.0,0.0116
3548.0,0.0116
3547.0,0.0118
3546.0,0.012
3545.0,0.0123
3544.0,0.0126
3543.0,0.0128
3542.0,0.0131
3541.0,0.0132
3540.0,0.0133
3539.0,0.0135
3538.0,0.0137
3537.0,0.0139
3536.0,0.0142
3535.0,0.0144
3534.0,0.0147
3533.0,0.0148
3532.0,0.015
3531.0,0.0152
3530.0,0.0153
3529.0,0.0155
3528.0,0.0156
3527.0,0.0158
3526.0,0.0159
3525.0,0.0162
3524.0,0.0164
3523.0,0.0167
3522.0,0.017
3521.0,0.0173
3520.0,0.0176
3519.0,0.0179
3518.0,0.0181
3517.0,0.0183
3516.0,0.0186
3515.0,0.0188
3514.0,0.0191
3513.0,0.0194
3512.0,0.0197
3511.0,0.02
3510.0,0.0204
3509.0,0.0207
3508.0,0.0209
3507.0,0.0211
3506.0,0.0213
3505.0,0.0216
3504.0,0.022
3503.0,0.0225
3502.0,0.023
3501.0,0.0234
3500.0,0.0238
3499.0,0.0242
3498.0,0.0246
3497.0,0.0251
3496.0,0.0256
3495.0,0.0261
3494.0,0.0266
3493.0,0.0269
3492.0,0.0272
3491.0,0.0275
3490.0,0.0279
3489.0,0.0283
3488.0,0.0289
3487.0,0.0294
3486.0,0.0299
3485.0,0.0302
3484.0,0.0306
3483.0,0.031
3482.0,0.0316
3481.0,0.0321
3480.0,0.0326
3479.0,0.0331
3478.0,0.0336
3477.0,0.0341
3476.0,0.0348
3475.0,0.0354
3474.0,0.0361
3473.0,0.0367
3472.0,0.0372
3471.0,0.0378
3470.0,0.0384
3469.0,0.0391
3468.0,0.0398
3467.0,0.0405
3466.0,0.0411
3465.0,0.0417
3464.0,0.0423
3463.0,0.043
3462.0,0.0436
3461.0,0.0442
3460.0,0.0448
3459.0,0.0454
3458.0,0.0461
3457.0,0.0468
3456.0,0.0475
3455.0,0.0482
3454.0,0.049
3453.0,0.0497
3452.0,0.0504
3451.0,0.0509
3450.0,0.0515
3449.0,0.0521
3448.0,0.053
3447.0,0.0539
3446.0,0.0547
3445.0,0.0554
3444.0,0.0561
3443.0,0.0569
3442.0,0.0578
3441.0,0.0588
3440.0,0.0597
3439.0,0.0606
3438.0,0.0617
3437.0,0.0629
3436.0,0.064
3435.0,0.0651
3434.0,0.0661
3433.0,0.067
3432.0,0.068
3431.0,0.0691
3430.0,0.0702
3429.0,0.0715
3428.0,0.0728
3427.0,0.0741
3426.0,0.0754
3425.0,0.0765
3424.0,0.0776
3423.0,0.0788
3422.0,0.0801
3421.0,0.0814
3420.0,0.0828
3419.0,0.0841
3418.0,0.0853
3417.0,0.0865
3416.0,0.0877
3415.0,0.0888
3414.0,0.09
3413.0,0.0911
3412.0,0.0922
3411.0,0.0934
3410.0,0.0946
3409.0,0.0958
3408.0,0.0971
3407.0,0.0982
3406.0,0.0993
3405.0,0.1003
3404.0,0.1013
3403.0,0.1023
3402.0,0.1032
3401.0,0.104
3400.0,0.1049
3399.0,0.1059
3398.0,0.1071
3397.0,0.1082
3396.0,0.1091
3395.0,0.1099
3394.0,0.1105
3393.0,0.111
3392.0,0.1116
3391.0,0.1123
3390.0,0.1129
3389.0,0.1135
3388.0,0.114
3387.0,0.1144
3386.0,0.1145
3385.0,0.1144
3384.0,0.1143
3383.0,0.1142
3382.0,0.1142
3381.0,0.1141
3380.0,0.1139
3379.0,0.1136
3378.0,0.1133
3377.0,0.1129
3376.0,0.1124
3375.0,0.1118
3374.0,0.1112
3373.0,0.1105
3372.0,0.1097
3371.0,0.1089
3370.0,0.108
3369.0,0.107
3368.0,0.1059
3367.0,0.1049
3366.0,0.1038
3365.0,0.1028
3364.0,0.1019
3363.0,0.1009
3362.0,0.0998
3361.0,0.0987
3360.0,0.0974
3359.0,0.0962
3358.0,0.0949
3357.0,0.0937
3356.0,0.0926
3355.0,0.0915
3354.0,0.0904
3353.0,0.0892
3352.0,0.0881
3351.0,0.0869
3350.0,0.0857
3349.0,0.0845
3348.0,0.0833
3347.0,0.082
3346.0,0.0807
3345.0,0.0794
3344.0,0.0781
3343.0,0.0769
3342.0,0.0759
3341.0,0.0749
3340.0,0.074
3339.0,0.073
3338.0,0.0719
3337.0,0.0708
3336.0,0.0696
3335.0,0.0684
3334.0,0.0672
3333.0,0.066
3332.0,0.0648
3331.0,0.0637
3330.0,0.0626
3329.0,0.0616
3328.0,0.0608
3327.0,0.06
3326.0,0.0592
3325.0,0.0584
3324.0,0.0574
3323.0,0.0563
3322.0,0.0551
3321.0,0.054
3320.0,0.053
3319.0,0.0521
3318.0,0.0513
3317.0,0.0504
3316.0,0.0495
3315.0,0.0486
3314.0,0.0479
3313.0,0.0472
3312.0,0.0465
3311.0,0.0458
3310.0,0.045
3309.0,0.0443
3308.0,0.0435
3307.0,0.0428
3306.0,0.0421
3305.0,0.0414
3304.0,0.0406
3303.0,0.04
3302.0,0.0394
3301.0,0.0388
3300.0,0.0383
3299.0,0.0378
3298.0,0.0373
3297.0,0.0369
3296.0,0.0366
3295.0,0.0361
3294.0,0.0357
3293.0,0.0352
3292.0,0.0348
3291.0,0.0345
3290.0,0.0342
3289.0,0.0338
3288.0,0.0333
3287.0,0.0328
3286.0,0.0324
3285.0,0.032
3284.0,0.0318
3283.0,0.0315
3282.0,0.0312
3281.0,0.0308
3280.0,0.0304
3279.0,0.0301
3278.0,0.0298
3277.0,0.0295
3276.0,0.0293
3275.0,0.0292
3274.0,0.029
3273.0,0.0289
3272.0,0.0288
3271.0,0.0286
3270.0,0.0284
3269.0,0.0283
3268.0,0.0282
3267.0,0.0283
3266.0,0.0285
3265.0,0.0288
3264.0,0.0291
3263.0,0.0294
3262.0,0.0298
3261.0,0.0302
3260.0,0.0307
3259.0,0.0311
3258.0,0.0314
3257.0,0.0316
3256.0,0.0319
3255.0,0.0323
3254.0,0.0329
3253.0,0.0334
3252.0,0.0339
3251.0,0.0343
3250.0,0.0346
3249.0,0.0348
3248.0,0.0349
3247.0,0.0351
3246.0,0.0352
3245.0,0.0353
3244.0,0.0352
3243.0,0.035
3242.0,0.0347
3241.0,0.0343
3240.0,0.0339
3239.0,0.0335
3238.0,0.0331
3237.0,0.0326
3236.0,0.032
3235.0,0.0313
3234.0,0.0306
3233.0,0.0299
3232.0,0.0293
3231.0,0.0286
3230.0,0.0279
3229.0,0.0271
3228.0,0.0263
3227.0,0.0255
3226.0,0.0248
3225.0,0.024
3224.0,0.0234
3223.0,0.0228
3222.0,0.0223
3221.0,0.0217
3220.0,0.0211
3219.0,0.0205
3218.0,0.0197
3217.0,0.0189
3216.0,0.0182
3215.0,0.0175
3214.0,0.017
3213.0,0.0166
3212.0,0.0162
3211.0,0.0157
3210.0,0.0152
3209.0,0.0148
3208.0,0.0143
3207.0,0.0138
3206.0,0.0134
3205.0,0.013
3204.0,0.0127
3203.0,0.0124
3202.0,0.0122
3201.0,0.012
3200.0,0.0118
3199.0,0.0115
3198.0,0.0113
3197.0,0.0111
3196.0,0.0109
3195.0,0.0108
3194.0,0.0106
3193.0,0.0105
3192.0,0.0103
3191.0,0.0102
3190.0,0.01
3189.0,0.0099
3188.0,0.0097
3187.0,0.0095
3186.0,0.0093
3185.0,0.0091
3184.0,0.009
3183.0,0.0088
3182.0,0.0087
3181.0,0.0087
3180.0,0.0086
3179.0,0.0085
3178.0,0.0084
3177.0,0.0083
3176.0,0.0082
3175.0,0.0081
3174.0,0.008
3173.0,0.0078
3172.0,0.0076
3171.0,0.0075
3170.0,0.0075
3169.0,0.0075
3168.0,0.0075
3167.0,0.0074
3166.0,0.0073
3165.0,0.0071
3164.0,0.0069
3163.0,0.0068
3162.0,0.0068
3161.0,0.0068
3160.0,0.0069
3159.0,0.0069
3158.0,0.0069
3157.0,0.0068
3156.0,0.0067
3155.0,0.0066
3154.0,0.0066
3153.0,0.0065
3152.0,0.0066
3151.0,0.0066
3150.0,0.0066
3149.0,0.0066
3148.0,0.0065
3147.0,0.0065
3146.0,0.0065
3145.0,0.0065
3144.0,0.0065
3143.0,0.0064
3142.0,0.0063
3141.0,0.0062
3140.0,0.0061
3139.0,0.006
3138.0,0.006
3137.0,0.0061
3136.0,0.0063
3135.0,0.0065
3134.0,0.0066
3133.0,0.0066
3132.0,0.0066
3131.0,0.0065
3130.0,0.0065
3129.0,0.0066
3128.0,0.0066
3127.0,0.0065
3126.0,0.0064
3125.0,0.0063
3124.0,0.0063
3123.0,0.0063
3122.0,0.0063
3121.0,0.0063
3120.0,0.0063
3119.0,0.0063
3118.0,0.0062
3117.0,0.0063
3116.0,0.0063
3115.0,0.0064
3114.0,0.0065
3113.0,0.0066
3112.0,0.0066
3111.0,0.0067
3110.0,0.0068
3109.0,0.0069
3108.0,0.0069
3107.0,0.007
3106.0,0.007
3105.0,0.007
3104.0,0.007
3103.0,0.0071
3102.0,0.0072
3101.0,0.0072
3100.0,0.0072
3099.0,0.0072
3098.0,0.0072
3097.0,0.0071
3096.0,0.007
3095.0,0.007
3094.0,0.007
3093.0,0.007
3092.0,0.0071
3091.0,0.0071
3090.0,0.0072
3089.0,0.0072
3088.0,0.0073
3087.0,0.0074
3086.0,0.0075
3085.0,0.0076
3084.0,0.0076
3083.0,0.0075
3082.0,0.0075
3081.0,0.0074
3080.0,0.0075
3079.0,0.0076
3078.0,0.0077
3077.0,0.0078
3076.0,0.0078
3075.0,0.0079
3074.0,0.0079
3073.0,0.0079
3072.0,0.0079
3071.0,0.008
3070.0,0.008
3069.0,0.008
3068.0,0.008
3067.0,0.008
3066.0,0.008
3065.0,0.008
3064.0,0.008
3063.0,0.008
3062.0,0.008
3061.0,0.008
3060.0,0.0081
3059.0,0.0082
3058.0,0.0084
3057.0,0.0086
3056.0,0.0086
3055.0,0.0086
3054.0,0.0084
3053.0,0.0083
3052.0,0.0082
3051.0,0.0081
3050.0,0.0081
3049.0,0.0081
3048.0,0.008
3047.0,0.008
3046.0,0.0079
3045.0,0.0078
3044.0,0.0077
3043.0,0.0077
3042.0,0.0077
3041.0,0.0077
3040.0,0.0077
3039.0,0.0076
3038.0,0.0076
3037.0,0.0076
3036.0,0.0076
3035.0,0.0076
3034.0,0.0075
3033.0,0.0075
3032.0,0.0075
3031.0,0.0076
3030.0,0.0077
3029.0,0.0078
3028.0,0.0078
3027.0,0.0078
3026.0,0.0078
3025.0,0.0078
3024.0,0.0079
3023.0,0.008
3022.0,0.0081
3021.0,0.0082
3020.0,0.0083
3019.0,0.0084
3018.0,0.0084
3017.0,0.0083
3016.0,0.0083
3015.0,0.0083
3014.0,0.0084
3013.0,0.0085
3012.0,0.0086
3011.0,0.0087
3010.0,0.0088
3009.0,0.009
3008.0,0.009
3007.0,0.0091
3006.0,0.0092
3005.0,0.0092
3004.0,0.0093
3003.0,0.0094
3002.0,0.0095
3001.0,0.0096
3000.0,0.0097
2999.0,0.0097
2998.0,0.0098
2997.0,0.0098
2996.0,0.0098
2995.0,0.0098
2994.0,0.0099
2993.0,0.01
2992.0,0.0102
2991.0,0.0103
2990.0,0.0104
2989.0,0.0106
2988.0,0.0107
2987.0,0.0108
2986.0,0.011
2985.0,0.0111
2984.0,0.0112
2983.0,0.0114
2982.0,0.0116
2981.0,0.0118
2980.0,0.012
2979.0,0.0123
2978.0,0.0125
2977.0,0.0127
2976.0,0.0129
2975.0,0.0131
2974.0,0.0133
2973.0,0.0135
2972.0,0.0136
2971.0,0.0139
2970.0,0.0141
2969.0,0.0144
2968.0,0.0147
2967.0,0.0148
2966.0,0.015
2965.0,0.0152
2964.0,0.0154
2963.0,0.0157
2962.0,0.0159
2961.0,0.0161
2960.0,0.0163
2959.0,0.0164
2958.0,0.0164
2957.0,0.0164
2956.0,0.0164
2955.0,0.0163
2954.0,0.0161
2953.0,0.016
2952.0,0.0159
2951.0,0.0157
2950.0,0.0155
2949.0,0.0153
2948.0,0.0151
2947.0,0.0149
2946.0,0.0147
2945.0,0.0144
2944.0,0.0141
2943.0,0.0138
2942.0,0.0135
2941.0,0.0133
2940.0,0.0131
2939.0,0.013
2938.0,0.0129
2937.0,0.0128
2936.0,0.0127
2935.0,0.0126
2934.0,0.0126
2933.0,0.0126
2932.0,0.0126
2931.0,0.0126
2930.0,0.0125
2929.0,0.0126
2928.0,0.0126
2927.0,0.0127
2926.0,0.0127
2925.0,0.0127
2924.0,0.0126
2923.0,0.0126
2922.0,0.0126
2921.0,0.0125
2920.0,0.0125
2919.0,0.0124
2918.0,0.0123
2917.0,0.0122
2916.0,0.0122
2915.0,0.0121
2914.0,0.0122
2913.0,0.0122
2912.0,0.0122
2911.0,0.0121
2910.0,0.0121
2909.0,0.012
2908.0,0.012
2907.0,0.0119
2906.0,0.0119
2905.0,0.0118
2904.0,0.0119
2903.0,0.012
2902.0,0.012
2901.0,0.0121
2900.0,0.0121
2899.0,0.0121
2898.0,0.0121
2897.0,0.0121
2896.0,0.0121
2895.0,0.0122
2894.0,0.0122
2893.0,0.0123
2892.0,0.0123
2891.0,0.0124
2890.0,0.0125
2889.0,0.0125
2888.0,0.0125
2887.0,0.0124
2886.0,0.0123
2885.0,0.0122
2884.0,0.012
2883.0,0.012
2882.0,0.0119
2881.0,0.0118
2880.0,0.0117
2879.0,0.0117
2878.0,0.0117
2877.0,0.0117
2876.0,0.0117
2875.0,0.0117
2874.0,0.0117
2873.0,0.0117
2872.0,0.0117
2871.0,0.0117
2870.0,0.0117
2869.0,0.0117
2868.0,0.0116
2867.0,0.0116
2866.0,0.0115
2865.0,0.0115
2864.0,0.0114
2863.0,0.0114
2862.0,0.0115
2861.0,0.0116
2860.0,0.0116
2859.0,0.0117
2858.0,0.0118
2857.0,0.0118
2856.0,0.0118
2855.0,0.0118
2854.0,0.0118
2853.0,0.0119
2852.0,0.0119
2851.0,0.0119
2850.0,0.0118
2849.0,0.0116
2848.0,0.0114
2847.0,0.0113
2846.0,0.0112
2845.0,0.0111
2844.0,0.0111
2843.0,0.011
2842.0,0.0109
2841.0,0.0108
2840.0,0.0106
2839.0,0.0104
2838.0,0.0103
2837.0,0.0102
2836.0,0.0103
2835.0,0.0103
2834.0,0.0104
2833.0,0.0104
2832.0,0.0104
2831.0,0.0104
2830.0,0.0104
2829.0,0.0102
2828.0,0.0101
2827.0,0.0101
2826.0,0.0102
2825.0,0.0102
2824.0,0.0103
2823.0,0.0102
2822.0,0.0101
2821.0,0.0101
2820.0,0.01
2819.0,0.0101
2818.0,0.0101
2817.0,0.0102
2816.0,0.0102
2815.0,0.0102
2814.0,0.0101
2813.0,0.0101
2812.0,0.0101
2811.0,0.0101
2810.0,0.0101
2809.0,0.0102
2808.0,0.0102
2807.0,0.0102
2806.0,0.0101
2805.0,0.0101
2804.0,0.0101
2803.0,0.0102
2802.0,0.0102
2801.0,0.0102
2800.0,0.0101
2799.0,0.0101
2798.0,0.0101
2797.0,0.0101
2796.0,0.0101
2795.0,0.0101
2794.0,0.0101
2793.0,0.0101
2792.0,0.0101
2791.0,0.0101
2790.0,0.0101
2789.0,0.0101
2788.0,0.0101
2787.0,0.01
2786.0,0.01
2785.0,0.0099
2784.0,0.0098
2783.0,0.0098
2782.0,0.0098
2781.0,0.0098
2780.0,0.0099
2779.0,0.0099
2778.0,0.0099
2777.0,0.0098
2776.0,0.0098
2775.0,0.0098
2774.0,0.0098
2773.0,0.0098
2772.0,0.0097
2771.0,0.0097
2770.0,0.0097
2769.0,0.0097
2768.0,0.0098
2767.0,0.0098
2766.0,0.0099
2765.0,0.0098
2764.0,0.0098
2763.0,0.0098
2762.0,0.0098
2761.0,0.0098
2760.0,0.0099
2759.0,0.0099
2758.0,0.0098
2757.0,0.0098
2756.0,0.0098
2755.0,0.0098
2754.0,0.0098
2753.0,0.0098
2752.0,0.0098
2751.0,0.0097
2750.0,0.0097
2749.0,0.0096
2748.0,0.0096
2747.0,0.0097
2746.0,0.0099
2745.0,0.0099
2744.0,0.0099
2743.0,0.0099
2742.0,0.0098
2741.0,0.0097
2740.0,0.0097
2739.0,0.0097
2738.0,0.0098
2737.0,0.0098
2736.0,0.0098
2735.0,0.0098
2734.0,0.0097
2733.0,0.0097
2732.0,0.0097
2731.0,0.0097
2730.0,0.0097
2729.0,0.0097
2728.0,0.0096
2727.0,0.0096
2726.0,0.0095
2725.0,0.0094
2724.0,0.0094
2723.0,0.0095
2722.0,0.0095
2721.0,0.0096
2720.0,0.0096
2719.0,0.0096
2718.0,0.0096
2717.0,0.0097
2716.0,0.0097
2715.0,0.0096
2714.0,0.0096
2713.0,0.0095
2712.0,0.0095
2711.0,0.0094
2710.0,0.0094
2709.0,0.0094
2708.0,0.0095
2707.0,0.0095
2706.0,0.0096
2705.0,0.0096
2704.0,0.0095
2703.0,0.0095
2702.0,0.0094
2701.0,0.0094
2700.0,0.0094
2699.0,0.0094
2698.0,0.0094
2697.0,0.0094
2696.0,0.0094
2695.0,0.0094
2694.0,0.0094
2693.0,0.0093
2692.0,0.0094
2691.0,0.0094
2690.0,0.0094
2689.0,0.0095
2688.0,0.0095
2687.0,0.0095
2686.0,0.0094
2685.0,0.0094
2684.0,0.0094
2683.0,0.0094
2682.0,0.0094
2681.0,0.0093
2680.0,0.0093
2679.0,0.0092
2678.0,0.0092
2677.0,0.0092
2676.0,0.0093
2675.0,0.0093
2674.0,0.0093
2673.0,0.0092
2672.0,0.0093
2671.0,0.0093
2670.0,0.0093
2669.0,0.0093
2668.0,0.0092
2667.0,0.0092
2666.0,0.0092
2665.0,0.0092
2664.0,0.0092
2663.0,0.0092
2662.0,0.0093
2661.0,0.0093
2660.0,0.0092
2659.0,0.0092
2658.0,0.0091
2657.0,0.0091
2656.0,0.0092
2655.0,0.0093
2654.0,0.0093
2653.0,0.0094
2652.0,0.0093
2651.0,0.0093
2650.0,0.0093
2649.0,0.0092
2648.0,0.0093
2647.0,0.0093
2646.0,0.0094
2645.0,0.0094
2644.0,0.0094
2643.0,0.0094
2642.0,0.0094
2641.0,0.0094
2640.0,0.0094
2639.0,0.0095
2638.0,0.0094
2637.0,0.0094
2636.0,0.0094
2635.0,0.0094
2634.0,0.0094
2633.0,0.0094
2632.0,0.0094
2631.0,0.0094
2630.0,0.0094
2629.0,0.0094
2628.0,0.0094
2627.0,0.0093
2626.0,0.0093
2625.0,0.0093
2624.0,0.0092
2623.0,0.0092
2622.0,0.0092
2621.0,0.0092
2620.0,0.0092
2619.0,0.0092
2618.0,0.0092
2617.0,0.0092
2616.0,0.0092
2615.0,0.0092
2614.0,0.0092
2613.0,0.0092
2612.0,0.0091
2611.0,0.0091
2610.0,0.0092
2609.0,0.0092
2608.0,0.0093
2607.0,0.0094
2606.0,0.0094
2605.0,0.0094
2604.0,0.0093
2603.0,0.0092
2602.0,0.0092
2601.0,0.0091
2600.0,0.0091
2599.0,0.0091
2598.0,0.0091
2597.0,0.0092
2596.0,0.0092
2595.0,0.0093
2594.0,0.0093
2593.0,0.0093
2592.0,0.0092
2591.0,0.0092
2590.0,0.0092
2589.0,0.0092
2588.0,0.0093
2587.0,0.0093
2586.0,0.0093
2585.0,0.0094
2584.0,0.0093
2583.0,0.0093
2582.0,0.0093
2581.0,0.0093
2580.0,0.0094
2579.0,0.0094
2578.0,0.0094
2577.0,0.0094
2576.0,0.0094
2575.0,0.0094
2574.0,0.0093
2573.0,0.0093
2572.0,0.0093
2571.0,0.0093
2570.0,0.0094
2569.0,0.0093
2568.0,0.0093
2567.0,0.0093
2566.0,0.0094
2565.0,0.0093
2564.0,0.0093
2563.0,0.0093
2562.0,0.0093
2561.0,0.0093
2560.0,0.0093
2559.0,0.0094
2558.0,0.0094
2557.0,0.0093
2556.0,0.0093
2555.0,0.0093
2554.0,0.0093
2553.0,0.0093
2552.0,0.0093
2551.0,0.0093
2550.0,0.0092
2549.0,0.0092
2548.0,0.0092
2547.0,0.0093
2546.0,0.0093
2545.0,0.0093
2544.0,0.0093
2543.0,0.0093
2542.0,0.0092
2541.0,0.0093
2540.0,0.0093
2539.0,0.0094
2538.0,0.0095
2537.0,0.0095
2536.0,0.0095
2535.0,0.0094
2534.0,0.0094
2533.0,0.0093
2532.0,0.0093
2531.0,0.0092
2530.0,0.0092
2529.0,0.0092
2528.0,0.0092
2527.0,0.0092
2526.0,0.0092
2525.0,0.0092
2524.0,0.0092
2523.0,0.0092
2522.0,0.0092
2521.0,0.0093
2520.0,0.0093
2519.0,0.0093
2518.0,0.0093
2517.0,0.0093
2516.0,0.0093
2515.0,0.0093
2514.0,0.0092
2513.0,0.0092
2512.0,0.0092
2511.0,0.0092
2510.0,0.0092
2509.0,0.0092
2508.0,0.0092
2507.0,0.0092
2506.0,0.0092
2505.0,0.0092
2504.0,0.0091
2503.0,0.0091
2502.0,0.0091
2501.0,0.0091
2500.0,0.0091
2499.0,0.0091
2498.0,0.0091
2497.0,0.0091
2496.0,0.0091
2495.0,0.0091
2494.0,0.0092
2493.0,0.0091
2492.0,0.0091
2491.0,0.009
2490.0,0.009
2489.0,0.009
2488.0,0.0091
2487.0,0.0091
2486.0,0.009
2485.0,0.009
2484.0,0.0089
2483.0,0.0089
2482.0,0.0088
2481.0,0.0088
2480.0,0.0088
2479.0,0.0088
2478.0,0.0088
2477.0,0.0088
2476.0,0.0088
2475.0,0.0088
2474.0,0.0087
2473.0,0.0087
2472.0,0.0087
2471.0,0.0087
2470.0,0.0087
2469.0,0.0088
2468.0,0.0087
2467.0,0.0087
2466.0,0.0087
2465.0,0.0087
2464.0,0.0087
2463.0,0.0087
2462.0,0.0087
2461.0,0.0087
2460.0,0.0086
2459.0,0.0086
2458.0,0.0086
2457.0,0.0086
2456.0,0.0086
2455.0,0.0086
2454.0,0.0086
2453.0,0.0086
2452.0,0.0086
2451.0,0.0086
2450.0,0.0086
2449.0,0.0086
2448.0,0.0086
2447.0,0.0086
2446.0,0.0086
2445.0,0.0085
2444.0,0.0085
2443.0,0.0085
2442.0,0.0085
2441.0,0.0086
2440.0,0.0086
2439.0,0.0086
2438.0,0.0085
2437.0,0.0084
2436.0,0.0084
2435.0,0.0084
2434.0,0.0085
2433.0,0.0085
2432.0,0.0086
2431.0,0.0086
2430.0,0.0086
2429.0,0.0087
2428.0,0.0087
2427.0,0.0087
2426.0,0.0087
2425.0,0.0086
2424.0,0.0086
2423.0,0.0086
2422.0,0.0086
2421.0,0.0086
2420.0,0.0086
2419.0,0.0086
2418.0,0.0086
2417.0,0.0086
2416.0,0.0087
2415.0,0.0087
2414.0,0.0087
2413.0,0.0087
2412.0,0.0087
2411.0,0.0087
2410.0,0.0087
2409.0,0.0087
2408.0,0.0087
2407.0,0.0088
2406.0,0.0088
2405.0,0.0089
2404.0,0.009
2403.0,0.009
2402.0,0.009
2401.0,0.009
2400.0,0.009
2399.0,0.009
2398.0,0.0089
2397.0,0.0088
2396.0,0.0087
2395.0,0.0087
2394.0,0.0087
2393.0,0.0088
2392.0,0.0089
2391.0,0.009
2390.0,0.0091
2389.0,0.0092
2388.0,0.0093
2387.0,0.0095
2386.0,0.0097
2385.0,0.0099
2384.0,0.0101
2383.0,0.0103
2382.0,0.0104
2381.0,0.0103
2380.0,0.0101
2379.0,0.0099
2378.0,0.0097
2377.0,0.0097
2376.0,0.0099
2375.0,0.0101
2374.0,0.0104
2373.0,0.0105
2372.0,0.0107
2371.0,0.0108
2370.0,0.0108
2369.0,0.0107
2368.0,0.0106
2367.0,0.0104
2366.0,0.0102
2365.0,0.0102
2364.0,0.0108
2363.0,0.0118
2362.0,0.0126
2361.0,0.0127
2360.0,0.0124
2359.0,0.0122
2358.0,0.0117
2357.0,0.011
2356.0,0.0107
2355.0,0.0108
2354.0,0.0107
2353.0,0.0102
2352.0,0.0099
2351.0,0.0104
2350.0,0.0113
2349.0,0.0117
2348.0,0.0113
2347.0,0.0104
2346.0,0.0099
2345.0,0.0104
2344.0,0.0115
2343.0,0.0124
2342.0,0.0126
2341.0,0.012
2340.0,0.0114
2339.0,0.0112
2338.0,0.011
2337.0,0.0106
2336.0,0.0103
2335.0,0.0101
2334.0,0.0098
2333.0,0.0094
2332.0,0.0091
2331.0,0.0094
2330.0,0.0099
2329.0,0.0106
2328.0,0.011
2327.0,0.0112
2326.0,0.0111
2325.0,0.0107
2324.0,0.0105
2323.0,0.0105
2322.0,0.0107
2321.0,0.0109
2320.0,0.011
2319.0,0.0112
2318.0,0.0114
2317.0,0.0115
2316.0,0.0115
2315.0,0.0114
2314.0,0.0112
2313.0,0.0113
2312.0,0.0115
2311.0,0.0117
2310.0,0.0119
2309.0,0.012
2308.0,0.0119
2307.0,0.0118
2306.0,0.0117
2305.0,0.0116
2304.0,0.0117
2303.0,0.0118
2302.0,0.012
2301.0,0.0121
2300.0,0.0121
2299.0,0.0121
2298.0,0.0121
2297.0,0.0121
2296.0,0.0121
2295.0,0.012
2294.0,0.0118
2293.0,0.0118
2292.0,0.0118
2291.0,0.0118
2290.0,0.0118
2289.0,0.0118
2288.0,0.0118
2287.0,0.0117
2286.0,0.0116
2285.0,0.0116
2284.0,0.0115
2283.0,0.0115
2282.0,0.0115
2281.0,0.0115
2280.0,0.0115
2279.0,0.0115
2278.0,0.0115
2277.0,0.0115
2276.0,0.0116
2275.0,0.0116
2274.0,0.0116
2273.0,0.0116
2272.0,0.0115
2271.0,0.0114
2270.0,0.0114
2269.0,0.0114
2268.0,0.0114
2267.0,0.0114
2266.0,0.0114
2265.0,0.0114
2264.0,0.0114
2263.0,0.0114
2262.0,0.0114
2261.0,0.0115
2260.0,0.0115
2259.0,0.0115
2258.0,0.0114
2257.0,0.0114
2256.0,0.0114
2255.0,0.0114
2254.0,0.0113
2253.0,0.0113
2252.0,0.0112
2251.0,0.0113
2250.0,0.0113
2249.0,0.0113
2248.0,0.0113
2247.0,0.0113
2246.0,0.0113
2245.0,0.0112
2244.0,0.0111
2243.0,0.0111
2242.0,0.0111
2241.0,0.0111
2240.0,0.0111
2239.0,0.011
2238.0,0.011
2237.0,0.0109
2236.0,0.0109
2235.0,0.0109
2234.0,0.0108
2233.0,0.0107
2232.0,0.0107
2231.0,0.0107
2230.0,0.0107
2229.0,0.0107
2228.0,0.0107
2227.0,0.0107
2226.0,0.0107
2225.0,0.0106
2224.0,0.0106
2223.0,0.0106
2222.0,0.0105
2221.0,0.0105
2220.0,0.0104
2219.0,0.0104
2218.0,0.0104
2217.0,0.0104
2216.0,0.0104
2215.0,0.0104
2214.0,0.0104
2213.0,0.0104
2212.0,0.0104
2211.0,0.0103
2210.0,0.0103
2209.0,0.0103
2208.0,0.0102
2207.0,0.0102
2206.0,0.0102
2205.0,0.0102
2204.0,0.0101
2203.0,0.0101
2202.0,0.0101
2201.0,0.01
2200.0,0.01
2199.0,0.0099
2198.0,0.0099
2197.0,0.0099
2196.0,0.0099
2195.0,0.0099
2194.0,0.01
2193.0,0.0099
2192.0,0.0099
2191.0,0.0098
2190.0,0.0097
2189.0,0.0097
2188.0,0.0097
2187.0,0.0097
2186.0,0.0097
2185.0,0.0097
2184.0,0.0096
2183.0,0.0096
2182.0,0.0096
2181.0,0.0096
2180.0,0.0096
2179.0,0.0096
2178.0,0.0096
2177.0,0.0096
2176.0,0.0096
2175.0,0.0096
2174.0,0.0096
2173.0,0.0096
2172.0,0.0096
2171.0,0.0095
2170.0,0.0095
2169.0,0.0094
2168.0,0.0094
2167.0,0.0094
2166.0,0.0095
2165.0,0.0095
2164.0,0.0095
2163.0,0.0095
2162.0,0.0094
2161.0,0.0094
2160.0,0.0094
2159.0,0.0094
2158.0,0.0095
2157.0,0.0095
2156.0,0.0095
2155.0,0.0095
2154.0,0.0095
2153.0,0.0095
2152.0,0.0095
2151.0,0.0095
2150.0,0.0095
2149.0,0.0095
2148.0,0.0095
2147.0,0.0095
2146.0,0.0095
2145.0,0.0095
2144.0,0.0095
2143.0,0.0095
2142.0,0.0094
2141.0,0.0094
2140.0,0.0094
2139.0,0.0094
2138.0,0.0094
2137.0,0.0094
2136.0,0.0094
2135.0,0.0094
2134.0,0.0094
2133.0,0.0094
2132.0,0.0094
2131.0,0.0094
2130.0,0.0094
2129.0,0.0093
2128.0,0.0093
2127.0,0.0092
2126.0,0.0092
2125.0,0.0092
2124.0,0.0093
2123.0,0.0093
2122.0,0.0092
2121.0,0.0092
2120.0,0.0091
2119.0,0.0091
2118.0,0.0091
2117.0,0.0091
2116.0,0.0091
2115.0,0.0091
2114.0,0.0091
2113.0,0.0091
2112.0,0.0091
2111.0,0.0091
2110.0,0.0092
2109.0,0.0092
2108.0,0.0092
2107.0,0.0092
2106.0,0.0092
2105.0,0.0091
2104.0,0.0091
2103.0,0.0091
2102.0,0.0091
2101.0,0.009
2100.0,0.0089
2099.0,0.0089
2098.0,0.0089
2097.0,0.0089
2096.0,0.0089
2095.0,0.009
2094.0,0.009
2093.0,0.009
2092.0,0.009
2091.0,0.0089
2090.0,0.0089
2089.0,0.0089
2088.0,0.0089
2087.0,0.009
2086.0,0.009
2085.0,0.0089
2084.0,0.0088
2083.0,0.0088
2082.0,0.0088
2081.0,0.0088
2080.0,0.0088
2079.0,0.0088
2078.0,0.0088
2077.0,0.0087
2076.0,0.0087
2075.0,0.0087
2074.0,0.0086
2073.0,0.0086
2072.0,0.0086
2071.0,0.0085
2070.0,0.0085
2069.0,0.0085
2068.0,0.0085
2067.0,0.0085
2066.0,0.0084
2065.0,0.0084
2064.0,0.0083
2063.0,0.0083
2062.0,0.0082
2061.0,0.0083
2060.0,0.0083
2059.0,0.0083
2058.0,0.0083
2057.0,0.0083
2056.0,0.0082
2055.0,0.0082
2054.0,0.0082
2053.0,0.0081
2052.0,0.0081
2051.0,0.0081
2050.0,0.0081
2049.0,0.0081
2048.0,0.008
2047.0,0.008
2046.0,0.008
2045.0,0.008
2044.0,0.0079
2043.0,0.0078
2042.0,0.0078
2041.0,0.0078
2040.0,0.0078
2039.0,0.0078
2038.0,0.0078
2037.0,0.0078
2036.0,0.0077
2035.0,0.0077
2034.0,0.0076
2033.0,0.0076
2032.0,0.0076
2031.0,0.0076
2030.0,0.0076
2029.0,0.0076
2028.0,0.0076
2027.0,0.0076
2026.0,0.0076
2025.0,0.0075
2024.0,0.0075
2023.0,0.0074
2022.0,0.0074
2021.0,0.0074
2020.0,0.0074
2019.0,0.0075
2018.0,0.0075
2017.0,0.0074
2016.0,0.0074
2015.0,0.0074
2014.0,0.0074
2013.0,0.0074
2012.0,0.0074
2011.0,0.0074
2010.0,0.0074
2009.0,0.0075
2008.0,0.0075
2007.0,0.0075
2006.0,0.0075
2005.0,0.0075
2004.0,0.0075
2003.0,0.0075
2002.0,0.0075
2001.0,0.0074
2000.0,0.0074
1999.0,0.0074
1998.0,0.0075
1997.0,0.0075
1996.0,0.0075
1995.0,0.0076
1994.0,0.0077
1993.0,0.0077
1992.0,0.0077
1991.0,0.0077
1990.0,0.0077
1989.0,0.0076
1988.0,0.0076
1987.0,0.0077
1986.0,0.0077
1985.0,0.0077
1984.0,0.0078
1983.0,0.0078
1982.0,0.0078
1981.0,0.0078
1980.0,0.0077
1979.0,0.0078
1978.0,0.0078
1977.0,0.0078
1976.0,0.0079
1975.0,0.0079
1974.0,0.0079
1973.0,0.0078
1972.0,0.0078
1971.0,0.0078
1970.0,0.0079
1969.0,0.0079
1968.0,0.0079
1967.0,0.0079
1966.0,0.008
1965.0,0.0081
1964.0,0.0081
1963.0,0.0081
1962.0,0.0081
1961.0,0.0082
1960.0,0.0083
1959.0,0.0084
1958.0,0.0085
1957.0,0.0086
1956.0,0.0086
1955.0,0.0086
1954.0,0.0086
1953.0,0.0086
1952.0,0.0086
1951.0,0.0086
1950.0,0.0086
1949.0,0.0086
1948.0,0.0086
1947.0,0.0086
1946.0,0.0086
1945.0,0.0086
1944.0,0.0086
1943.0,0.0086
1942.0,0.0085
1941.0,0.0084
1940.0,0.0083
1939.0,0.0082
1938.0,0.0081
1937.0,0.0081
1936.0,0.008
1935.0,0.0079
1934.0,0.0078
1933.0,0.0077
1932.0,0.0076
1931.0,0.0076
1930.0,0.0075
1929.0,0.0074
1928.0,0.0073
1927.0,0.0072
1926.0,0.0072
1925.0,0.0072
1924.0,0.0072
1923.0,0.0071
1922.0,0.007
1921.0,0.007
1920.0,0.0071
1919.0,0.0071
1918.0,0.0071
1917.0,0.0069
1916.0,0.0068
1915.0,0.0067
1914.0,0.0067
1913.0,0.0066
1912.0,0.0065
1911.0,0.0064
1910.0,0.0063
1909.0,0.0063
1908.0,0.0062
1907.0,0.0062
1906.0,0.0062
1905.0,0.0061
1904.0,0.006
1903.0,0.0059
1902.0,0.0059
1901.0,0.0059
1900.0,0.0059
1899.0,0.0059
1898.0,0.0058
1897.0,0.0058
1896.0,0.0057
1895.0,0.0057
1894.0,0.0056
1893.0,0.0056
1892.0,0.0056
1891.0,0.0056
1890.0,0.0056
1889.0,0.0055
1888.0,0.0054
1887.0,0.0054
1886.0,0.0053
1885.0,0.0053
1884.0,0.0053
1883.0,0.0052
1882.0,0.0052
1881.0,0.0052
1880.0,0.0052
1879.0,0.0052
1878.0,0.0052
1877.0,0.0052
1876.0,0.0051
1875.0,0.0051
1874.0,0.0051
1873.0,0.0051
1872.0,0.0052
1871.0,0.0052
1870.0,0.0052
1869.0,0.005
1868.0,0.0049
1867.0,0.0047
1866.0,0.0047
1865.0,0.0048
1864.0,0.0048
1863.0,0.0048
1862.0,0.0048
1861.0,0.0048
1860.0,0.0047
1859.0,0.0046
1858.0,0.0045
1857.0,0.0045
1856.0,0.0045
1855.0,0.0046
1854.0,0.0046
1853.0,0.0046
1852.0,0.0045
1851.0,0.0045
1850.0,0.0044
1849.0,0.0044
1848.0,0.0044
1847.0,0.0045
1846.0,0.0047
1845.0,0.0047
1844.0,0.0047
1843.0,0.0045
1842.0,0.0043
1841.0,0.0042
1840.0,0.0042
1839.0,0.0042
1838.0,0.0042
1837.0,0.0041
1836.0,0.0041
1835.0,0.0041
1834.0,0.0042
1833.0,0.0042
1832.0,0.0042
1831.0,0.0042
1830.0,0.0041
1829.0,0.004
1828.0,0.004
1827.0,0.0041
1826.0,0.0041
1825.0,0.004
1824.0,0.0039
1823.0,0.0038
1822.0,0.0037
1821.0,0.0036
1820.0,0.0036
1819.0,0.0035
1818.0,0.0035
1817.0,0.0034
1816.0,0.0033
1815.0,0.0032
1814.0,0.0031
1813.0,0.003
1812.0,0.0029
1811.0,0.0028
1810.0,0.0026
1809.0,0.0025
1808.0,0.0024
1807.0,0.0024
1806.0,0.0024
1805.0,0.0023
1804.0,0.0022
1803.0,0.0022
1802.0,0.0022
1801.0,0.0022
1800.0,0.002
1799.0,0.0018
1798.0,0.0017
1797.0,0.0015
1796.0,0.0015
1795.0,0.0016
1794.0,0.0016
1793.0,0.0016
1792.0,0.0013
1791.0,0.0012
1790.0,0.0011
1789.0,0.0009
1788.0,0.0009
1787.0,0.0009
1786.0,0.0008
1785.0,0.0007
1784.0,0.0005
1783.0,0.0003
1782.0,0.0003
1781.0,0.0001
1780.0,-0.0002
1779.0,-0.0003
1778.0,-0.0003
1777.0,-0.0003
1776.0,-0.0003
1775.0,-0.0002
1774.0,-0.0003
1773.0,-0.0007
1772.0,-0.0012
1771.0,-0.0012
1770.0,-0.001
1769.0,-0.0009
1768.0,-0.0009
1767.0,-0.0011
1766.0,-0.0012
1765.0,-0.0012
1764.0,-0.0012
1763.0,-0.001
1762.0,-0.0009
1761.0,-0.001
1760.0,-0.001
1759.0,-0.0007
1758.0,-0.0003
1757.0,-0.0
1756.0,0.0003
1755.0,0.0009
1754.0,0.0017
1753.0,0.0025
1752.0,0.0035
1751.0,0.0051
1750.0,0.0071
1749.0,0.0093
1748.0,0.0119
1747.0,0.0149
1746.0,0.0183
1745.0,0.0222
1744.0,0.0268
1743.0,0.0321
1742.0,0.0378
1741.0,0.0442
1740.0,0.0522
1739.0,0.0602
1738.0,0.0663
1737.0,0.0708
1736.0,0.0762
1735.0,0.0864
1734.0,0.1004
1733.0,0.111
1732.0,0.1178
1731.0,0.1247
1730.0,0.133
1729.0,0.1415
1728.0,0.1492
1727.0,0.1564
1726.0,0.1636
1725.0,0.1715
1724.0,0.1799
1723.0,0.1879
1722.0,0.1938
1721.0,0.1974
1720.0,0.2001
1719.0,0.2049
1718.0,0.2135
1717.0,0.2214
1716.0,0.2245
1715.0,0.2242
1714.0,0.2219
1713.0,0.217
1712.0,0.21
1711.0,0.2016
1710.0,0.1926
1709.0,0.183
1708.0,0.1728
1707.0,0.1619
1706.0,0.1507
1705.0,0.1407
1704.0,0.1326
1703.0,0.1256
1702.0,0.1187
1701.0,0.1112
1700.0,0.1039
1699.0,0.0981
1698.0,0.0935
1697.0,0.0894
1696.0,0.0854
1695.0,0.0817
1694.0,0.0786
1693.0,0.0761
1692.0,0.0737
1691.0,0.0713
1690.0,0.069
1689.0,0.0672
1688.0,0.0656
1687.0,0.0636
1686.0,0.0614
1685.0,0.0601
1684.0,0.0599
1683.0,0.0592
1682.0,0.0579
1681.0,0.0566
1680.0,0.0552
1679.0,0.0539
1678.0,0.0525
1677.0,0.0514
1676.0,0.0505
1675.0,0.0494
1674.0,0.0482
1673.0,0.0469
1672.0,0.0458
1671.0,0.045
1670.0,0.0443
1669.0,0.0437
1668.0,0.0429
1667.0,0.0419
1666.0,0.0408
1665.0,0.04
1664.0,0.0394
1663.0,0.0391
1662.0,0.0388
1661.0,0.0383
1660.0,0.0378
1659.0,0.0374
1658.0,0.0371
1657.0,0.0369
1656.0,0.0369
1655.0,0.0371
1654.0,0.0396
1653.0,0.044
1652.0,0.0461
1651.0,0.0466
1650.0,0.0474
1649.0,0.049
1648.0,0.0526
1647.0,0.0583
1646.0,0.0631
1645.0,0.0659
1644.0,0.0679
1643.0,0.0703
1642.0,0.073
1641.0,0.0761
1640.0,0.079
1639.0,0.0815
1638.0,0.0835
1637.0,0.0856
1636.0,0.0875
1635.0,0.0877
1634.0,0.0858
1633.0,0.0828
1632.0,0.0794
1631.0,0.0756
1630.0,0.0715
1629.0,0.0673
1628.0,0.063
1627.0,0.0592
1626.0,0.0558
1625.0,0.0524
1624.0,0.0486
1623.0,0.0449
1622.0,0.0421
1621.0,0.0402
1620.0,0.0387
1619.0,0.0373
1618.0,0.0362
1617.0,0.0356
1616.0,0.0352
1615.0,0.0347
1614.0,0.0343
1613.0,0.0337
1612.0,0.033
1611.0,0.0322
1610.0,0.0314
1609.0,0.0306
1608.0,0.0297
1607.0,0.0289
1606.0,0.028
1605.0,0.0273
1604.0,0.0266
1603.0,0.0259
1602.0,0.0254
1601.0,0.0249
1600.0,0.0244
1599.0,0.024
1598.0,0.0236
1597.0,0.0233
1596.0,0.023
1595.0,0.0227
1594.0,0.0225
1593.0,0.0223
1592.0,0.0223
1591.0,0.0222
1590.0,0.0223
1589.0,0.0224
1588.0,0.0226
1587.0,0.0229
1586.0,0.0234
1585.0,0.0243
1584.0,0.0255
1583.0,0.027
1582.0,0.0287
1581.0,0.0303
1580.0,0.0315
1579.0,0.0322
1578.0,0.0322
1577.0,0.0316
1576.0,0.0305
1575.0,0.0294
1574.0,0.0285
1573.0,0.0278
1572.0,0.0269
1571.0,0.026
1570.0,0.0252
1569.0,0.0246
1568.0,0.0241
1567.0,0.0236
1566.0,0.0231
1565.0,0.0227
1564.0,0.0224
1563.0,0.0221
1562.0,0.0219
1561.0,0.0215
1560.0,0.0212
1559.0,0.0213
1558.0,0.0212
1557.0,0.021
1556.0,0.0208
1555.0,0.0206
1554.0,0.0204
1553.0,0.0201
1552.0,0.02
1551.0,0.0199
1550.0,0.0197
1549.0,0.0196
1548.0,0.0194
1547.0,0.0191
1546.0,0.019
1545.0,0.0189
1544.0,0.019
1543.0,0.0189
1542.0,0.0186
1541.0,0.0184
1540.0,0.0183
1539.0,0.0182
1538.0,0.0182
1537.0,0.0184
1536.0,0.0186
1535.0,0.0189
1534.0,0.0192
1533.0,0.0194
1532.0,0.0194
1531.0,0.0192
1530.0,0.0191
1529.0,0.019
1528.0,0.019
1527.0,0.0189
1526.0,0.0189
1525.0,0.0188
1524.0,0.0186
1523.0,0.0183
1522.0,0.018
1521.0,0.0177
1520.0,0.0174
1519.0,0.0172
1518.0,0.017
1517.0,0.0169
1516.0,0.0169
1515.0,0.017
1514.0,0.0171
1513.0,0.0174
1512.0,0.0179
1511.0,0.0184
1510.0,0.0192
1509.0,0.0203
1508.0,0.0235
1507.0,0.0292
1506.0,0.0329
1505.0,0.0332
1504.0,0.0318
1503.0,0.0299
1502.0,0.0276
1501.0,0.0252
1500.0,0.023
1499.0,0.021
1498.0,0.0193
1497.0,0.0178
1496.0,0.0167
1495.0,0.0159
1494.0,0.0155
1493.0,0.0153
1492.0,0.0153
1491.0,0.0151
1490.0,0.015
1489.0,0.0149
1488.0,0.0149
1487.0,0.0149
1486.0,0.0148
1485.0,0.0149
1484.0,0.015
1483.0,0.0152
1482.0,0.0155
1481.0,0.0158
1480.0,0.0162
1479.0,0.0165
1478.0,0.0168
1477.0,0.0171
1476.0,0.0175
1475.0,0.0176
1474.0,0.0178
1473.0,0.0181
1472.0,0.0184
1471.0,0.0185
1470.0,0.0186
1469.0,0.0189
1468.0,0.0194
1467.0,0.02
1466.0,0.0211
1465.0,0.0226
1464.0,0.0241
1463.0,0.0253
1462.0,0.0262
1461.0,0.0272
1460.0,0.0284
1459.0,0.0299
1458.0,0.0323
1457.0,0.035
1456.0,0.0364
1455.0,0.0366
1454.0,0.0366
1453.0,0.0368
1452.0,0.0368
1451.0,0.0367
1450.0,0.0366
1449.0,0.0365
1448.0,0.0366
1447.0,0.0365
1446.0,0.0365
1445.0,0.0364
1444.0,0.0364
1443.0,0.0363
1442.0,0.0362
1441.0,0.0361
1440.0,0.0359
1439.0,0.0355
1438.0,0.035
1437.0,0.034
1436.0,0.0325
1435.0,0.0307
1434.0,0.0289
1433.0,0.0273
1432.0,0.0257
1431.0,0.0241
1430.0,0.0225
1429.0,0.0211
1428.0,0.0199
1427.0,0.0189
1426.0,0.0181
1425.0,0.0174
1424.0,0.017
1423.0,0.0169
1422.0,0.0171
1421.0,0.0176
1420.0,0.0188
1419.0,0.0209
1418.0,0.0238
1417.0,0.0272
1416.0,0.0317
1415.0,0.0374
1414.0,0.0446
1413.0,0.0532
1412.0,0.0625
1411.0,0.0708
1410.0,0.0766
1409.0,0.0793
1408.0,0.079
1407.0,0.076
1406.0,0.071
1405.0,0.0653
1404.0,0.0599
1403.0,0.0554
1402.0,0.0518
1401.0,0.0488
1400.0,0.0459
1399.0,0.0432
1398.0,0.0408
1397.0,0.0389
1396.0,0.0372
1395.0,0.0355
1394.0,0.0338
1393.0,0.0323
1392.0,0.031
1391.0,0.0298
1390.0,0.0288
1389.0,0.0279
1388.0,0.0272
1387.0,0.0265
1386.0,0.026
1385.0,0.0258
1384.0,0.0257
1383.0,0.0259
1382.0,0.0264
1381.0,0.0271
1380.0,0.0281
1379.0,0.0292
1378.0,0.0304
1377.0,0.0317
1376.0,0.0331
1375.0,0.0348
1374.0,0.0367
1373.0,0.0381
1372.0,0.039
1371.0,0.0394
1370.0,0.0392
1369.0,0.0386
1368.0,0.0373
1367.0,0.0355
1366.0,0.0333
1365.0,0.0308
1364.0,0.0281
1363.0,0.0252
1362.0,0.0226
1361.0,0.0206
1360.0,0.019
1359.0,0.0177
1358.0,0.0167
1357.0,0.0159
1356.0,0.0154
1355.0,0.015
1354.0,0.0148
1353.0,0.0148
1352.0,0.015
1351.0,0.0154
1350.0,0.016
1349.0,0.0169
1348.0,0.018
1347.0,0.0193
1346.0,0.0209
1345.0,0.0225
1344.0,0.0242
1343.0,0.0257
1342.0,0.027
1341.0,0.028
1340.0,0.0284
1339.0,0.028
1338.0,0.0268
1337.0,0.025
1336.0,0.0229
1335.0,0.0207
1334.0,0.0186
1333.0,0.0168
1332.0,0.0154
1331.0,0.0143
1330.0,0.0137
1329.0,0.0134
1328.0,0.0135
1327.0,0.0138
1326.0,0.0145
1325.0,0.0153
1324.0,0.0163
1323.0,0.0173
1322.0,0.0185
1321.0,0.0197
1320.0,0.0209
1319.0,0.0222
1318.0,0.0235
1317.0,0.0249
1316.0,0.0262
1315.0,0.0276
1314.0,0.0291
1313.0,0.0308
1312.0,0.0326
1311.0,0.0345
1310.0,0.0364
1309.0,0.0385
1308.0,0.0407
1307.0,0.0427
1306.0,0.0448
1305.0,0.0468
1304.0,0.049
1303.0,0.0516
1302.0,0.0545
1301.0,0.0581
1300.0,0.0623
1299.0,0.067
1298.0,0.0721
1297.0,0.0775
1296.0,0.0831
1295.0,0.0886
1294.0,0.094
1293.0,0.0993
1292.0,0.1045
1291.0,0.1095
1290.0,0.1142
1289.0,0.1188
1288.0,0.1233
1287.0,0.1274
1286.0,0.131
1285.0,0.1344
1284.0,0.1374
1283.0,0.14
1282.0,0.1423
1281.0,0.1443
1280.0,0.1461
1279.0,0.1476
1278.0,0.1491
1277.0,0.1507
1276.0,0.1528
1275.0,0.1553
1274.0,0.1583
1273.0,0.1624
1272.0,0.1676
1271.0,0.1737
1270.0,0.1804
1269.0,0.1878
1268.0,0.1957
1267.0,0.2037
1266.0,0.2116
1265.0,0.2193
1264.0,0.2265
1263.0,0.233
1262.0,0.2385
1261.0,0.2432
1260.0,0.2472
1259.0,0.25
1258.0,0.2517
1257.0,0.2531
1256.0,0.2544
1255.0,0.2558
1254.0,0.2574
1253.0,0.2596
1252.0,0.2626
1251.0,0.266
1250.0,0.2697
1249.0,0.274
1248.0,0.2787
1247.0,0.2834
1246.0,0.2879
1245.0,0.2923
1244.0,0.2964
1243.0,0.2996
1242.0,0.3018
1241.0,0.3029
1240.0,0.3029
1239.0,0.3011
1238.0,0.2974
1237.0,0.292
1236.0,0.285
1235.0,0.2763
1234.0,0.2664
1233.0,0.2559
1232.0,0.2453
1231.0,0.2346
1230.0,0.224
1229.0,0.2139
1228.0,0.2044
1227.0,0.1952
1226.0,0.1864
1225.0,0.1781
1224.0,0.1704
1223.0,0.1631
1222.0,0.1561
1221.0,0.1496
1220.0,0.1435
1219.0,0.1378
1218.0,0.1325
1217.0,0.1277
1216.0,0.1234
1215.0,0.1193
1214.0,0.1156
1213.0,0.1121
1212.0,0.1089
1211.0,0.1058
1210.0,0.1029
1209.0,0.1002
1208.0,0.0978
1207.0,0.0955
1206.0,0.0931
1205.0,0.0909
1204.0,0.0888
1203.0,0.0868
1202.0,0.0849
1201.0,0.083
1200.0,0.0812
1199.0,0.0794
1198.0,0.0776
1197.0,0.0759
1196.0,0.0743
1195.0,0.0726
1194.0,0.071
1193.0,0.0694
1192.0,0.0679
1191.0,0.0665
1190.0,0.0653
1189.0,0.0642
1188.0,0.0632
1187.0,0.0624
1186.0,0.0619
1185.0,0.0616
1184.0,0.0617
1183.0,0.0619
1182.0,0.0625
1181.0,0.0632
1180.0,0.0641
1179.0,0.0651
1178.0,0.066
1177.0,0.0669
1176.0,0.0674
1175.0,0.0676
1174.0,0.0673
1173.0,0.0666
1172.0,0.0653
1171.0,0.0637
1170.0,0.0617
1169.0,0.0595
1168.0,0.0573
1167.0,0.0552
1166.0,0.0532
1165.0,0.0515
1164.0,0.0499
1163.0,0.0487
1162.0,0.0476
1161.0,0.0468
1160.0,0.0461
1159.0,0.0456
1158.0,0.0454
1157.0,0.0454
1156.0,0.0457
1155.0,0.0463
1154.0,0.0472
1153.0,0.0484
1152.0,0.05
1151.0,0.052
1150.0,0.0542
1149.0,0.0568
1148.0,0.0596
1147.0,0.0628
1146.0,0.0662
1145.0,0.0699
1144.0,0.0738
1143.0,0.0778
1142.0,0.0817
1141.0,0.0855
1140.0,0.0891
1139.0,0.0926
1138.0,0.0958
1137.0,0.0989
1136.0,0.1018
1135.0,0.1045
1134.0,0.1071
1133.0,0.1098
1132.0,0.1127
1131.0,0.1158
1130.0,0.1192
1129.0,0.1231
1128.0,0.1276
1127.0,0.1325
1126.0,0.1379
1125.0,0.1437
1124.0,0.1498
1123.0,0.1559
1122.0,0.1616
1121.0,0.167
1120.0,0.1717
1119.0,0.1754
1118.0,0.1777
1117.0,0.1787
1116.0,0.1783
1115.0,0.1767
1114.0,0.1743
1113.0,0.1719
1112.0,0.1702
1111.0,0.1698
1110.0,0.1711
1109.0,0.1744
1108.0,0.1797
1107.0,0.1864
1106.0,0.1941
1105.0,0.2029
1104.0,0.2125
1103.0,0.2224
1102.0,0.2324
1101.0,0.2424
1100.0,0.252
1099.0,0.2609
1098.0,0.2686
1097.0,0.2751
1096.0,0.2804
1095.0,0.2842
1094.0,0.2863
1093.0,0.2872
1092.0,0.2869
1091.0,0.2852
1090.0,0.2823
1089.0,0.2786
1088.0,0.2742
1087.0,0.2691
1086.0,0.2633
1085.0,0.2571
1084.0,0.2507
1083.0,0.2436
1082.0,0.2359
1081.0,0.2277
1080.0,0.2193
1079.0,0.2106
1078.0,0.2018
1077.0,0.1932
1076.0,0.185
1075.0,0.1772
1074.0,0.1697
1073.0,0.1627
1072.0,0.1563
1071.0,0.1503
1070.0,0.1447
1069.0,0.1397
1068.0,0.1353
1067.0,0.1313
1066.0,0.1276
1065.0,0.1242
1064.0,0.1212
1063.0,0.1185
1062.0,0.1161
1061.0,0.1141
1060.0,0.1124
1059.0,0.1111
1058.0,0.1102
1057.0,0.1098
1056.0,0.1098
1055.0,0.1103
1054.0,0.1111
1053.0,0.1123
1052.0,0.114
1051.0,0.1158
1050.0,0.1178
1049.0,0.12
1048.0,0.1221
1047.0,0.124
1046.0,0.1258
1045.0,0.1273
1044.0,0.1286
1043.0,0.1296
1042.0,0.13
1041.0,0.1301
1040.0,0.1298
1039.0,0.1292
1038.0,0.1282
1037.0,0.1272
1036.0,0.126
1035.0,0.1249
1034.0,0.1237
1033.0,0.1226
1032.0,0.1215
1031.0,0.1204
1030.0,0.1192
1029.0,0.1181
1028.0,0.1172
1027.0,0.1166
1026.0,0.1167
1025.0,0.118
1024.0,0.1213
1023.0,0.1271
1022.0,0.136
1021.0,0.148
1020.0,0.1622
1019.0,0.1767
1018.0,0.1889
1017.0,0.1963
1016.0,0.1969
1015.0,0.1907
1014.0,0.1795
1013.0,0.1664
1012.0,0.1538
1011.0,0.1431
1010.0,0.1344
1009.0,0.1277
1008.0,0.1222
1007.0,0.1176
1006.0,0.1137
1005.0,0.1105
1004.0,0.108
1003.0,0.1058
1002.0,0.1038
1001.0,0.1022
1000.0,0.1007
999.0,0.0994
998.0,0.098
997.0,0.0967
996.0,0.0956
995.0,0.0945
994.0,0.0936
993.0,0.0929
992.0,0.0923
991.0,0.0917
990.0,0.0912
989.0,0.0907
988.0,0.0904
987.0,0.0901
986.0,0.0899
985.0,0.0896
984.0,0.0895
983.0,0.0894
982.0,0.0894
981.0,0.0893
980.0,0.0893
979.0,0.0893
978.0,0.0893
977.0,0.0894
976.0,0.0895
975.0,0.0895
974.0,0.0893
973.0,0.089
972.0,0.0887
971.0,0.0884
970.0,0.088
969.0,0.0875
968.0,0.0868
967.0,0.0859
966.0,0.085
965.0,0.0842
964.0,0.0834
963.0,0.0826
962.0,0.0818
961.0,0.0811
960.0,0.0804
959.0,0.0797
958.0,0.079
957.0,0.0784
956.0,0.0778
955.0,0.0772
954.0,0.0767
953.0,0.0762
952.0,0.0757
951.0,0.0752
950.0,0.0748
949.0,0.0745
948.0,0.0742
947.0,0.0739
946.0,0.0735
945.0,0.0731
944.0,0.0728
943.0,0.0725
942.0,0.0722
941.0,0.072
940.0,0.0718
939.0,0.0715
938.0,0.0713
937.0,0.071
936.0,0.0707
935.0,0.0704
934.0,0.0701
933.0,0.0699
932.0,0.0698
931.0,0.0696
930.0,0.0694
929.0,0.0692
928.0,0.069
927.0,0.0687
926.0,0.0682
925.0,0.0678
924.0,0.0673
923.0,0.0669
922.0,0.0665
921.0,0.0663
920.0,0.0661
919.0,0.0659
918.0,0.0657
917.0,0.0655
916.0,0.0654
915.0,0.0654
914.0,0.0655
913.0,0.066
912.0,0.0667
911.0,0.0676
910.0,0.0685
909.0,0.0696
908.0,0.0709
907.0,0.0724
906.0,0.074
905.0,0.0757
904.0,0.0774
903.0,0.079
902.0,0.0805
901.0,0.0819
900.0,0.083
899.0,0.0839
898.0,0.0846
897.0,0.085
896.0,0.0853
895.0,0.0855
894.0,0.0856
893.0,0.0858
892.0,0.086
891.0,0.0861
890.0,0.0862
889.0,0.0864
888.0,0.0868
887.0,0.0876
886.0,0.0885
885.0,0.0898
884.0,0.0913
883.0,0.0933
882.0,0.0957
881.0,0.0986
880.0,0.1022
879.0,0.1061
878.0,0.1104
877.0,0.1148
876.0,0.1192
875.0,0.123
874.0,0.1259
873.0,0.1274
872.0,0.1274
871.0,0.1257
870.0,0.1226
869.0,0.1188
868.0,0.1147
867.0,0.1106
866.0,0.1067
865.0,0.1032
864.0,0.1
863.0,0.0973
862.0,0.095
861.0,0.0932
860.0,0.0919
859.0,0.091
858.0,0.0902
857.0,0.0897
856.0,0.0892
855.0,0.0889
854.0,0.0887
853.0,0.0887
852.0,0.0887
851.0,0.0887
850.0,0.0887
849.0,0.0886
848.0,0.0886
847.0,0.0886
846.0,0.0885
845.0,0.0885
844.0,0.0886
843.0,0.0886
842.0,0.0886
841.0,0.0886
840.0,0.0885
839.0,0.0883
838.0,0.0878
837.0,0.0872
836.0,0.0866
835.0,0.0859
834.0,0.0851
833.0,0.0844
832.0,0.0839
831.0,0.0833
830.0,0.0827
829.0,0.0821
828.0,0.0816
827.0,0.0811
826.0,0.0805
825.0,0.08
824.0,0.0796
823.0,0.0791
822.0,0.0788
821.0,0.0787
820.0,0.0787
819.0,0.0788
818.0,0.0787
817.0,0.0785
816.0,0.0784
815.0,0.0783
814.0,0.0782
813.0,0.0782
812.0,0.0782
811.0,0.0782
810.0,0.0782
809.0,0.0781
808.0,0.078
807.0,0.0778
806.0,0.0774
805.0,0.0771
804.0,0.0768
803.0,0.0764
802.0,0.0759
801.0,0.0754
800.0,0.0751
799.0,0.0754
798.0,0.0764
797.0,0.0783
796.0,0.0809
795.0,0.0837
794.0,0.0859
793.0,0.087
792.0,0.087
791.0,0.0858
790.0,0.0839
789.0,0.0818
788.0,0.0796
787.0,0.0775
786.0,0.0754
785.0,0.0735
784.0,0.0719
783.0,0.0704
782.0,0.069
781.0,0.0677
780.0,0.0665
779.0,0.0654
778.0,0.0645
777.0,0.0639
776.0,0.0633
775.0,0.0625
774.0,0.0615
773.0,0.0603
772.0,0.0591
771.0,0.058
770.0,0.0569
769.0,0.0559
768.0,0.0551
767.0,0.0543
766.0,0.0535
765.0,0.0527
764.0,0.052
763.0,0.0512
762.0,0.0502
761.0,0.0492
760.0,0.0483
759.0,0.0472
758.0,0.0461
757.0,0.0451
756.0,0.0441
755.0,0.0431
754.0,0.0421
753.0,0.0411
752.0,0.0401
751.0,0.0389
750.0,0.0377
749.0,0.0366
748.0,0.0357
747.0,0.0349
746.0,0.0344
745.0,0.0345
744.0,0.0354
743.0,0.0374
742.0,0.041
741.0,0.0468
740.0,0.0551
739.0,0.0659
738.0,0.0786
737.0,0.093
736.0,0.1084
735.0,0.1244
734.0,0.1408
733.0,0.158
732.0,0.1764
731.0,0.1962
730.0,0.2176
729.0,0.241
728.0,0.2661
727.0,0.2912
726.0,0.313
725.0,0.328
724.0,0.3329
723.0,0.3262
722.0,0.3096
721.0,0.2868
720.0,0.2618
719.0,0.2383
718.0,0.2181
717.0,0.2016
716.0,0.1884
715.0,0.1778
714.0,0.1695
713.0,0.163
712.0,0.1579
711.0,0.1536
710.0,0.1498
709.0,0.1466
708.0,0.1437
707.0,0.141
706.0,0.1384
705.0,0.136
704.0,0.134
703.0,0.1322
702.0,0.13
701.0,0.1275
700.0,0.1248
699.0,0.1219
698.0,0.1192
697.0,0.117
696.0,0.1153
695.0,0.1137
694.0,0.1121
693.0,0.1104
692.0,0.1088
691.0,0.1073
690.0,0.1061
689.0,0.1055
688.0,0.1055
687.0,0.1054
686.0,0.1051
685.0,0.1048
684.0,0.1046
683.0,0.1045
682.0,0.1044
681.0,0.1046
680.0,0.1051
679.0,0.1054
678.0,0.1052
677.0,0.1049
676.0,0.1048
675.0,0.1048
674.0,0.1047
673.0,0.1047
672.0,0.1045
671.0,0.1034
670.0,0.1011
669.0,0.0988
668.0,0.0986
667.0,0.1005
666.0,0.1027
665.0,0.1038
664.0,0.1041
663.0,0.1042
662.0,0.1042
661.0,0.1044
660.0,0.1047
659.0,0.1049
658.0,0.1046
657.0,0.1041
656.0,0.1035
655.0,0.1031
654.0,0.1033
653.0,0.104
652.0,0.1049
651.0,0.1056
650.0,0.1062
649.0,0.1073
648.0,0.1086
647.0,0.1094
646.0,0.1095
645.0,0.1097
644.0,0.1105
643.0,0.1115
642.0,0.1122
641.0,0.1131
640.0,0.1147
639.0,0.1168
638.0,0.1191
637.0,0.1217
636.0,0.1243
635.0,0.1263
634.0,0.1274
633.0,0.1281
632.0,0.1284
631.0,0.1278
630.0,0.1265
629.0,0.125
628.0,0.1233
627.0,0.1212
626.0,0.1192
625.0,0.1185
624.0,0.119
623.0,0.1194
622.0,0.1187
621.0,0.1174
620.0,0.1167
619.0,0.1168
618.0,0.1174
617.0,0.118
616.0,0.1182
615.0,0.1176
614.0,0.1169
613.0,0.117
612.0,0.1179
611.0,0.1182
610.0,0.1175
609.0,0.1165
608.0,0.1161
607.0,0.1155
606.0,0.1142
605.0,0.1128
604.0,0.1115
603.0,0.1101
602.0,0.1086
601.0,0.1075
600.0,0.1069
