cm-1,A
4000.0,0.006
3999.0,0.006
3998.0,0.006
3997.0,0.0061
3996.0,0.0061
3995.0,0.0062
3994.0,0.0062
3993.0,0.0062
3992.0,0.0063
3991.0,0.0063
3990.0,0.0063
3989.0,0.0064
3988.0,0.0064
3987.0,0.0063
3986.0,0.0063
3985.0,0.0063
3984.0,0.0063
3983.0,0.0062
3982.0,0.0062
3981.0,0.0062
3980.0,0.0062
3979.0,0.0061
3978.0,0.006
3977.0,0.006
3976.0,0.0059
3975.0,0.0059
3974.0,0.0059
3973.0,0.006
3972.0,0.006
3971.0,0.006
3970.0,0.006
3969.0,0.0061
3968.0,0.0062
3967.0,0.0063
3966.0,0.0063
3965.0,0.0064
3964.0,0.0063
3963.0,0.0063
3962.0,0.0062
3961.0,0.0061
3960.0,0.006
3959.0,0.006
3958.0,0.0059
3957.0,0.0059
3956.0,0.0059
3955.0,0.0059
3954.0,0.0059
3953.0,0.006
3952.0,0.0061
3951.0,0.0061
3950.0,0.0062
3949.0,0.0063
3948.0,0.0063
3947.0,0.0064
3946.0,0.0064
3945.0,0.0064
3944.0,0.0064
3943.0,0.0063
3942.0,0.0063
3941.0,0.0063
3940.0,0.0062
3939.0,0.0062
3938.0,0.0062
3937.0,0.0062
3936.0,0.0063
3935.0,0.0064
3934.0,0.0064
3933.0,0.0064
3932.0,0.0063
3931.0,0.0063
3930.0,0.0062
3929.0,0.0062
3928.0,0.0062
3927.0,0.0062
3926.0,0.0062
3925.0,0.0062
3924.0,0.0062
3923.0,0.0063
3922.0,0.0064
3921.0,0.0064
3920.0,0.0064
3919.0,0.0063
3918.0,0.0062
3917.0,0.0062
3916.0,0.0062
3915.0,0.0062
3914.0,0.0063
3913.0,0.0063
3912.0,0.0064
3911.0,0.0063
3910.0,0.0063
3909.0,0.0062
3908.0,0.0062
3907.0,0.0062
3906.0,0.0062
3905.0,0.0062
3904.0,0.0063
3903.0,0.0063
3902.0,0.0063
3901.0,0.0063
3900.0,0.0063
3899.0,0.0063
3898.0,0.0063
3897.0,0.0064
3896.0,0.0064
3895.0,0.0064
3894.0,0.0064
3893.0,0.0063
3892.0,0.0063
3891.0,0.0064
3890.0,0.0064
3889.0,0.0065
3888.0,0.0066
3887.0,0.0065
3886.0,0.0063
3885.0,0.0062
3884.0,0.0062
3883.0,0.0063
3882.0,0.0065
3881.0,0.0067
3880.0,0.0067
3879.0,0.0067
3878.0,0.0067
3877.0,0.0066
3876.0,0.0065
3875.0,0.0064
3874.0,0.0063
3873.0,0.0064
3872.0,0.0064
3871.0,0.0063
3870.0,0.0062
3869.0,0.0062
3868.0,0.0063
3867.0,0.0063
3866.0,0.0063
3865.0,0.0062
3864.0,0.0061
3863.0,0.0061
3862.0,0.0061
3861.0,0.006
3860.0,0.006
3859.0,0.006
3858.0,0.006
3857.0,0.0061
3856.0,0.0061
3855.0,0.006
3854.0,0.006
3853.0,0.0061
3852.0,0.0062
3851.0,0.0063
3850.0,0.0064
3849.0,0.0064
3848.0,0.0063
3847.0,0.0063
3846.0,0.0062
3845.0,0.0062
3844.0,0.0062
3843.0,0.0062
3842.0,0.0063
3841.0,0.0062
3840.0,0.0061
3839.0,0.006
3838.0,0.006
3837.0,0.006
3836.0,0.0061
3835.0,0.0062
3834.0,0.0062
3833.0,0.0062
3832.0,0.0062
3831.0,0.0062
3830.0,0.0063
3829.0,0.0063
3828.0,0.0063
3827.0,0.0062
3826.0,0.0061
3825.0,0.006
3824.0,0.006
3823.0,0.006
3822.0,0.0059
3821.0,0.0059
3820.0,0.0059
3819.0,0.0059
3818.0,0.006
3817.0,0.006
3816.0,0.0062
3815.0,0.0063
3814.0,0.0064
3813.0,0.0064
3812.0,0.0062
3811.0,0.0061
3810.0,0.0061
3809.0,0.006
3808.0,0.006
3807.0,0.006
3806.0,0.0061
3805.0,0.0062
3804.0,0.0062
3803.0,0.006
3802.0,0.0058
3801.0,0.0058
3800.0,0.0059
3799.0,0.006
3798.0,0.0062
3797.0,0.0062
3796.0,0.0063
3795.0,0.0063
3794.0,0.0064
3793.0,0.0063
3792.0,0.0063
3791.0,0.0062
3790.0,0.0062
3789.0,0.0062
3788.0,0.0062
3787.0,0.0062
3786.0,0.0062
3785.0,0.0062
3784.0,0.0062
3783.0,0.0062
3782.0,0.0062
3781.0,0.0062
3780.0,0.0063
3779.0,0.0063
3778.0,0.0063
3777.0,0.0063
3776.0,0.0062
3775.0,0.0062
3774.0,0.0062
3773.0,0.0063
3772.0,0.0063
3771.0,0.0062
3770.0,0.0061
3769.0,0.006
3768.0,0.006
3767.0,0.006
3766.0,0.0059
3765.0,0.0058
3764.0,0.0058
3763.0,0.0058
3762.0,0.0059
3761.0,0.0059
3760.0,0.0059
3759.0,0.0059
3758.0,0.0058
3757.0,0.0057
3756.0,0.0056
3755.0,0.0054
3754.0,0.0053
3753.0,0.0053
3752.0,0.0053
3751.0,0.0054
3750.0,0.0053
3749.0,0.0053
3748.0,0.0055
3747.0,0.0057
3746.0,0.0059
3745.0,0.0058
3744.0,0.0058
3743.0,0.0058
3742.0,0.0058
3741.0,0.0058
3740.0,0.0058
3739.0,0.0057
3738.0,0.0056
3737.0,0.0055
3736.0,0.0055
3735.0,0.0057
3734.0,0.0059
3733.0,0.0059
3732.0,0.0058
3731.0,0.0058
3730.0,0.0059
3729.0,0.0059
3728.0,0.0059
3727.0,0.0059
3726.0,0.0059
3725.0,0.0059
3724.0,0.006
3723.0,0.0059
3722.0,0.0059
3721.0,0.0058
3720.0,0.0058
3719.0,0.0058
3718.0,0.0058
3717.0,0.0058
3716.0,0.0059
3715.0,0.0058
3714.0,0.0057
3713.0,0.0055
3712.0,0.0055
3711.0,0.0056
3710.0,0.0056
3709.0,0.0057
3708.0,0.0057
3707.0,0.0057
3706.0,0.0058
3705.0,0.0058
3704.0,0.0059
3703.0,0.0059
3702.0,0.0059
3701.0,0.0059
3700.0,0.0059
3699.0,0.0058
3698.0,0.0058
3697.0,0.0057
3696.0,0.0057
3695.0,0.0057
3694.0,0.0056
3693.0,0.0057
3692.0,0.0057
3691.0,0.0058
3690.0,0.0059
3689.0,0.0059
3688.0,0.0059
3687.0,0.006
3686.0,0.006
3685.0,0.0061
3684.0,0.0062
3683.0,0.0062
3682.0,0.0062
3681.0,0.0062
3680.0,0.0061
3679.0,0.0062
3678.0,0.0062
3677.0,0.0061
3676.0,0.006
3675.0,0.006
3674.0,0.0061
3673.0,0.0063
3672.0,0.0064
3671.0,0.0064
3670.0,0.0065
3669.0,0.0067
3668.0,0.0068
3667.0,0.0068
3666.0,0.0069
3665.0,0.0069
3664.0,0.007
3663.0,0.007
3662.0,0.0069
3661.0,0.0069
3660.0,0.007
3659.0,0.0071
3658.0,0.0072
3657.0,0.0072
3656.0,0.0073
3655.0,0.0075
3654.0,0.0077
3653.0,0.0079
3652.0,0.0079
3651.0,0.008
3650.0,0.0081
3649.0,0.0083
3648.0,0.0085
3647.0,0.0085
3646.0,0.0085
3645.0,0.0085
3644.0,0.0087
3643.0,0.0088
3642.0,0.009
3641.0,0.0091
3640.0,0.0092
3639.0,0.0093
3638.0,0.0095
3637.0,0.0097
3636.0,0.0099
3635.0,0.01
3634.0,0.0102
3633.0,0.0105
3632.0,0.0108
3631.0,0.011
3630.0,0.0113
3629.0,0.0115
3628.0,0.0117
3627.0,0.0118
3626.0,0.0119
3625.0,0.012
3624.0,0.0121
3623.0,0.0122
3622.0,0.0124
3621.0,0.0127
3620.0,0.0131
3619.0,0.0136
3618.0,0.014
3617.0,0.0142
3616.0,0.0143
3615.0,0.0144
3614.0,0.0147
3613.0,0.015
3612.0,0.0154
3611.0,0.0157
3610.0,0.016
3609.0,0.0161
3608.0,0.0163
3607.0,0.0165
3606.0,0.0166
3605.0,0.0167
3604.0,0.0169
3603.0,0.017
3602.0,0.0172
3601.0,0.0176
3600.0,0.018
3599.0,0.0184
3598.0,0.0186
3597.0,0.0188
3596.0,0.0189
3595.0,0.0191
3594.0,0.0194
3593.0,0.0198
3592.0,0.0201
3591.0,0.0203
3590.0,0.0204
3589.0,0.0205
3588.0,0.0206
3587.0,0.0209
3586.0,0.0212
3585.0,0.0214
3584.0,0.0217
3583.0,0.0219
3582.0,0.0222
3581.0,0.0224
3580.0,0.0226
3579.0,0.0227
3578.0,0.0228
3577.0,0.0228
3576.0,0.0229
3575.0,0.0231
3574.0,0.0234
3573.0,0.0237
3572.0,0.024
3571.0,0.0242
3570.0,0.0243
3569.0,0.0244
3568.0,0.0245
3567.0,0.0248
3566.0,0.0252
3565.0,0.0255
3564.0,0.0259
3563.0,0.0261
3562.0,0.0263
3561.0,0.0264
3560.0,0.0265
3559.0,0.0267
3558.0,0.0269
3557.0,0.027
3556.0,0.0273
3555.0,0.0275
3554.0,0.0278
3553.0,0.0281
3552.0,0.0283
3551.0,0.0284
3550.0,0.0285
3549.0,0.0286
3548.0,0.0287
3547.0,0.029
3546.0,0.0293
3545.0,0.0297
3544.0,0.0299
3543.0,0.03
3542.0,0.0301
3541.0,0.0302
3540.0,0.0303
3539.0,0.0305
3538.0,0.0306
3537.0,0.0308
3536.0,0.0309
3535.0,0.0311
3534.0,0.0312
3533.0,0.0313
3532.0,0.0314
3531.0,0.0316
3530.0,0.0317
3529.0,0.0319
3528.0,0.0321
3527.0,0.0323
3526.0,0.0325
3525.0,0.0326
3524.0,0.0328
3523.0,0.033
3522.0,0.0332
3521.0,0.0334
3520.0,0.0335
3519.0,0.0336
3518.0,0.0337
3517.0,0.0338
3516.0,0.0339
3515.0,0.034
3514.0,0.0341
3513.0,0.0343
3512.0,0.0344
3511.0,0.0345
3510.0,0.0346
3509.0,0.0348
3508.0,0.0349
3507.0,0.035
3506.0,0.0351
3505.0,0.0353
3504.0,0.0354
3503.0,0.0355
3502.0,0.0356
3501.0,0.0358
3500.0,0.0359
3499.0,0.036
3498.0,0.0361
3497.0,0.0361
3496.0,0.0361
3495.0,0.0362
3494.0,0.0364
3493.0,0.0366
3492.0,0.0368
3491.0,0.0371
3490.0,0.0373
3489.0,0.0375
3488.0,0.0376
3487.0,0.0377
3486.0,0.0377
3485.0,0.0378
3484.0,0.0379
3483.0,0.0381
3482.0,0.0383
3481.0,0.0386
3480.0,0.0388
3479.0,0.039
3478.0,0.0391
3477.0,0.0391
3476.0,0.0392
3475.0,0.0393
3474.0,0.0395
3473.0,0.0397
3472.0,0.0399
3471.0,0.0401
3470.0,0.0403
3469.0,0.0405
3468.0,0.0407
3467.0,0.0409
3466.0,0.0411
3465.0,0.0412
3464.0,0.0413
3463.0,0.0414
3462.0,0.0416
3461.0,0.0417
3460.0,0.0418
3459.0,0.042
3458.0,0.0423
3457.0,0.0426
3456.0,0.0428
3455.0,0.043
3454.0,0.0431
3453.0,0.0433
3452.0,0.0434
3451.0,0.0436
3450.0,0.0438
3449.0,0.044
3448.0,0.0442
3447.0,0.0444
3446.0,0.0447
3445.0,0.0449
3444.0,0.0452
3443.0,0.0455
3442.0,0.0457
3441.0,0.0459
3440.0,0.046
3439.0,0.046
3438.0,0.0462
3437.0,0.0464
3436.0,0.0466
3435.0,0.0469
3434.0,0.0471
3433.0,0.0473
3432.0,0.0476
3431.0,0.0479
3430.0,0.0481
3429.0,0.0483
3428.0,0.0484
3427.0,0.0486
3426.0,0.0488
3425.0,0.049
3424.0,0.0492
3423.0,0.0494
3422.0,0.0496
3421.0,0.0498
3420.0,0.05
3419.0,0.0502
3418.0,0.0505
3417.0,0.0507
3416.0,0.0509
3415.0,0.0511
3414.0,0.0513
3413.0,0.0514
3412.0,0.0517
3411.0,0.0519
3410.0,0.0522
3409.0,0.0523
3408.0,0.0525
3407.0,0.0526
3406.0,0.0526
3405.0,0.0527
3404.0,0.0527
3403.0,0.0528
3402.0,0.053
3401.0,0.0532
3400.0,0.0534
3399.0,0.0537
3398.0,0.0539
3397.0,0.0541
3396.0,0.0543
3395.0,0.0544
3394.0,0.0545
3393.0,0.0547
3392.0,0.0549
3391.0,0.0551
3390.0,0.0551
3389.0,0.0552
3388.0,0.0552
3387.0,0.0553
3386.0,0.0555
3385.0,0.0556
3384.0,0.0556
3383.0,0.0557
3382.0,0.0557
3381.0,0.0558
3380.0,0.0559
3379.0,0.056
3378.0,0.0561
3377.0,0.0562
3376.0,0.0562
3375.0,0.0562
3374.0,0.0562
3373.0,0.0563
3372.0,0.0565
3371.0,0.0566
3370.0,0.0567
3369.0,0.0567
3368.0,0.0568
3367.0,0.0569
3366.0,0.057
3365.0,0.057
3364.0,0.057
3363.0,0.057
3362.0,0.0569
3361.0,0.0568
3360.0,0.0568
3359.0,0.0568
3358.0,0.0568
3357.0,0.0569
3356.0,0.057
3355.0,0.0571
3354.0,0.0571
3353.0,0.0571
3352.0,0.057
3351.0,0.0569
3350.0,0.0568
3349.0,0.0567
3348.0,0.0567
3347.0,0.0568
3346.0,0.0568
3345.0,0.0567
3344.0,0.0567
3343.0,0.0567
3342.0,0.0566
3341.0,0.0565
3340.0,0.0563
3339.0,0.0561
3338.0,0.0561
3337.0,0.0561
3336.0,0.0561
3335.0,0.0561
3334.0,0.056
3333.0,0.0558
3332.0,0.0556
3331.0,0.0555
3330.0,0.0554
3329.0,0.0553
3328.0,0.0552
3327.0,0.0551
3326.0,0.055
3325.0,0.0548
3324.0,0.0547
3323.0,0.0546
3322.0,0.0546
3321.0,0.0545
3320.0,0.0544
3319.0,0.0543
3318.0,0.0542
3317.0,0.0541
3316.0,0.054
3315.0,0.0539
3314.0,0.0538
3313.0,0.0537
3312.0,0.0536
3311.0,0.0536
3310.0,0.0536
3309.0,0.0535
3308.0,0.0534
3307.0,0.0533
3306.0,0.0531
3305.0,0.053
3304.0,0.0529
3303.0,0.0528
3302.0,0.0527
3301.0,0.0525
3300.0,0.0523
3299.0,0.0521
3298.0,0.052
3297.0,0.0519
3296.0,0.0519
3295.0,0.0519
3294.0,0.0517
3293.0,0.0516
3292.0,0.0515
3291.0,0.0515
3290.0,0.0515
3289.0,0.0515
3288.0,0.0516
3287.0,0.0515
3286.0,0.0514
3285.0,0.0512
3284.0,0.0511
3283.0,0.051
3282.0,0.0509
3281.0,0.0508
3280.0,0.0507
3279.0,0.0506
3278.0,0.0505
3277.0,0.0504
3276.0,0.0504
3275.0,0.0503
3274.0,0.0503
3273.0,0.0503
3272.0,0.0503
3271.0,0.0502
3270.0,0.0502
3269.0,0.0501
3268.0,0.05
3267.0,0.05
3266.0,0.05
3265.0,0.05
3264.0,0.05
3263.0,0.05
3262.0,0.05
3261.0,0.05
3260.0,0.05
3259.0,0.05
3258.0,0.05
3257.0,0.05
3256.0,0.05
3255.0,0.05
3254.0,0.05
3253.0,0.05
3252.0,0.05
3251.0,0.05
3250.0,0.0499
3249.0,0.0497
3248.0,0.0496
3247.0,0.0495
3246.0,0.0495
3245.0,0.0495
3244.0,0.0495
3243.0,0.0494
3242.0,0.0494
3241.0,0.0494
3240.0,0.0493
3239.0,0.0493
3238.0,0.0491
3237.0,0.049
3236.0,0.0488
3235.0,0.0486
3234.0,0.0484
3233.0,0.0482
3232.0,0.0481
3231.0,0.0479
3230.0,0.0478
3229.0,0.0477
3228.0,0.0476
3227.0,0.0475
3226.0,0.0473
3225.0,0.0471
3224.0,0.047
3223.0,0.0468
3222.0,0.0467
3221.0,0.0465
3220.0,0.0464
3219.0,0.0461
3218.0,0.0459
3217.0,0.0456
3216.0,0.0454
3215.0,0.0452
3214.0,0.0451
3213.0,0.045
3212.0,0.0449
3211.0,0.0447
3210.0,0.0445
3209.0,0.0442
3208.0,0.0439
3207.0,0.0435
3206.0,0.0432
3205.0,0.0429
3204.0,0.0427
3203.0,0.0426
3202.0,0.0424
3201.0,0.0423
3200.0,0.0421
3199.0,0.042
3198.0,0.0418
3197.0,0.0417
3196.0,0.0415
3195.0,0.0414
3194.0,0.0412
3193.0,0.0409
3192.0,0.0407
3191.0,0.0405
3190.0,0.0402
3189.0,0.04
3188.0,0.0397
3187.0,0.0394
3186.0,0.0391
3185.0,0.0388
3184.0,0.0386
3183.0,0.0385
3182.0,0.0384
3181.0,0.0384
3180.0,0.0383
3179.0,0.0382
3178.0,0.038
3177.0,0.0377
3176.0,0.0373
3175.0,0.037
3174.0,0.0367
3173.0,0.0365
3172.0,0.0363
3171.0,0.0361
3170.0,0.0359
3169.0,0.0357
3168.0,0.0355
3167.0,0.0353
3166.0,0.035
3165.0,0.0348
3164.0,0.0346
3163.0,0.0345
3162.0,0.0344
3161.0,0.0343
3160.0,0.0342
3159.0,0.034
3158.0,0.0339
3157.0,0.0338
3156.0,0.0336
3155.0,0.0335
3154.0,0.0332
3153.0,0.033
3152.0,0.0328
3151.0,0.0327
3150.0,0.0325
3149.0,0.0323
3148.0,0.0321
3147.0,0.0319
3146.0,0.0318
3145.0,0.0318
3144.0,0.0317
3143.0,0.0316
3142.0,0.0315
3141.0,0.0313
3140.0,0.0311
3139.0,0.0309
3138.0,0.0308
3137.0,0.0306
3136.0,0.0303
3135.0,0.0301
3134.0,0.0299
3133.0,0.0298
3132.0,0.0298
3131.0,0.0297
3130.0,0.0296
3129.0,0.0294
3128.0,0.0292
3127.0,0.029
3126.0,0.0289
3125.0,0.0288
3124.0,0.0287
3123.0,0.0285
3122.0,0.0284
3121.0,0.0283
3120.0,0.0281
3119.0,0.0281
3118.0,0.0279
3117.0,0.0278
3116.0,0.0276
3115.0,0.0275
3114.0,0.0274
3113.0,0.0273
3112.0,0.0273
3111.0,0.0272
3110.0,0.0271
3109.0,0.027
3108.0,0.027
3107.0,0.0269
3106.0,0.0268
3105.0,0.0267
3104.0,0.0265
3103.0,0.0264
3102.0,0.0263
3101.0,0.0262
3100.0,0.0261
3099.0,0.026
3098.0,0.026
3097.0,0.0259
3096.0,0.0258
3095.0,0.0257
3094.0,0.0256
3093.0,0.0255
3092.0,0.0254
3091.0,0.0254
3090.0,0.0253
3089.0,0.0253
3088.0,0.0252
3087.0,0.0251
3086.0,0.025
3085.0,0.025
3084.0,0.0249
3083.0,0.0249
3082.0,0.0248
3081.0,0.0247
3080.0,0.0247
3079.0,0.0246
3078.0,0.0246
3077.0,0.0245
3076.0,0.0243
3075.0,0.0242
3074.0,0.0241
3073.0,0.024
3072.0,0.024
3071.0,0.024
3070.0,0.0239
3069.0,0.0238
3068.0,0.0237
3067.0,0.0236
3066.0,0.0235
3065.0,0.0235
3064.0,0.0234
3063.0,0.0233
3062.0,0.0231
3061.0,0.0231
3060.0,0.023
3059.0,0.023
3058.0,0.023
3057.0,0.0229
3056.0,0.0229
3055.0,0.0229
3054.0,0.0229
3053.0,0.0229
3052.0,0.0227
3051.0,0.0225
3050.0,0.0223
3049.0,0.0222
3048.0,0.0221
3047.0,0.022
3046.0,0.0219
3045.0,0.0218
3044.0,0.0217
3043.0,0.0216
3042.0,0.0214
3041.0,0.0213
3040.0,0.0211
3039.0,0.021
3038.0,0.0208
3037.0,0.0207
3036.0,0.0206
3035.0,0.0205
3034.0,0.0205
3033.0,0.0205
3032.0,0.0205
3031.0,0.0205
3030.0,0.0205
3029.0,0.0205
3028.0,0.0204
3027.0,0.0203
3026.0,0.0202
3025.0,0.0201
3024.0,0.0201
3023.0,0.0201
3022.0,0.02
3021.0,0.02
3020.0,0.02
3019.0,0.02
3018.0,0.02
3017.0,0.02
3016.0,0.02
3015.0,0.02
3014.0,0.02
3013.0,0.02
3012.0,0.02
3011.0,0.0199
3010.0,0.0199
3009.0,0.0198
3008.0,0.0199
3007.0,0.0199
3006.0,0.0201
3005.0,0.0202
3004.0,0.0203
3003.0,0.0203
3002.0,0.0203
3001.0,0.0202
3000.0,0.0202
2999.0,0.0203
2998.0,0.0203
2997.0,0.0203
2996.0,0.0202
2995.0,0.0202
2994.0,0.0202
2993.0,0.0202
2992.0,0.0202
2991.0,0.0202
2990.0,0.0202
2989.0,0.0202
2988.0,0.0203
2987.0,0.0204
2986.0,0.0205
2985.0,0.0206
2984.0,0.0207
2983.0,0.0208
2982.0,0.0209
2981.0,0.0211
2980.0,0.0212
2979.0,0.0212
2978.0,0.0213
2977.0,0.0213
2976.0,0.0214
2975.0,0.0215
2974.0,0.0217
2973.0,0.0219
2972.0,0.0221
2971.0,0.0223
2970.0,0.0225
2969.0,0.0227
2968.0,0.0229
2967.0,0.0231
2966.0,0.0234
2965.0,0.0236
2964.0,0.0238
2963.0,0.0239
2962.0,0.024
2961.0,0.0241
2960.0,0.0242
2959.0,0.0243
2958.0,0.0243
2957.0,0.0242
2956.0,0.0242
2955.0,0.0241
2954.0,0.0241
2953.0,0.024
2952.0,0.0239
2951.0,0.0238
2950.0,0.0237
2949.0,0.0235
2948.0,0.0233
2947.0,0.023
2946.0,0.0228
2945.0,0.0226
2944.0,0.0223
2943.0,0.0221
2942.0,0.0218
2941.0,0.0216
2940.0,0.0215
2939.0,0.0213
2938.0,0.0212
2937.0,0.021
2936.0,0.0209
2935.0,0.0208
2934.0,0.0207
2933.0,0.0206
2932.0,0.0205
2931.0,0.0204
2930.0,0.0203
2929.0,0.0202
2928.0,0.0202
2927.0,0.0201
2926.0,0.02
2925.0,0.02
2924.0,0.0199
2923.0,0.0198
2922.0,0.0196
2921.0,0.0195
2920.0,0.0195
2919.0,0.0195
2918.0,0.0195
2917.0,0.0195
2916.0,0.0195
2915.0,0.0194
2914.0,0.0194
2913.0,0.0193
2912.0,0.0192
2911.0,0.0191
2910.0,0.0191
2909.0,0.0191
2908.0,0.0191
2907.0,0.0191
2906.0,0.0191
2905.0,0.019
2904.0,0.019
2903.0,0.019
2902.0,0.019
2901.0,0.0191
2900.0,0.0191
2899.0,0.0191
2898.0,0.0191
2897.0,0.0191
2896.0,0.0191
2895.0,0.019
2894.0,0.019
2893.0,0.0189
2892.0,0.0189
2891.0,0.0189
2890.0,0.0188
2889.0,0.0189
2888.0,0.0189
2887.0,0.0189
2886.0,0.0189
2885.0,0.0189
2884.0,0.0189
2883.0,0.0189
2882.0,0.0188
2881.0,0.0187
2880.0,0.0186
2879.0,0.0186
2878.0,0.0185
2877.0,0.0185
2876.0,0.0184
2875.0,0.0184
2874.0,0.0183
2873.0,0.0183
2872.0,0.0183
2871.0,0.0182
2870.0,0.0182
2869.0,0.0181
2868.0,0.0181
2867.0,0.0181
2866.0,0.0181
2865.0,0.0181
2864.0,0.0181
2863.0,0.018
2862.0,0.018
2861.0,0.018
2860.0,0.0179
2859.0,0.0179
2858.0,0.018
2857.0,0.0181
2856.0,0.0181
2855.0,0.0181
2854.0,0.018
2853.0,0.0179
2852.0,0.0178
2851.0,0.0177
2850.0,0.0177
2849.0,0.0176
2848.0,0.0175
2847.0,0.0174
2846.0,0.0172
2845.0,0.0171
2844.0,0.017
2843.0,0.0169
2842.0,0.0169
2841.0,0.0169
2840.0,0.0168
2839.0,0.0168
2838.0,0.0167
2837.0,0.0167
2836.0,0.0166
2835.0,0.0165
2834.0,0.0164
2833.0,0.0162
2832.0,0.0162
2831.0,0.0162
2830.0,0.0162
2829.0,0.0162
2828.0,0.0161
2827.0,0.016
2826.0,0.0159
2825.0,0.0159
2824.0,0.0159
2823.0,0.0159
2822.0,0.0159
2821.0,0.0159
2820.0,0.0159
2819.0,0.0158
2818.0,0.0158
2817.0,0.0158
2816.0,0.0158
2815.0,0.0157
2814.0,0.0157
2813.0,0.0157
2812.0,0.0157
2811.0,0.0158
2810.0,0.0158
2809.0,0.0158
2808.0,0.0157
2807.0,0.0156
2806.0,0.0155
2805.0,0.0155
2804.0,0.0155
2803.0,0.0155
2802.0,0.0155
2801.0,0.0156
2800.0,0.0156
2799.0,0.0156
2798.0,0.0156
2797.0,0.0156
2796.0,0.0155
2795.0,0.0155
2794.0,0.0155
2793.0,0.0154
2792.0,0.0154
2791.0,0.0154
2790.0,0.0154
2789.0,0.0154
2788.0,0.0153
2787.0,0.0153
2786.0,0.0153
2785.0,0.0153
2784.0,0.0152
2783.0,0.0152
2782.0,0.0152
2781.0,0.0152
2780.0,0.0152
2779.0,0.0152
2778.0,0.0152
2777.0,0.0152
2776.0,0.0152
2775.0,0.0152
2774.0,0.0152
2773.0,0.0151
2772.0,0.0151
2771.0,0.015
2770.0,0.015
2769.0,0.015
2768.0,0.015
2767.0,0.015
2766.0,0.0149
2765.0,0.015
2764.0,0.015
2763.0,0.0151
2762.0,0.0151
2761.0,0.0151
2760.0,0.015
2759.0,0.015
2758.0,0.015
2757.0,0.015
2756.0,0.015
2755.0,0.015
2754.0,0.015
2753.0,0.0149
2752.0,0.0149
2751.0,0.0148
2750.0,0.0148
2749.0,0.0148
2748.0,0.0148
2747.0,0.0148
2746.0,0.0148
2745.0,0.0147
2744.0,0.0147
2743.0,0.0147
2742.0,0.0147
2741.0,0.0147
2740.0,0.0147
2739.0,0.0147
2738.0,0.0148
2737.0,0.0147
2736.0,0.0147
2735.0,0.0146
2734.0,0.0145
2733.0,0.0145
2732.0,0.0145
2731.0,0.0145
2730.0,0.0146
2729.0,0.0146
2728.0,0.0146
2727.0,0.0146
2726.0,0.0145
2725.0,0.0145
2724.0,0.0145
2723.0,0.0145
2722.0,0.0145
2721.0,0.0145
2720.0,0.0144
2719.0,0.0144
2718.0,0.0144
2717.0,0.0143
2716.0,0.0143
2715.0,0.0143
2714.0,0.0143
2713.0,0.0144
2712.0,0.0144
2711.0,0.0144
2710.0,0.0144
2709.0,0.0143
2708.0,0.0143
2707.0,0.0142
2706.0,0.0142
2705.0,0.0143
2704.0,0.0142
2703.0,0.0142
2702.0,0.0141
2701.0,0.014
2700.0,0.014
2699.0,0.0141
2698.0,0.0141
2697.0,0.0141
2696.0,0.014
2695.0,0.014
2694.0,0.0139
2693.0,0.0139
2692.0,0.014
2691.0,0.014
2690.0,0.014
2689.0,0.014
2688.0,0.014
2687.0,0.0141
2686.0,0.014
2685.0,0.014
2684.0,0.014
2683.0,0.014
2682.0,0.0139
2681.0,0.0139
2680.0,0.0139
2679.0,0.0139
2678.0,0.0139
2677.0,0.0139
2676.0,0.0138
2675.0,0.0138
2674.0,0.0138
2673.0,0.0139
2672.0,0.0139
2671.0,0.0139
2670.0,0.014
2669.0,0.0139
2668.0,0.0139
2667.0,0.0139
2666.0,0.0139
2665.0,0.0139
2664.0,0.014
2663.0,0.0139
2662.0,0.0139
2661.0,0.0137
2660.0,0.0136
2659.0,0.0136
2658.0,0.0136
2657.0,0.0136
2656.0,0.0137
2655.0,0.0137
2654.0,0.0137
2653.0,0.0137
2652.0,0.0136
2651.0,0.0136
2650.0,0.0136
2649.0,0.0136
2648.0,0.0137
2647.0,0.0137
2646.0,0.0137
2645.0,0.0137
2644.0,0.0137
2643.0,0.0137
2642.0,0.0137
2641.0,0.0137
2640.0,0.0137
2639.0,0.0136
2638.0,0.0136
2637.0,0.0136
2636.0,0.0136
2635.0,0.0136
2634.0,0.0136
2633.0,0.0136
2632.0,0.0136
2631.0,0.0136
2630.0,0.0136
2629.0,0.0137
2628.0,0.0137
2627.0,0.0137
2626.0,0.0137
2625.0,0.0136
2624.0,0.0136
2623.0,0.0136
2622.0,0.0136
2621.0,0.0136
2620.0,0.0136
2619.0,0.0135
2618.0,0.0135
2617.0,0.0135
2616.0,0.0135
2615.0,0.0135
2614.0,0.0135
2613.0,0.0135
2612.0,0.0134
2611.0,0.0134
2610.0,0.0134
2609.0,0.0134
2608.0,0.0134
2607.0,0.0134
2606.0,0.0134
2605.0,0.0134
2604.0,0.0133
2603.0,0.0133
2602.0,0.0134
2601.0,0.0135
2600.0,0.0135
2599.0,0.0135
2598.0,0.0135
2597.0,0.0134
2596.0,0.0134
2595.0,0.0134
2594.0,0.0134
2593.0,0.0134
2592.0,0.0134
2591.0,0.0134
2590.0,0.0134
2589.0,0.0134
2588.0,0.0134
2587.0,0.0134
2586.0,0.0134
2585.0,0.0135
2584.0,0.0135
2583.0,0.0135
2582.0,0.0136
2581.0,0.0136
2580.0,0.0135
2579.0,0.0135
2578.0,0.0135
2577.0,0.0134
2576.0,0.0134
2575.0,0.0134
2574.0,0.0134
2573.0,0.0134
2572.0,0.0134
2571.0,0.0134
2570.0,0.0134
2569.0,0.0133
2568.0,0.0133
2567.0,0.0134
2566.0,0.0134
2565.0,0.0135
2564.0,0.0135
2563.0,0.0135
2562.0,0.0135
2561.0,0.0134
2560.0,0.0134
2559.0,0.0134
2558.0,0.0134
2557.0,0.0135
2556.0,0.0135
2555.0,0.0135
2554.0,0.0134
2553.0,0.0134
2552.0,0.0134
2551.0,0.0134
2550.0,0.0134
2549.0,0.0134
2548.0,0.0134
2547.0,0.0133
2546.0,0.0133
2545.0,0.0133
2544.0,0.0133
2543.0,0.0133
2542.0,0.0133
2541.0,0.0133
2540.0,0.0132
2539.0,0.0133
2538.0,0.0133
2537.0,0.0133
2536.0,0.0134
2535.0,0.0135
2534.0,0.0136
2533.0,0.0136
2532.0,0.0136
2531.0,0.0135
2530.0,0.0134
2529.0,0.0134
2528.0,0.0134
2527.0,0.0134
2526.0,0.0134
2525.0,0.0135
2524.0,0.0135
2523.0,0.0135
2522.0,0.0135
2521.0,0.0135
2520.0,0.0135
2519.0,0.0135
2518.0,0.0135
2517.0,0.0135
2516.0,0.0135
2515.0,0.0134
2514.0,0.0134
2513.0,0.0133
2512.0,0.0132
2511.0,0.0132
2510.0,0.0132
2509.0,0.0132
2508.0,0.0132
2507.0,0.0131
2506.0,0.0131
2505.0,0.0131
2504.0,0.0131
2503.0,0.0132
2502.0,0.0132
2501.0,0.0133
2500.0,0.0133
2499.0,0.0134
2498.0,0.0133
2497.0,0.0133
2496.0,0.0133
2495.0,0.0133
2494.0,0.0133
2493.0,0.0133
2492.0,0.0133
2491.0,0.0132
2490.0,0.0132
2489.0,0.0132
2488.0,0.0132
2487.0,0.0133
2486.0,0.0133
2485.0,0.0133
2484.0,0.0133
2483.0,0.0133
2482.0,0.0133
2481.0,0.0133
2480.0,0.0133
2479.0,0.0133
2478.0,0.0133
2477.0,0.0133
2476.0,0.0133
2475.0,0.0132
2474.0,0.0132
2473.0,0.0132
2472.0,0.0133
2471.0,0.0133
2470.0,0.0132
2469.0,0.0132
2468.0,0.0132
2467.0,0.0131
2466.0,0.0131
2465.0,0.0131
2464.0,0.0131
2463.0,0.013
2462.0,0.013
2461.0,0.0129
2460.0,0.013
2459.0,0.0131
2458.0,0.0132
2457.0,0.0132
2456.0,0.0132
2455.0,0.0131
2454.0,0.0131
2453.0,0.0131
2452.0,0.013
2451.0,0.013
2450.0,0.0129
2449.0,0.0129
2448.0,0.0129
2447.0,0.0129
2446.0,0.013
2445.0,0.013
2444.0,0.013
2443.0,0.013
2442.0,0.0129
2441.0,0.0129
2440.0,0.0129
2439.0,0.0129
2438.0,0.0129
2437.0,0.013
2436.0,0.013
2435.0,0.0131
2434.0,0.0131
2433.0,0.0131
2432.0,0.0131
2431.0,0.0131
2430.0,0.0132
2429.0,0.0133
2428.0,0.0133
2427.0,0.0132
2426.0,0.0132
2425.0,0.0132
2424.0,0.0132
2423.0,0.0132
2422.0,0.0132
2421.0,0.0132
2420.0,0.0133
2419.0,0.0133
2418.0,0.0133
2417.0,0.0133
2416.0,0.0132
2415.0,0.0132
2414.0,0.0132
2413.0,0.0132
2412.0,0.0132
2411.0,0.0133
2410.0,0.0133
2409.0,0.0134
2408.0,0.0134
2407.0,0.0134
2406.0,0.0134
2405.0,0.0134
2404.0,0.0134
2403.0,0.0134
2402.0,0.0135
2401.0,0.0135
2400.0,0.0136
2399.0,0.0136
2398.0,0.0136
2397.0,0.0135
2396.0,0.0135
2395.0,0.0135
2394.0,0.0135
2393.0,0.0135
2392.0,0.0135
2391.0,0.0135
2390.0,0.0135
2389.0,0.0136
2388.0,0.0136
2387.0,0.0135
2386.0,0.0134
2385.0,0.0132
2384.0,0.0131
2383.0,0.013
2382.0,0.013
2381.0,0.013
2380.0,0.0131
2379.0,0.013
2378.0,0.0128
2377.0,0.0124
2376.0,0.012
2375.0,0.0118
2374.0,0.0118
2373.0,0.0122
2372.0,0.0126
2371.0,0.0131
2370.0,0.0135
2369.0,0.0138
2368.0,0.0141
2367.0,0.0142
2366.0,0.0139
2365.0,0.0136
2364.0,0.0135
2363.0,0.0132
2362.0,0.0122
2361.0,0.011
2360.0,0.0104
2359.0,0.0107
2358.0,0.0114
2357.0,0.0121
2356.0,0.0125
2355.0,0.0126
2354.0,0.0125
2353.0,0.0125
2352.0,0.0124
2351.0,0.012
2350.0,0.0117
2349.0,0.0115
2348.0,0.0117
2347.0,0.012
2346.0,0.0119
2345.0,0.0114
2344.0,0.0107
2343.0,0.0105
2342.0,0.0107
2341.0,0.0112
2340.0,0.0116
2339.0,0.0116
2338.0,0.0114
2337.0,0.0112
2336.0,0.0112
2335.0,0.0112
2334.0,0.0114
2333.0,0.0115
2332.0,0.0118
2331.0,0.012
2330.0,0.0121
2329.0,0.0121
2328.0,0.0121
2327.0,0.0122
2326.0,0.0124
2325.0,0.0125
2324.0,0.0125
2323.0,0.0123
2322.0,0.0121
2321.0,0.0119
2320.0,0.0117
2319.0,0.0117
2318.0,0.0118
2317.0,0.0119
2316.0,0.0121
2315.0,0.0123
2314.0,0.0124
2313.0,0.0125
2312.0,0.0126
2311.0,0.0126
2310.0,0.0127
2309.0,0.0127
2308.0,0.0128
2307.0,0.0129
2306.0,0.0129
2305.0,0.0129
2304.0,0.0128
2303.0,0.0127
2302.0,0.0128
2301.0,0.0128
2300.0,0.0129
2299.0,0.013
2298.0,0.013
2297.0,0.013
2296.0,0.013
2295.0,0.0131
2294.0,0.0131
2293.0,0.0132
2292.0,0.0131
2291.0,0.0131
2290.0,0.0131
2289.0,0.0132
2288.0,0.0133
2287.0,0.0134
2286.0,0.0135
2285.0,0.0135
2284.0,0.0134
2283.0,0.0134
2282.0,0.0133
2281.0,0.0132
2280.0,0.0132
2279.0,0.0132
2278.0,0.0132
2277.0,0.0132
2276.0,0.0132
2275.0,0.0132
2274.0,0.0132
2273.0,0.0133
2272.0,0.0133
2271.0,0.0134
2270.0,0.0134
2269.0,0.0133
2268.0,0.0133
2267.0,0.0133
2266.0,0.0132
2265.0,0.0132
2264.0,0.0131
2263.0,0.0131
2262.0,0.0131
2261.0,0.0131
2260.0,0.0131
2259.0,0.0132
2258.0,0.0132
2257.0,0.0131
2256.0,0.0131
2255.0,0.0131
2254.0,0.013
2253.0,0.013
2252.0,0.013
2251.0,0.013
2250.0,0.013
2249.0,0.013
2248.0,0.013
2247.0,0.013
2246.0,0.013
2245.0,0.0129
2244.0,0.0128
2243.0,0.0128
2242.0,0.0128
2241.0,0.0128
2240.0,0.0128
2239.0,0.0128
2238.0,0.0128
2237.0,0.0128
2236.0,0.0128
2235.0,0.0128
2234.0,0.0128
2233.0,0.0128
2232.0,0.0128
2231.0,0.0128
2230.0,0.0128
2229.0,0.0128
2228.0,0.0127
2227.0,0.0127
2226.0,0.0127
2225.0,0.0127
2224.0,0.0127
2223.0,0.0127
2222.0,0.0126
2221.0,0.0126
2220.0,0.0126
2219.0,0.0126
2218.0,0.0126
2217.0,0.0125
2216.0,0.0125
2215.0,0.0125
2214.0,0.0125
2213.0,0.0125
2212.0,0.0125
2211.0,0.0126
2210.0,0.0126
2209.0,0.0126
2208.0,0.0126
2207.0,0.0125
2206.0,0.0124
2205.0,0.0124
2204.0,0.0123
2203.0,0.0123
2202.0,0.0123
2201.0,0.0123
2200.0,0.0123
2199.0,0.0123
2198.0,0.0123
2197.0,0.0122
2196.0,0.0121
2195.0,0.0121
2194.0,0.0121
2193.0,0.0122
2192.0,0.0122
2191.0,0.0122
2190.0,0.0121
2189.0,0.0121
2188.0,0.0121
2187.0,0.012
2186.0,0.012
2185.0,0.0119
2184.0,0.0119
2183.0,0.0119
2182.0,0.0119
2181.0,0.0119
2180.0,0.0119
2179.0,0.0119
2178.0,0.0119
2177.0,0.0119
2176.0,0.0119
2175.0,0.0119
2174.0,0.0119
2173.0,0.0118
2172.0,0.0118
2171.0,0.0118
2170.0,0.0119
2169.0,0.0119
2168.0,0.0119
2167.0,0.0119
2166.0,0.0119
2165.0,0.0119
2164.0,0.0119
2163.0,0.0119
2162.0,0.0119
2161.0,0.0118
2160.0,0.0118
2159.0,0.0118
2158.0,0.0118
2157.0,0.0118
2156.0,0.0118
2155.0,0.0118
2154.0,0.0119
2153.0,0.0119
2152.0,0.0119
2151.0,0.0119
2150.0,0.0119
2149.0,0.0119
2148.0,0.0119
2147.0,0.0119
2146.0,0.0119
2145.0,0.0118
2144.0,0.0118
2143.0,0.0118
2142.0,0.0118
2141.0,0.0119
2140.0,0.0119
2139.0,0.0118
2138.0,0.0118
2137.0,0.0117
2136.0,0.0117
2135.0,0.0118
2134.0,0.0118
2133.0,0.0118
2132.0,0.0118
2131.0,0.0118
2130.0,0.0118
2129.0,0.0118
2128.0,0.0119
2127.0,0.0119
2126.0,0.0118
2125.0,0.0118
2124.0,0.0118
2123.0,0.0117
2122.0,0.0117
2121.0,0.0117
2120.0,0.0117
2119.0,0.0117
2118.0,0.0117
2117.0,0.0117
2116.0,0.0116
2115.0,0.0116
2114.0,0.0116
2113.0,0.0115
2112.0,0.0115
2111.0,0.0115
2110.0,0.0115
2109.0,0.0115
2108.0,0.0115
2107.0,0.0116
2106.0,0.0115
2105.0,0.0115
2104.0,0.0114
2103.0,0.0114
2102.0,0.0114
2101.0,0.0114
2100.0,0.0113
2099.0,0.0113
2098.0,0.0112
2097.0,0.0112
2096.0,0.0111
2095.0,0.011
2094.0,0.011
2093.0,0.0111
2092.0,0.0111
2091.0,0.011
2090.0,0.011
2089.0,0.0109
2088.0,0.0109
2087.0,0.0109
2086.0,0.0108
2085.0,0.0108
2084.0,0.0108
2083.0,0.0107
2082.0,0.0107
2081.0,0.0107
2080.0,0.0106
2079.0,0.0105
2078.0,0.0105
2077.0,0.0104
2076.0,0.0104
2075.0,0.0104
2074.0,0.0104
2073.0,0.0103
2072.0,0.0103
2071.0,0.0102
2070.0,0.0101
2069.0,0.0101
2068.0,0.01
2067.0,0.01
2066.0,0.0099
2065.0,0.0099
2064.0,0.0098
2063.0,0.0097
2062.0,0.0096
2061.0,0.0096
2060.0,0.0095
2059.0,0.0095
2058.0,0.0094
2057.0,0.0094
2056.0,0.0093
2055.0,0.0093
2054.0,0.0093
2053.0,0.0093
2052.0,0.0092
2051.0,0.0092
2050.0,0.0092
2049.0,0.0091
2048.0,0.009
2047.0,0.009
2046.0,0.0089
2045.0,0.0089
2044.0,0.0089
2043.0,0.0088
2042.0,0.0088
2041.0,0.0088
2040.0,0.0087
2039.0,0.0087
2038.0,0.0086
2037.0,0.0085
2036.0,0.0084
2035.0,0.0084
2034.0,0.0084
2033.0,0.0084
2032.0,0.0084
2031.0,0.0084
2030.0,0.0084
2029.0,0.0083
2028.0,0.0082
2027.0,0.0082
2026.0,0.0082
2025.0,0.0081
2024.0,0.0081
2023.0,0.0081
2022.0,0.0081
2021.0,0.008
2020.0,0.008
2019.0,0.008
2018.0,0.008
2017.0,0.008
2016.0,0.0079
2015.0,0.0079
2014.0,0.0078
2013.0,0.0078
2012.0,0.0077
2011.0,0.0077
2010.0,0.0077
2009.0,0.0077
2008.0,0.0077
2007.0,0.0077
2006.0,0.0077
2005.0,0.0077
2004.0,0.0076
2003.0,0.0076
2002.0,0.0075
2001.0,0.0075
2000.0,0.0075
1999.0,0.0075
1998.0,0.0075
1997.0,0.0075
1996.0,0.0075
1995.0,0.0075
1994.0,0.0075
1993.0,0.0075
1992.0,0.0074
1991.0,0.0074
1990.0,0.0074
1989.0,0.0074
1988.0,0.0074
1987.0,0.0074
1986.0,0.0074
1985.0,0.0073
1984.0,0.0073
1983.0,0.0072
1982.0,0.0072
1981.0,0.0072
1980.0,0.0072
1979.0,0.0072
1978.0,0.0072
1977.0,0.0072
1976.0,0.0072
1975.0,0.0072
1974.0,0.0072
1973.0,0.0072
1972.0,0.0072
1971.0,0.0072
1970.0,0.0072
1969.0,0.0072
1968.0,0.0073
1967.0,0.0073
1966.0,0.0073
1965.0,0.0072
1964.0,0.0072
1963.0,0.0072
1962.0,0.0072
1961.0,0.0072
1960.0,0.0073
1959.0,0.0073
1958.0,0.0074
1957.0,0.0074
1956.0,0.0073
1955.0,0.0073
1954.0,0.0074
1953.0,0.0074
1952.0,0.0074
1951.0,0.0075
1950.0,0.0075
1949.0,0.0075
1948.0,0.0074
1947.0,0.0074
1946.0,0.0074
1945.0,0.0074
1944.0,0.0073
1943.0,0.0073
1942.0,0.0072
1941.0,0.0071
1940.0,0.007
1939.0,0.0068
1938.0,0.0067
1937.0,0.0066
1936.0,0.0065
1935.0,0.0064
1934.0,0.0063
1933.0,0.0063
1932.0,0.0062
1931.0,0.0061
1930.0,0.006
1929.0,0.0059
1928.0,0.0058
1927.0,0.0058
1926.0,0.0057
1925.0,0.0056
1924.0,0.0055
1923.0,0.0054
1922.0,0.0053
1921.0,0.0052
1920.0,0.0052
1919.0,0.0052
1918.0,0.0051
1917.0,0.005
1916.0,0.0049
1915.0,0.0048
1914.0,0.0047
1913.0,0.0046
1912.0,0.0046
1911.0,0.0046
1910.0,0.0045
1909.0,0.0044
1908.0,0.0042
1907.0,0.0041
1906.0,0.004
1905.0,0.004
1904.0,0.0039
1903.0,0.0038
1902.0,0.0037
1901.0,0.0036
1900.0,0.0035
1899.0,0.0034
1898.0,0.0034
1897.0,0.0033
1896.0,0.0032
1895.0,0.0032
1894.0,0.0031
1893.0,0.003
1892.0,0.0029
1891.0,0.0029
1890.0,0.0028
1889.0,0.0027
1888.0,0.0026
1887.0,0.0025
1886.0,0.0024
1885.0,0.0023
1884.0,0.0022
1883.0,0.0021
1882.0,0.002
1881.0,0.0019
1880.0,0.0019
1879.0,0.0018
1878.0,0.0018
1877.0,0.0017
1876.0,0.0016
1875.0,0.0016
1874.0,0.0015
1873.0,0.0015
1872.0,0.0015
1871.0,0.0015
1870.0,0.0014
1869.0,0.0013
1868.0,0.0012
1867.0,0.001
1866.0,0.0008
1865.0,0.0007
1864.0,0.0006
1863.0,0.0006
1862.0,0.0005
1861.0,0.0005
1860.0,0.0004
1859.0,0.0003
1858.0,0.0002
1857.0,0.0002
1856.0,0.0001
1855.0,0.0001
1854.0,0.0
1853.0,-0.0
1852.0,-0.0001
1851.0,-0.0001
1850.0,-0.0001
1849.0,-0.0001
1848.0,-0.0
1847.0,0.0001
1846.0,0.0001
1845.0,-0.0
1844.0,-0.0003
1843.0,-0.0004
1842.0,-0.0006
1841.0,-0.0006
1840.0,-0.0007
1839.0,-0.0007
1838.0,-0.0007
1837.0,-0.0008
1836.0,-0.0008
1835.0,-0.0008
1834.0,-0.0008
1833.0,-0.0008
1832.0,-0.0009
1831.0,-0.0009
1830.0,-0.001
1829.0,-0.0011
1828.0,-0.0011
1827.0,-0.0011
1826.0,-0.0011
1825.0,-0.0014
1824.0,-0.0016
1823.0,-0.0017
1822.0,-0.0018
1821.0,-0.002
1820.0,-0.0021
1819.0,-0.0023
1818.0,-0.0024
1817.0,-0.0025
1816.0,-0.0027
1815.0,-0.0028
1814.0,-0.0029
1813.0,-0.0031
1812.0,-0.0033
1811.0,-0.0034
1810.0,-0.0036
1809.0,-0.0039
1808.0,-0.0041
1807.0,-0.0043
1806.0,-0.0044
1805.0,-0.0045
1804.0,-0.0046
1803.0,-0.0046
1802.0,-0.0048
1801.0,-0.0051
1800.0,-0.0054
1799.0,-0.0056
1798.0,-0.0057
1797.0,-0.0059
1796.0,-0.006
1795.0,-0.0061
1794.0,-0.0062
1793.0,-0.0065
1792.0,-0.0069
1791.0,-0.0073
1790.0,-0.0076
1789.0,-0.0078
1788.0,-0.0079
1787.0,-0.008
1786.0,-0.0081
1785.0,-0.0084
1784.0,-0.0086
1783.0,-0.0087
1782.0,-0.0089
1781.0,-0.0091
1780.0,-0.0094
1779.0,-0.0096
1778.0,-0.0097
1777.0,-0.0098
1776.0,-0.0099
1775.0,-0.0098
1774.0,-0.0099
1773.0,-0.0102
1772.0,-0.0105
1771.0,-0.0107
1770.0,-0.0107
1769.0,-0.0108
1768.0,-0.011
1767.0,-0.011
1766.0,-0.0109
1765.0,-0.0108
1764.0,-0.0106
1763.0,-0.0104
1762.0,-0.0101
1761.0,-0.0099
1760.0,-0.0096
1759.0,-0.009
1758.0,-0.0084
1757.0,-0.0078
1756.0,-0.0072
1755.0,-0.0063
1754.0,-0.0054
1753.0,-0.0042
1752.0,-0.0028
1751.0,-0.001
1750.0,0.0011
1749.0,0.0034
1748.0,0.006
1747.0,0.009
1746.0,0.0123
1745.0,0.0161
1744.0,0.0206
1743.0,0.0254
1742.0,0.0305
1741.0,0.0363
1740.0,0.0434
1739.0,0.0507
1738.0,0.0565
1737.0,0.061
1736.0,0.0661
1735.0,0.0748
1734.0,0.0866
1733.0,0.096
1732.0,0.1024
1731.0,0.1087
1730.0,0.1158
1729.0,0.1231
1728.0,0.1299
1727.0,0.1363
1726.0,0.1426
1725.0,0.1494
1724.0,0.1566
1723.0,0.1635
1722.0,0.1691
1721.0,0.1733
1720.0,0.1768
1719.0,0.1812
1718.0,0.1875
1717.0,0.193
1716.0,0.1956
1715.0,0.1961
1714.0,0.1953
1713.0,0.193
1712.0,0.1892
1711.0,0.1843
1710.0,0.1784
1709.0,0.172
1708.0,0.1649
1707.0,0.1567
1706.0,0.1476
1705.0,0.1393
1704.0,0.1331
1703.0,0.1281
1702.0,0.1226
1701.0,0.1154
1700.0,0.1084
1699.0,0.1037
1698.0,0.1004
1697.0,0.097
1696.0,0.0932
1695.0,0.0898
1694.0,0.0874
1693.0,0.0855
1692.0,0.0837
1691.0,0.0818
1690.0,0.0798
1689.0,0.0784
1688.0,0.0773
1687.0,0.0762
1686.0,0.0749
1685.0,0.0739
1684.0,0.0736
1683.0,0.0731
1682.0,0.0723
1681.0,0.0715
1680.0,0.0708
1679.0,0.0701
1678.0,0.0692
1677.0,0.0685
1676.0,0.068
1675.0,0.0676
1674.0,0.0671
1673.0,0.0666
1672.0,0.0661
1671.0,0.0657
1670.0,0.0654
1669.0,0.0654
1668.0,0.0652
1667.0,0.0648
1666.0,0.0642
1665.0,0.0637
1664.0,0.0634
1663.0,0.0632
1662.0,0.0631
1661.0,0.063
1660.0,0.0627
1659.0,0.0623
1658.0,0.062
1657.0,0.0617
1656.0,0.0614
1655.0,0.0609
1654.0,0.061
1653.0,0.0624
1652.0,0.063
1651.0,0.0627
1650.0,0.0621
1649.0,0.0616
1648.0,0.0616
1647.0,0.0622
1646.0,0.0627
1645.0,0.0629
1644.0,0.0628
1643.0,0.0627
1642.0,0.0625
1641.0,0.0624
1640.0,0.0624
1639.0,0.0622
1638.0,0.0618
1637.0,0.0617
1636.0,0.062
1635.0,0.0622
1634.0,0.0617
1633.0,0.0611
1632.0,0.0605
1631.0,0.0599
1630.0,0.0593
1629.0,0.0588
1628.0,0.0584
1627.0,0.058
1626.0,0.0574
1625.0,0.0568
1624.0,0.0563
1623.0,0.0559
1622.0,0.0555
1621.0,0.0551
1620.0,0.0547
1619.0,0.0542
1618.0,0.0539
1617.0,0.0541
1616.0,0.0544
1615.0,0.0543
1614.0,0.0538
1613.0,0.0531
1612.0,0.0524
1611.0,0.0515
1610.0,0.0505
1609.0,0.0494
1608.0,0.0484
1607.0,0.0475
1606.0,0.0465
1605.0,0.0455
1604.0,0.0445
1603.0,0.0434
1602.0,0.0424
1601.0,0.0414
1600.0,0.0404
1599.0,0.0395
1598.0,0.0386
1597.0,0.0378
1596.0,0.0371
1595.0,0.0364
1594.0,0.0357
1593.0,0.0351
1592.0,0.0345
1591.0,0.0339
1590.0,0.0333
1589.0,0.0328
1588.0,0.0325
1587.0,0.0323
1586.0,0.0323
1585.0,0.0327
1584.0,0.0334
1583.0,0.0344
1582.0,0.0357
1581.0,0.037
1580.0,0.0381
1579.0,0.0389
1578.0,0.039
1577.0,0.0386
1576.0,0.0375
1575.0,0.0363
1574.0,0.0351
1573.0,0.0341
1572.0,0.0331
1571.0,0.032
1570.0,0.0309
1569.0,0.03
1568.0,0.0293
1567.0,0.0286
1566.0,0.028
1565.0,0.0275
1564.0,0.0271
1563.0,0.0268
1562.0,0.0266
1561.0,0.0264
1560.0,0.0259
1559.0,0.0255
1558.0,0.025
1557.0,0.0246
1556.0,0.0242
1555.0,0.0239
1554.0,0.0236
1553.0,0.0233
1552.0,0.0231
1551.0,0.0228
1550.0,0.0225
1549.0,0.0222
1548.0,0.0219
1547.0,0.0216
1546.0,0.0215
1545.0,0.0213
1544.0,0.0212
1543.0,0.021
1542.0,0.0208
1541.0,0.0206
1540.0,0.0205
1539.0,0.0201
1538.0,0.0198
1537.0,0.0196
1536.0,0.0195
1535.0,0.0194
1534.0,0.0193
1533.0,0.0193
1532.0,0.0192
1531.0,0.019
1530.0,0.019
1529.0,0.019
1528.0,0.019
1527.0,0.019
1526.0,0.0188
1525.0,0.0185
1524.0,0.0184
1523.0,0.0182
1522.0,0.0179
1521.0,0.0176
1520.0,0.0173
1519.0,0.0172
1518.0,0.017
1517.0,0.0169
1516.0,0.0167
1515.0,0.0164
1514.0,0.0163
1513.0,0.0163
1512.0,0.0167
1511.0,0.0173
1510.0,0.0181
1509.0,0.0194
1508.0,0.0224
1507.0,0.0275
1506.0,0.031
1505.0,0.0316
1504.0,0.0308
1503.0,0.0294
1502.0,0.0277
1501.0,0.0256
1500.0,0.0235
1499.0,0.0215
1498.0,0.0198
1497.0,0.0183
1496.0,0.017
1495.0,0.0161
1494.0,0.0155
1493.0,0.0151
1492.0,0.0149
1491.0,0.0145
1490.0,0.0142
1489.0,0.014
1488.0,0.0137
1487.0,0.0134
1486.0,0.0132
1485.0,0.013
1484.0,0.0129
1483.0,0.0128
1482.0,0.0128
1481.0,0.013
1480.0,0.0131
1479.0,0.0133
1478.0,0.0134
1477.0,0.0136
1476.0,0.0138
1475.0,0.0139
1474.0,0.014
1473.0,0.0141
1472.0,0.0141
1471.0,0.0141
1470.0,0.0141
1469.0,0.0143
1468.0,0.0148
1467.0,0.0154
1466.0,0.0162
1465.0,0.0174
1464.0,0.0186
1463.0,0.0196
1462.0,0.0206
1461.0,0.0217
1460.0,0.023
1459.0,0.0245
1458.0,0.0264
1457.0,0.0286
1456.0,0.0299
1455.0,0.0303
1454.0,0.0305
1453.0,0.0307
1452.0,0.0309
1451.0,0.0309
1450.0,0.0308
1449.0,0.0307
1448.0,0.0306
1447.0,0.0304
1446.0,0.0302
1445.0,0.0301
1444.0,0.0301
1443.0,0.03
1442.0,0.0299
1441.0,0.0298
1440.0,0.0297
1439.0,0.0295
1438.0,0.0289
1437.0,0.0277
1436.0,0.0262
1435.0,0.0247
1434.0,0.0234
1433.0,0.022
1432.0,0.0205
1431.0,0.0188
1430.0,0.0171
1429.0,0.0154
1428.0,0.0142
1427.0,0.0132
1426.0,0.0124
1425.0,0.0116
1424.0,0.0109
1423.0,0.0105
1422.0,0.0104
1421.0,0.0107
1420.0,0.0116
1419.0,0.0133
1418.0,0.0157
1417.0,0.0187
1416.0,0.0227
1415.0,0.028
1414.0,0.0346
1413.0,0.0426
1412.0,0.0513
1411.0,0.0593
1410.0,0.0652
1409.0,0.0685
1408.0,0.0691
1407.0,0.0672
1406.0,0.0633
1405.0,0.0585
1404.0,0.0538
1403.0,0.05
1402.0,0.047
1401.0,0.0444
1400.0,0.0418
1399.0,0.0393
1398.0,0.0372
1397.0,0.0354
1396.0,0.0338
1395.0,0.0319
1394.0,0.0301
1393.0,0.0286
1392.0,0.0274
1391.0,0.0263
1390.0,0.0252
1389.0,0.0242
1388.0,0.0231
1387.0,0.0221
1386.0,0.0213
1385.0,0.0208
1384.0,0.0206
1383.0,0.0206
1382.0,0.0209
1381.0,0.0214
1380.0,0.0222
1379.0,0.0231
1378.0,0.0242
1377.0,0.0253
1376.0,0.0266
1375.0,0.0281
1374.0,0.0297
1373.0,0.0309
1372.0,0.0318
1371.0,0.0322
1370.0,0.0321
1369.0,0.0315
1368.0,0.0303
1367.0,0.0286
1366.0,0.0267
1365.0,0.0245
1364.0,0.0219
1363.0,0.0189
1362.0,0.016
1361.0,0.0137
1360.0,0.0119
1359.0,0.0104
1358.0,0.0093
1357.0,0.0083
1356.0,0.0076
1355.0,0.007
1354.0,0.0065
1353.0,0.0062
1352.0,0.0062
1351.0,0.0063
1350.0,0.0067
1349.0,0.0074
1348.0,0.0082
1347.0,0.0094
1346.0,0.0107
1345.0,0.0121
1344.0,0.0137
1343.0,0.0151
1342.0,0.0163
1341.0,0.0173
1340.0,0.0177
1339.0,0.0173
1338.0,0.0161
1337.0,0.0144
1336.0,0.0125
1335.0,0.0104
1334.0,0.0085
1333.0,0.0069
1332.0,0.0057
1331.0,0.0048
1330.0,0.0044
1329.0,0.0043
1328.0,0.0044
1327.0,0.0048
1326.0,0.0054
1325.0,0.0062
1324.0,0.0071
1323.0,0.0082
1322.0,0.0093
1321.0,0.0106
1320.0,0.0118
1319.0,0.013
1318.0,0.0142
1317.0,0.0153
1316.0,0.0165
1315.0,0.0177
1314.0,0.0191
1313.0,0.0206
1312.0,0.0223
1311.0,0.0239
1310.0,0.0257
1309.0,0.0275
1308.0,0.0294
1307.0,0.0313
1306.0,0.0331
1305.0,0.035
1304.0,0.037
1303.0,0.0392
1302.0,0.0419
1301.0,0.045
1300.0,0.0487
1299.0,0.0527
1298.0,0.0571
1297.0,0.0617
1296.0,0.0664
1295.0,0.0711
1294.0,0.0756
1293.0,0.08
1292.0,0.0844
1291.0,0.0885
1290.0,0.0924
1289.0,0.0962
1288.0,0.0998
1287.0,0.103
1286.0,0.1058
1285.0,0.1084
1284.0,0.1107
1283.0,0.1126
1282.0,0.1142
1281.0,0.1157
1280.0,0.117
1279.0,0.1182
1278.0,0.1192
1277.0,0.1204
1276.0,0.1219
1275.0,0.1238
1274.0,0.1262
1273.0,0.1294
1272.0,0.1335
1271.0,0.1384
1270.0,0.1438
1269.0,0.1496
1268.0,0.1557
1267.0,0.1618
1266.0,0.1676
1265.0,0.1732
1264.0,0.1785
1263.0,0.1832
1262.0,0.187
1261.0,0.19
1260.0,0.1924
1259.0,0.1938
1258.0,0.1946
1257.0,0.1951
1256.0,0.1955
1255.0,0.1961
1254.0,0.1968
1253.0,0.1981
1252.0,0.1998
1251.0,0.2019
1250.0,0.2043
1249.0,0.2071
1248.0,0.2103
1247.0,0.2135
1246.0,0.2167
1245.0,0.2199
1244.0,0.223
1243.0,0.2257
1242.0,0.2278
1241.0,0.2292
1240.0,0.23
1239.0,0.2297
1238.0,0.228
1237.0,0.2252
1236.0,0.2214
1235.0,0.2164
1234.0,0.2105
1233.0,0.2041
1232.0,0.1974
1231.0,0.1905
1230.0,0.1837
1229.0,0.1771
1228.0,0.1709
1227.0,0.1648
1226.0,0.1588
1225.0,0.1532
1224.0,0.148
1223.0,0.143
1222.0,0.1382
1221.0,0.1337
1220.0,0.1295
1219.0,0.1256
1218.0,0.1219
1217.0,0.1185
1216.0,0.1154
1215.0,0.1124
1214.0,0.1096
1213.0,0.107
1212.0,0.1046
1211.0,0.1024
1210.0,0.1004
1209.0,0.0985
1208.0,0.0967
1207.0,0.0951
1206.0,0.0934
1205.0,0.0919
1204.0,0.0906
1203.0,0.0894
1202.0,0.0882
1201.0,0.0871
1200.0,0.086
1199.0,0.085
1198.0,0.084
1197.0,0.0831
1196.0,0.0822
1195.0,0.0814
1194.0,0.0806
1193.0,0.0799
1192.0,0.0792
1191.0,0.0786
1190.0,0.078
1189.0,0.0777
1188.0,0.0774
1187.0,0.0772
1186.0,0.077
1185.0,0.077
1184.0,0.0772
1183.0,0.0776
1182.0,0.0783
1181.0,0.0791
1180.0,0.0802
1179.0,0.0814
1178.0,0.0826
1177.0,0.0838
1176.0,0.0849
1175.0,0.086
1174.0,0.0868
1173.0,0.0873
1172.0,0.0876
1171.0,0.0874
1170.0,0.0869
1169.0,0.0862
1168.0,0.0854
1167.0,0.0846
1166.0,0.0838
1165.0,0.0832
1164.0,0.0828
1163.0,0.0824
1162.0,0.082
1161.0,0.0817
1160.0,0.0815
1159.0,0.0813
1158.0,0.0812
1157.0,0.0813
1156.0,0.0815
1155.0,0.0819
1154.0,0.0824
1153.0,0.0832
1152.0,0.0842
1151.0,0.0855
1150.0,0.087
1149.0,0.0887
1148.0,0.0908
1147.0,0.0931
1146.0,0.0955
1145.0,0.0982
1144.0,0.1011
1143.0,0.1041
1142.0,0.1072
1141.0,0.1104
1140.0,0.1137
1139.0,0.1168
1138.0,0.1197
1137.0,0.1225
1136.0,0.1252
1135.0,0.1278
1134.0,0.1301
1133.0,0.1326
1132.0,0.1351
1131.0,0.1378
1130.0,0.1406
1129.0,0.1439
1128.0,0.1477
1127.0,0.1518
1126.0,0.1564
1125.0,0.1616
1124.0,0.1672
1123.0,0.1731
1122.0,0.1791
1121.0,0.185
1120.0,0.1907
1119.0,0.1956
1118.0,0.1996
1117.0,0.2025
1116.0,0.2043
1115.0,0.2048
1114.0,0.2042
1113.0,0.2032
1112.0,0.2023
1111.0,0.2017
1110.0,0.2019
1109.0,0.2038
1108.0,0.2073
1107.0,0.2123
1106.0,0.2185
1105.0,0.2259
1104.0,0.2345
1103.0,0.2438
1102.0,0.2537
1101.0,0.2641
1100.0,0.275
1099.0,0.2856
1098.0,0.2956
1097.0,0.3052
1096.0,0.3141
1095.0,0.3219
1094.0,0.3283
1093.0,0.3337
1092.0,0.3383
1091.0,0.3414
1090.0,0.3432
1089.0,0.344
1088.0,0.3442
1087.0,0.3434
1086.0,0.3418
1085.0,0.3399
1084.0,0.3378
1083.0,0.3348
1082.0,0.3307
1081.0,0.3259
1080.0,0.3205
1079.0,0.314
1078.0,0.3065
1077.0,0.2986
1076.0,0.2906
1075.0,0.2821
1074.0,0.2732
1073.0,0.2644
1072.0,0.2557
1071.0,0.2469
1070.0,0.2381
1069.0,0.2297
1068.0,0.2215
1067.0,0.2134
1066.0,0.2053
1065.0,0.1978
1064.0,0.1908
1063.0,0.184
1062.0,0.1777
1061.0,0.1719
1060.0,0.1669
1059.0,0.1625
1058.0,0.1588
1057.0,0.1561
1056.0,0.1543
1055.0,0.1531
1054.0,0.1526
1053.0,0.1528
1052.0,0.1537
1051.0,0.1551
1050.0,0.1568
1049.0,0.1588
1048.0,0.1609
1047.0,0.1627
1046.0,0.1643
1045.0,0.1656
1044.0,0.1668
1043.0,0.1675
1042.0,0.1676
1041.0,0.1672
1040.0,0.1664
1039.0,0.165
1038.0,0.1631
1037.0,0.1611
1036.0,0.1592
1035.0,0.1572
1034.0,0.1552
1033.0,0.1534
1032.0,0.1517
1031.0,0.1498
1030.0,0.148
1029.0,0.1462
1028.0,0.1447
1027.0,0.1435
1026.0,0.1432
1025.0,0.1445
1024.0,0.1483
1023.0,0.155
1022.0,0.1653
1021.0,0.1794
1020.0,0.1964
1019.0,0.2145
1018.0,0.2307
1017.0,0.2422
1016.0,0.2462
1015.0,0.2417
1014.0,0.2305
1013.0,0.216
1012.0,0.2014
1011.0,0.1885
1010.0,0.1776
1009.0,0.1687
1008.0,0.1613
1007.0,0.155
1006.0,0.1497
1005.0,0.1452
1004.0,0.1415
1003.0,0.138
1002.0,0.1348
1001.0,0.1317
1000.0,0.1287
999.0,0.1258
998.0,0.123
997.0,0.1205
996.0,0.1181
995.0,0.1159
994.0,0.1138
993.0,0.112
992.0,0.1103
991.0,0.1087
990.0,0.1073
989.0,0.1063
988.0,0.1056
987.0,0.1054
986.0,0.1055
985.0,0.1057
984.0,0.1058
983.0,0.1053
982.0,0.1046
981.0,0.1039
980.0,0.1033
979.0,0.1028
978.0,0.1025
977.0,0.1024
976.0,0.1023
975.0,0.1023
974.0,0.1021
973.0,0.1019
972.0,0.1017
971.0,0.1012
970.0,0.1005
969.0,0.0997
968.0,0.0989
967.0,0.0979
966.0,0.0969
965.0,0.0958
964.0,0.0947
963.0,0.0936
962.0,0.0925
961.0,0.0915
960.0,0.0905
959.0,0.0896
958.0,0.0886
957.0,0.0877
956.0,0.087
955.0,0.0863
954.0,0.0856
953.0,0.085
952.0,0.0845
951.0,0.084
950.0,0.0835
949.0,0.083
948.0,0.0826
947.0,0.0821
946.0,0.0817
945.0,0.0813
944.0,0.0809
943.0,0.0805
942.0,0.0802
941.0,0.0799
940.0,0.0796
939.0,0.0792
938.0,0.079
937.0,0.0787
936.0,0.0786
935.0,0.0784
934.0,0.0781
933.0,0.0779
932.0,0.0776
931.0,0.0773
930.0,0.0769
929.0,0.0765
928.0,0.0761
927.0,0.0756
926.0,0.0752
925.0,0.0748
924.0,0.0744
923.0,0.074
922.0,0.0736
921.0,0.0732
920.0,0.0729
919.0,0.0726
918.0,0.0723
917.0,0.0722
916.0,0.0723
915.0,0.0724
914.0,0.0727
913.0,0.0732
912.0,0.074
911.0,0.075
910.0,0.0761
909.0,0.0774
908.0,0.079
907.0,0.0809
906.0,0.0828
905.0,0.0849
904.0,0.0871
903.0,0.0892
902.0,0.091
901.0,0.0927
900.0,0.0941
899.0,0.0954
898.0,0.0964
897.0,0.0971
896.0,0.0976
895.0,0.0978
894.0,0.0978
893.0,0.0976
892.0,0.0975
891.0,0.0975
890.0,0.0977
889.0,0.0981
888.0,0.0989
887.0,0.0999
886.0,0.1011
885.0,0.1025
884.0,0.1044
883.0,0.1066
882.0,0.1093
881.0,0.1127
880.0,0.1167
879.0,0.1212
878.0,0.1261
877.0,0.1312
876.0,0.1364
875.0,0.1411
874.0,0.1448
873.0,0.1472
872.0,0.1481
871.0,0.1472
870.0,0.1446
869.0,0.1408
868.0,0.1363
867.0,0.1316
866.0,0.1271
865.0,0.123
864.0,0.1194
863.0,0.1163
862.0,0.1137
861.0,0.1117
860.0,0.1102
859.0,0.109
858.0,0.108
857.0,0.1073
856.0,0.1069
855.0,0.1067
854.0,0.1065
853.0,0.1065
852.0,0.1066
851.0,0.1065
850.0,0.1063
849.0,0.1063
848.0,0.1064
847.0,0.1065
846.0,0.1066
845.0,0.1067
844.0,0.1068
843.0,0.1069
842.0,0.1069
841.0,0.1069
840.0,0.1068
839.0,0.1067
838.0,0.1063
837.0,0.106
836.0,0.1056
835.0,0.1051
834.0,0.1045
833.0,0.1039
832.0,0.1033
831.0,0.1027
830.0,0.1019
829.0,0.1013
828.0,0.1009
827.0,0.1005
826.0,0.1002
825.0,0.0999
824.0,0.0995
823.0,0.0992
822.0,0.0989
821.0,0.0988
820.0,0.0987
819.0,0.0986
818.0,0.0985
817.0,0.0984
816.0,0.0984
815.0,0.0984
814.0,0.0984
813.0,0.0985
812.0,0.0988
811.0,0.0989
810.0,0.0989
809.0,0.0989
808.0,0.0988
807.0,0.0988
806.0,0.0988
805.0,0.0989
804.0,0.0989
803.0,0.0987
802.0,0.0982
801.0,0.0976
800.0,0.0972
799.0,0.0975
798.0,0.0986
797.0,0.101
796.0,0.1042
795.0,0.1075
794.0,0.1103
793.0,0.1122
792.0,0.113
791.0,0.1128
790.0,0.1117
789.0,0.11
788.0,0.1081
787.0,0.106
786.0,0.1039
785.0,0.1021
784.0,0.1006
783.0,0.0994
782.0,0.0981
781.0,0.097
780.0,0.096
779.0,0.095
778.0,0.094
777.0,0.0931
776.0,0.0923
775.0,0.0916
774.0,0.0908
773.0,0.0901
772.0,0.0893
771.0,0.0884
770.0,0.0874
769.0,0.0865
768.0,0.0857
767.0,0.0848
766.0,0.0839
765.0,0.083
764.0,0.082
763.0,0.0809
762.0,0.0797
761.0,0.0785
760.0,0.0773
759.0,0.0761
758.0,0.0747
757.0,0.0733
756.0,0.0719
755.0,0.0703
754.0,0.0684
753.0,0.0664
752.0,0.0644
751.0,0.0623
750.0,0.0603
749.0,0.0584
748.0,0.0568
747.0,0.0553
746.0,0.0542
745.0,0.0537
744.0,0.0543
743.0,0.0561
742.0,0.0595
741.0,0.0652
740.0,0.0735
739.0,0.0841
738.0,0.0967
737.0,0.111
736.0,0.1266
735.0,0.1429
734.0,0.1595
733.0,0.1771
732.0,0.1961
731.0,0.2169
730.0,0.2399
729.0,0.2659
728.0,0.2948
727.0,0.3252
726.0,0.3543
725.0,0.3791
724.0,0.3952
723.0,0.3988
722.0,0.3895
721.0,0.3708
720.0,0.3478
719.0,0.3248
718.0,0.3041
717.0,0.2863
716.0,0.2711
715.0,0.2581
714.0,0.2473
713.0,0.2387
712.0,0.232
711.0,0.2266
710.0,0.2218
709.0,0.2177
708.0,0.214
707.0,0.2107
706.0,0.2075
705.0,0.2048
704.0,0.2024
703.0,0.2
702.0,0.1972
701.0,0.1945
700.0,0.1918
699.0,0.1888
698.0,0.1854
697.0,0.1822
696.0,0.1795
695.0,0.1772
694.0,0.175
693.0,0.173
692.0,0.1714
691.0,0.17
690.0,0.1683
689.0,0.1664
688.0,0.1645
687.0,0.1628
686.0,0.1617
685.0,0.1614
684.0,0.1616
683.0,0.1614
682.0,0.1607
681.0,0.1602
680.0,0.1607
679.0,0.1616
678.0,0.1623
677.0,0.1626
676.0,0.1624
675.0,0.1615
674.0,0.1601
673.0,0.159
672.0,0.158
671.0,0.1568
670.0,0.1551
669.0,0.1557
668.0,0.16
667.0,0.1631
666.0,0.1637
665.0,0.164
664.0,0.1644
663.0,0.1648
662.0,0.1647
661.0,0.1642
660.0,0.1637
659.0,0.1635
658.0,0.164
657.0,0.1658
656.0,0.1681
655.0,0.1694
654.0,0.169
653.0,0.168
652.0,0.1671
651.0,0.1662
650.0,0.1655
649.0,0.1654
648.0,0.1653
647.0,0.1642
646.0,0.1623
645.0,0.161
644.0,0.1607
643.0,0.1605
642.0,0.1602
641.0,0.1607
640.0,0.1626
639.0,0.1655
638.0,0.1687
637.0,0.1731
636.0,0.1788
635.0,0.1838
634.0,0.186
633.0,0.1853
632.0,0.1829
631.0,0.1791
630.0,0.1749
629.0,0.1716
628.0,0.1698
627.0,0.1687
626.0,0.1677
625.0,0.1675
624.0,0.1681
623.0,0.1683
622.0,0.1678
621.0,0.1675
620.0,0.1684
619.0,0.1694
618.0,0.1697
617.0,0.1698
616.0,0.1704
615.0,0.1708
614.0,0.1705
613.0,0.1703
612.0,0.1709
611.0,0.1716
610.0,0.1719
609.0,0.1719
608.0,0.1721
607.0,0.1718
606.0,0.1714
605.0,0.1726
604.0,0.1765
603.0,0.181
602.0,0.184
601.0,0.1863
600.0,0.1884
