cm-1,A
4000.0,0.009
3999.0,0.009
3998.0,0.009
3997.0,0.009
3996.0,0.009
3995.0,0.009
3994.0,0.009
3993.0,0.009
3992.0,0.0089
3991.0,0.0089
3990.0,0.0089
3989.0,0.0089
3988.0,0.0089
3987.0,0.0089
3986.0,0.0089
3985.0,0.009
3984.0,0.009
3983.0,0.009
3982.0,0.009
3981.0,0.009
3980.0,0.0089
3979.0,0.0088
3978.0,0.0088
3977.0,0.0088
3976.0,0.0089
3975.0,0.0089
3974.0,0.0088
3973.0,0.0088
3972.0,0.0088
3971.0,0.0088
3970.0,0.0089
3969.0,0.0089
3968.0,0.009
3967.0,0.009
3966.0,0.009
3965.0,0.009
3964.0,0.009
3963.0,0.009
3962.0,0.009
3961.0,0.0089
3960.0,0.0088
3959.0,0.0088
3958.0,0.0088
3957.0,0.0088
3956.0,0.0088
3955.0,0.0087
3954.0,0.0087
3953.0,0.0086
3952.0,0.0086
3951.0,0.0086
3950.0,0.0086
3949.0,0.0086
3948.0,0.0086
3947.0,0.0086
3946.0,0.0087
3945.0,0.0088
3944.0,0.0089
3943.0,0.0089
3942.0,0.0089
3941.0,0.0088
3940.0,0.0088
3939.0,0.0088
3938.0,0.0088
3937.0,0.0088
3936.0,0.0088
3935.0,0.0089
3934.0,0.009
3933.0,0.009
3932.0,0.0091
3931.0,0.0091
3930.0,0.0091
3929.0,0.009
3928.0,0.009
3927.0,0.0089
3926.0,0.0089
3925.0,0.0089
3924.0,0.0089
3923.0,0.0089
3922.0,0.0089
3921.0,0.0089
3920.0,0.0088
3919.0,0.0088
3918.0,0.0089
3917.0,0.0089
3916.0,0.0089
3915.0,0.009
3914.0,0.0091
3913.0,0.0091
3912.0,0.0092
3911.0,0.0091
3910.0,0.0091
3909.0,0.0089
3908.0,0.0088
3907.0,0.0086
3906.0,0.0084
3905.0,0.0083
3904.0,0.0083
3903.0,0.0084
3902.0,0.0086
3901.0,0.0089
3900.0,0.0091
3899.0,0.0092
3898.0,0.0092
3897.0,0.0092
3896.0,0.0092
3895.0,0.0091
3894.0,0.009
3893.0,0.009
3892.0,0.009
3891.0,0.009
3890.0,0.0089
3889.0,0.0089
3888.0,0.0088
3887.0,0.0088
3886.0,0.0087
3885.0,0.0087
3884.0,0.0088
3883.0,0.0089
3882.0,0.0091
3881.0,0.0091
3880.0,0.009
3879.0,0.009
3878.0,0.009
3877.0,0.0091
3876.0,0.0091
3875.0,0.0089
3874.0,0.0088
3873.0,0.0087
3872.0,0.0088
3871.0,0.0089
3870.0,0.0089
3869.0,0.0087
3868.0,0.0088
3867.0,0.009
3866.0,0.0092
3865.0,0.0092
3864.0,0.0092
3863.0,0.0091
3862.0,0.0091
3861.0,0.0092
3860.0,0.0092
3859.0,0.0092
3858.0,0.0092
3857.0,0.0092
3856.0,0.0092
3855.0,0.0094
3854.0,0.0095
3853.0,0.0092
3852.0,0.009
3851.0,0.0092
3850.0,0.0095
3849.0,0.0095
3848.0,0.0094
3847.0,0.0093
3846.0,0.0092
3845.0,0.0091
3844.0,0.009
3843.0,0.0088
3842.0,0.0088
3841.0,0.0088
3840.0,0.009
3839.0,0.0092
3838.0,0.0092
3837.0,0.0091
3836.0,0.0091
3835.0,0.0091
3834.0,0.0092
3833.0,0.0093
3832.0,0.0093
3831.0,0.0093
3830.0,0.0094
3829.0,0.0094
3828.0,0.0094
3827.0,0.0093
3826.0,0.0092
3825.0,0.009
3824.0,0.009
3823.0,0.0091
3822.0,0.0092
3821.0,0.0092
3820.0,0.0091
3819.0,0.0092
3818.0,0.0095
3817.0,0.0096
3816.0,0.0096
3815.0,0.0095
3814.0,0.0096
3813.0,0.0097
3812.0,0.0097
3811.0,0.0095
3810.0,0.0093
3809.0,0.0092
3808.0,0.0092
3807.0,0.009
3806.0,0.0089
3805.0,0.0089
3804.0,0.0089
3803.0,0.009
3802.0,0.009
3801.0,0.0089
3800.0,0.0089
3799.0,0.0092
3798.0,0.0095
3797.0,0.0096
3796.0,0.0096
3795.0,0.0095
3794.0,0.0095
3793.0,0.0095
3792.0,0.0095
3791.0,0.0094
3790.0,0.0094
3789.0,0.0094
3788.0,0.0094
3787.0,0.0095
3786.0,0.0095
3785.0,0.0096
3784.0,0.0095
3783.0,0.0095
3782.0,0.0094
3781.0,0.0094
3780.0,0.0095
3779.0,0.0095
3778.0,0.0095
3777.0,0.0096
3776.0,0.0096
3775.0,0.0096
3774.0,0.0095
3773.0,0.0094
3772.0,0.0095
3771.0,0.0096
3770.0,0.0097
3769.0,0.0097
3768.0,0.0097
3767.0,0.0097
3766.0,0.0097
3765.0,0.0096
3764.0,0.0095
3763.0,0.0095
3762.0,0.0096
3761.0,0.0095
3760.0,0.0095
3759.0,0.0094
3758.0,0.0094
3757.0,0.0093
3756.0,0.0094
3755.0,0.0094
3754.0,0.0095
3753.0,0.0097
3752.0,0.0099
3751.0,0.01
3750.0,0.0098
3749.0,0.0095
3748.0,0.0094
3747.0,0.0094
3746.0,0.0094
3745.0,0.0095
3744.0,0.0093
3743.0,0.0092
3742.0,0.0093
3741.0,0.0094
3740.0,0.0092
3739.0,0.0089
3738.0,0.0087
3737.0,0.0087
3736.0,0.0087
3735.0,0.0085
3734.0,0.0082
3733.0,0.008
3732.0,0.008
3731.0,0.008
3730.0,0.0081
3729.0,0.0082
3728.0,0.0083
3727.0,0.0083
3726.0,0.0083
3725.0,0.0082
3724.0,0.0083
3723.0,0.0083
3722.0,0.0084
3721.0,0.0085
3720.0,0.0086
3719.0,0.0088
3718.0,0.0089
3717.0,0.009
3716.0,0.0091
3715.0,0.0091
3714.0,0.0091
3713.0,0.0091
3712.0,0.0092
3711.0,0.0092
3710.0,0.0091
3709.0,0.0091
3708.0,0.0091
3707.0,0.0091
3706.0,0.0091
3705.0,0.009
3704.0,0.0089
3703.0,0.0088
3702.0,0.0088
3701.0,0.0088
3700.0,0.0088
3699.0,0.0089
3698.0,0.0089
3697.0,0.0089
3696.0,0.0088
3695.0,0.0087
3694.0,0.0087
3693.0,0.0086
3692.0,0.0087
3691.0,0.0088
3690.0,0.009
3689.0,0.0091
3688.0,0.0091
3687.0,0.0092
3686.0,0.0094
3685.0,0.0095
3684.0,0.0095
3683.0,0.0095
3682.0,0.0094
3681.0,0.0094
3680.0,0.0094
3679.0,0.0092
3678.0,0.0092
3677.0,0.0093
3676.0,0.0093
3675.0,0.0091
3674.0,0.009
3673.0,0.0091
3672.0,0.0093
3671.0,0.0094
3670.0,0.0096
3669.0,0.0097
3668.0,0.0099
3667.0,0.0101
3666.0,0.0102
3665.0,0.0102
3664.0,0.0102
3663.0,0.0101
3662.0,0.01
3661.0,0.01
3660.0,0.01
3659.0,0.0101
3658.0,0.0101
3657.0,0.0101
3656.0,0.0098
3655.0,0.0096
3654.0,0.0095
3653.0,0.0095
3652.0,0.0096
3651.0,0.0097
3650.0,0.0098
3649.0,0.0097
3648.0,0.0095
3647.0,0.0096
3646.0,0.0097
3645.0,0.0099
3644.0,0.0099
3643.0,0.0099
3642.0,0.0099
3641.0,0.0099
3640.0,0.0099
3639.0,0.01
3638.0,0.01
3637.0,0.0099
3636.0,0.0099
3635.0,0.0098
3634.0,0.0096
3633.0,0.0094
3632.0,0.0092
3631.0,0.009
3630.0,0.0091
3629.0,0.0092
3628.0,0.0092
3627.0,0.0093
3626.0,0.0095
3625.0,0.0096
3624.0,0.0095
3623.0,0.0094
3622.0,0.0093
3621.0,0.0091
3620.0,0.009
3619.0,0.009
3618.0,0.009
3617.0,0.0091
3616.0,0.0093
3615.0,0.0095
3614.0,0.0096
3613.0,0.0097
3612.0,0.0097
3611.0,0.0098
3610.0,0.0099
3609.0,0.01
3608.0,0.0101
3607.0,0.0101
3606.0,0.0101
3605.0,0.01
3604.0,0.0099
3603.0,0.0098
3602.0,0.0097
3601.0,0.0096
3600.0,0.0096
3599.0,0.0096
3598.0,0.0096
3597.0,0.0096
3596.0,0.0096
3595.0,0.0097
3594.0,0.0097
3593.0,0.0098
3592.0,0.0098
3591.0,0.0098
3590.0,0.0097
3589.0,0.0097
3588.0,0.0097
3587.0,0.0097
3586.0,0.0097
3585.0,0.0099
3584.0,0.0102
3583.0,0.0103
3582.0,0.0104
3581.0,0.0104
3580.0,0.0105
3579.0,0.0106
3578.0,0.0107
3577.0,0.0108
3576.0,0.0108
3575.0,0.0108
3574.0,0.0107
3573.0,0.0107
3572.0,0.0105
3571.0,0.0104
3570.0,0.0102
3569.0,0.0101
3568.0,0.0101
3567.0,0.0101
3566.0,0.0101
3565.0,0.0101
3564.0,0.0103
3563.0,0.0104
3562.0,0.0106
3561.0,0.0107
3560.0,0.0109
3559.0,0.011
3558.0,0.011
3557.0,0.0111
3556.0,0.0111
3555.0,0.0111
3554.0,0.0111
3553.0,0.0111
3552.0,0.011
3551.0,0.0109
3550.0,0.0109
3549.0,0.0109
3548.0,0.0109
3547.0,0.0108
3546.0,0.0107
3545.0,0.0108
3544.0,0.0109
3543.0,0.0111
3542.0,0.0112
3541.0,0.0112
3540.0,0.0111
3539.0,0.011
3538.0,0.0108
3537.0,0.0108
3536.0,0.0109
3535.0,0.011
3534.0,0.0111
3533.0,0.0111
3532.0,0.0112
3531.0,0.0111
3530.0,0.0111
3529.0,0.011
3528.0,0.0109
3527.0,0.0108
3526.0,0.0108
3525.0,0.0108
3524.0,0.0109
3523.0,0.011
3522.0,0.0111
3521.0,0.0111
3520.0,0.0112
3519.0,0.0112
3518.0,0.0113
3517.0,0.0114
3516.0,0.0114
3515.0,0.0113
3514.0,0.0113
3513.0,0.0113
3512.0,0.0113
3511.0,0.0113
3510.0,0.0113
3509.0,0.0113
3508.0,0.0112
3507.0,0.0112
3506.0,0.0111
3505.0,0.011
3504.0,0.011
3503.0,0.011
3502.0,0.0111
3501.0,0.0113
3500.0,0.0115
3499.0,0.0116
3498.0,0.0117
3497.0,0.0117
3496.0,0.0116
3495.0,0.0116
3494.0,0.0116
3493.0,0.0116
3492.0,0.0117
3491.0,0.0117
3490.0,0.0117
3489.0,0.0117
3488.0,0.0116
3487.0,0.0116
3486.0,0.0116
3485.0,0.0116
3484.0,0.0115
3483.0,0.0115
3482.0,0.0115
3481.0,0.0115
3480.0,0.0116
3479.0,0.0116
3478.0,0.0116
3477.0,0.0116
3476.0,0.0116
3475.0,0.0115
3474.0,0.0115
3473.0,0.0115
3472.0,0.0116
3471.0,0.0116
3470.0,0.0115
3469.0,0.0115
3468.0,0.0116
3467.0,0.0116
3466.0,0.0117
3465.0,0.0116
3464.0,0.0116
3463.0,0.0116
3462.0,0.0115
3461.0,0.0115
3460.0,0.0114
3459.0,0.0114
3458.0,0.0115
3457.0,0.0116
3456.0,0.0117
3455.0,0.0117
3454.0,0.0118
3453.0,0.0118
3452.0,0.0118
3451.0,0.0118
3450.0,0.0118
3449.0,0.0118
3448.0,0.0118
3447.0,0.0118
3446.0,0.0118
3445.0,0.0117
3444.0,0.0116
3443.0,0.0116
3442.0,0.0115
3441.0,0.0115
3440.0,0.0115
3439.0,0.0116
3438.0,0.0117
3437.0,0.0117
3436.0,0.0117
3435.0,0.0117
3434.0,0.0117
3433.0,0.0117
3432.0,0.0117
3431.0,0.0118
3430.0,0.0119
3429.0,0.0119
3428.0,0.0119
3427.0,0.0118
3426.0,0.0117
3425.0,0.0117
3424.0,0.0116
3423.0,0.0116
3422.0,0.0116
3421.0,0.0116
3420.0,0.0117
3419.0,0.0118
3418.0,0.0119
3417.0,0.0119
3416.0,0.0119
3415.0,0.0118
3414.0,0.0118
3413.0,0.0117
3412.0,0.0118
3411.0,0.0119
3410.0,0.0119
3409.0,0.0119
3408.0,0.0119
3407.0,0.0119
3406.0,0.012
3405.0,0.012
3404.0,0.012
3403.0,0.0119
3402.0,0.0119
3401.0,0.0119
3400.0,0.0119
3399.0,0.0119
3398.0,0.0118
3397.0,0.0117
3396.0,0.0116
3395.0,0.0116
3394.0,0.0116
3393.0,0.0117
3392.0,0.0118
3391.0,0.0119
3390.0,0.012
3389.0,0.012
3388.0,0.0119
3387.0,0.0117
3386.0,0.0116
3385.0,0.0115
3384.0,0.0115
3383.0,0.0115
3382.0,0.0116
3381.0,0.0116
3380.0,0.0117
3379.0,0.0117
3378.0,0.0117
3377.0,0.0117
3376.0,0.0116
3375.0,0.0116
3374.0,0.0117
3373.0,0.0117
3372.0,0.0117
3371.0,0.0116
3370.0,0.0116
3369.0,0.0116
3368.0,0.0116
3367.0,0.0116
3366.0,0.0116
3365.0,0.0116
3364.0,0.0116
3363.0,0.0116
3362.0,0.0116
3361.0,0.0116
3360.0,0.0116
3359.0,0.0116
3358.0,0.0116
3357.0,0.0116
3356.0,0.0116
3355.0,0.0116
3354.0,0.0116
3353.0,0.0116
3352.0,0.0116
3351.0,0.0116
3350.0,0.0116
3349.0,0.0116
3348.0,0.0116
3347.0,0.0115
3346.0,0.0115
3345.0,0.0115
3344.0,0.0115
3343.0,0.0116
3342.0,0.0117
3341.0,0.0117
3340.0,0.0116
3339.0,0.0115
3338.0,0.0115
3337.0,0.0114
3336.0,0.0113
3335.0,0.0114
3334.0,0.0114
3333.0,0.0115
3332.0,0.0115
3331.0,0.0114
3330.0,0.0114
3329.0,0.0114
3328.0,0.0114
3327.0,0.0114
3326.0,0.0115
3325.0,0.0116
3324.0,0.0116
3323.0,0.0115
3322.0,0.0114
3321.0,0.0114
3320.0,0.0114
3319.0,0.0114
3318.0,0.0114
3317.0,0.0115
3316.0,0.0115
3315.0,0.0115
3314.0,0.0114
3313.0,0.0113
3312.0,0.0112
3311.0,0.0111
3310.0,0.0111
3309.0,0.011
3308.0,0.0111
3307.0,0.0111
3306.0,0.0111
3305.0,0.0111
3304.0,0.0112
3303.0,0.0112
3302.0,0.0112
3301.0,0.0112
3300.0,0.0112
3299.0,0.0112
3298.0,0.0112
3297.0,0.0112
3296.0,0.0111
3295.0,0.0112
3294.0,0.0112
3293.0,0.0112
3292.0,0.0112
3291.0,0.0112
3290.0,0.0111
3289.0,0.0111
3288.0,0.0111
3287.0,0.0111
3286.0,0.0111
3285.0,0.0111
3284.0,0.0111
3283.0,0.0111
3282.0,0.011
3281.0,0.011
3280.0,0.011
3279.0,0.0109
3278.0,0.0109
3277.0,0.0109
3276.0,0.0108
3275.0,0.0108
3274.0,0.0108
3273.0,0.0108
3272.0,0.0109
3271.0,0.0109
3270.0,0.011
3269.0,0.011
3268.0,0.0109
3267.0,0.0108
3266.0,0.0107
3265.0,0.0107
3264.0,0.0107
3263.0,0.0107
3262.0,0.0107
3261.0,0.0107
3260.0,0.0106
3259.0,0.0106
3258.0,0.0106
3257.0,0.0106
3256.0,0.0106
3255.0,0.0106
3254.0,0.0106
3253.0,0.0107
3252.0,0.0107
3251.0,0.0106
3250.0,0.0106
3249.0,0.0107
3248.0,0.0107
3247.0,0.0107
3246.0,0.0106
3245.0,0.0106
3244.0,0.0106
3243.0,0.0107
3242.0,0.0107
3241.0,0.0108
3240.0,0.0108
3239.0,0.0107
3238.0,0.0107
3237.0,0.0107
3236.0,0.0107
3235.0,0.0107
3234.0,0.0107
3233.0,0.0107
3232.0,0.0107
3231.0,0.0107
3230.0,0.0106
3229.0,0.0106
3228.0,0.0105
3227.0,0.0105
3226.0,0.0105
3225.0,0.0105
3224.0,0.0105
3223.0,0.0105
3222.0,0.0104
3221.0,0.0104
3220.0,0.0104
3219.0,0.0104
3218.0,0.0104
3217.0,0.0104
3216.0,0.0104
3215.0,0.0104
3214.0,0.0104
3213.0,0.0105
3212.0,0.0105
3211.0,0.0105
3210.0,0.0105
3209.0,0.0105
3208.0,0.0105
3207.0,0.0106
3206.0,0.0106
3205.0,0.0107
3204.0,0.0107
3203.0,0.0107
3202.0,0.0107
3201.0,0.0107
3200.0,0.0107
3199.0,0.0107
3198.0,0.0107
3197.0,0.0107
3196.0,0.0106
3195.0,0.0106
3194.0,0.0105
3193.0,0.0104
3192.0,0.0103
3191.0,0.0102
3190.0,0.0102
3189.0,0.0103
3188.0,0.0103
3187.0,0.0103
3186.0,0.0102
3185.0,0.0102
3184.0,0.0102
3183.0,0.0103
3182.0,0.0103
3181.0,0.0103
3180.0,0.0103
3179.0,0.0102
3178.0,0.0102
3177.0,0.0102
3176.0,0.0101
3175.0,0.01
3174.0,0.01
3173.0,0.01
3172.0,0.0099
3171.0,0.0098
3170.0,0.0098
3169.0,0.0099
3168.0,0.0101
3167.0,0.0102
3166.0,0.0102
3165.0,0.0102
3164.0,0.0101
3163.0,0.0101
3162.0,0.0101
3161.0,0.01
3160.0,0.0099
3159.0,0.0098
3158.0,0.0097
3157.0,0.0097
3156.0,0.0097
3155.0,0.0098
3154.0,0.0098
3153.0,0.0098
3152.0,0.0098
3151.0,0.0098
3150.0,0.0098
3149.0,0.0098
3148.0,0.0097
3147.0,0.0097
3146.0,0.0097
3145.0,0.0097
3144.0,0.0097
3143.0,0.0097
3142.0,0.0097
3141.0,0.0096
3140.0,0.0095
3139.0,0.0094
3138.0,0.0093
3137.0,0.0093
3136.0,0.0093
3135.0,0.0094
3134.0,0.0093
3133.0,0.0092
3132.0,0.0091
3131.0,0.0091
3130.0,0.0092
3129.0,0.0093
3128.0,0.0093
3127.0,0.0093
3126.0,0.0092
3125.0,0.0091
3124.0,0.009
3123.0,0.009
3122.0,0.0089
3121.0,0.0089
3120.0,0.0088
3119.0,0.0087
3118.0,0.0087
3117.0,0.0087
3116.0,0.0087
3115.0,0.0088
3114.0,0.0088
3113.0,0.0088
3112.0,0.0087
3111.0,0.0086
3110.0,0.0085
3109.0,0.0085
3108.0,0.0085
3107.0,0.0085
3106.0,0.0085
3105.0,0.0085
3104.0,0.0085
3103.0,0.0085
3102.0,0.0085
3101.0,0.0084
3100.0,0.0084
3099.0,0.0083
3098.0,0.0083
3097.0,0.0082
3096.0,0.0082
3095.0,0.0082
3094.0,0.0082
3093.0,0.0082
3092.0,0.0082
3091.0,0.0082
3090.0,0.0081
3089.0,0.0081
3088.0,0.0081
3087.0,0.0081
3086.0,0.0081
3085.0,0.008
3084.0,0.0079
3083.0,0.0078
3082.0,0.0077
3081.0,0.0077
3080.0,0.0076
3079.0,0.0076
3078.0,0.0076
3077.0,0.0076
3076.0,0.0077
3075.0,0.0077
3074.0,0.0078
3073.0,0.0078
3072.0,0.0078
3071.0,0.0077
3070.0,0.0075
3069.0,0.0074
3068.0,0.0074
3067.0,0.0073
3066.0,0.0073
3065.0,0.0073
3064.0,0.0073
3063.0,0.0073
3062.0,0.0073
3061.0,0.0073
3060.0,0.0072
3059.0,0.0071
3058.0,0.007
3057.0,0.007
3056.0,0.0069
3055.0,0.0069
3054.0,0.0068
3053.0,0.0067
3052.0,0.0066
3051.0,0.0066
3050.0,0.0066
3049.0,0.0066
3048.0,0.0066
3047.0,0.0066
3046.0,0.0065
3045.0,0.0064
3044.0,0.0064
3043.0,0.0063
3042.0,0.0063
3041.0,0.0063
3040.0,0.0062
3039.0,0.0061
3038.0,0.006
3037.0,0.006
3036.0,0.0059
3035.0,0.0059
3034.0,0.0059
3033.0,0.0059
3032.0,0.0059
3031.0,0.0059
3030.0,0.0059
3029.0,0.0059
3028.0,0.0059
3027.0,0.0058
3026.0,0.0058
3025.0,0.0057
3024.0,0.0056
3023.0,0.0054
3022.0,0.0054
3021.0,0.0053
3020.0,0.0053
3019.0,0.0053
3018.0,0.0052
3017.0,0.0051
3016.0,0.0051
3015.0,0.005
3014.0,0.005
3013.0,0.005
3012.0,0.0049
3011.0,0.0049
3010.0,0.0048
3009.0,0.0048
3008.0,0.0048
3007.0,0.0048
3006.0,0.0049
3005.0,0.0048
3004.0,0.0048
3003.0,0.0048
3002.0,0.0048
3001.0,0.0048
3000.0,0.0047
2999.0,0.0047
2998.0,0.0047
2997.0,0.0048
2996.0,0.0049
2995.0,0.005
2994.0,0.0052
2993.0,0.0053
2992.0,0.0055
2991.0,0.0058
2990.0,0.006
2989.0,0.0063
2988.0,0.0066
2987.0,0.0069
2986.0,0.0073
2985.0,0.0078
2984.0,0.0085
2983.0,0.0093
2982.0,0.0102
2981.0,0.0112
2980.0,0.0124
2979.0,0.0138
2978.0,0.0154
2977.0,0.0173
2976.0,0.0195
2975.0,0.0221
2974.0,0.025
2973.0,0.0284
2972.0,0.0321
2971.0,0.0363
2970.0,0.0408
2969.0,0.0458
2968.0,0.0511
2967.0,0.0566
2966.0,0.0622
2965.0,0.0676
2964.0,0.0727
2963.0,0.077
2962.0,0.0802
2961.0,0.0825
2960.0,0.084
2959.0,0.0853
2958.0,0.087
2957.0,0.0897
2956.0,0.0936
2955.0,0.0987
2954.0,0.1049
2953.0,0.1115
2952.0,0.1175
2951.0,0.1219
2950.0,0.1236
2949.0,0.1223
2948.0,0.1181
2947.0,0.1116
2946.0,0.1038
2945.0,0.0955
2944.0,0.0875
2943.0,0.0804
2942.0,0.0746
2941.0,0.0701
2940.0,0.0671
2939.0,0.0655
2938.0,0.0651
2937.0,0.0659
2936.0,0.0677
2935.0,0.0705
2934.0,0.0742
2933.0,0.0788
2932.0,0.0841
2931.0,0.0902
2930.0,0.0967
2929.0,0.1035
2928.0,0.1104
2927.0,0.1173
2926.0,0.1241
2925.0,0.1308
2924.0,0.1375
2923.0,0.1444
2922.0,0.1513
2921.0,0.1581
2920.0,0.1642
2919.0,0.1688
2918.0,0.1712
2917.0,0.171
2916.0,0.1682
2915.0,0.1635
2914.0,0.1578
2913.0,0.1517
2912.0,0.1459
2911.0,0.1408
2910.0,0.1363
2909.0,0.1324
2908.0,0.1289
2907.0,0.1256
2906.0,0.1222
2905.0,0.1188
2904.0,0.1153
2903.0,0.1117
2902.0,0.1082
2901.0,0.1048
2900.0,0.1014
2899.0,0.0981
2898.0,0.095
2897.0,0.0921
2896.0,0.0896
2895.0,0.0875
2894.0,0.0857
2893.0,0.0842
2892.0,0.0831
2891.0,0.0823
2890.0,0.0817
2889.0,0.0814
2888.0,0.0813
2887.0,0.0815
2886.0,0.0817
2885.0,0.0821
2884.0,0.0827
2883.0,0.0835
2882.0,0.0846
2881.0,0.0858
2880.0,0.0869
2879.0,0.0877
2878.0,0.088
2877.0,0.0877
2876.0,0.0871
2875.0,0.0865
2874.0,0.0861
2873.0,0.0863
2872.0,0.0871
2871.0,0.0884
2870.0,0.09
2869.0,0.0915
2868.0,0.0926
2867.0,0.0928
2866.0,0.0916
2865.0,0.0889
2864.0,0.0849
2863.0,0.08
2862.0,0.0749
2861.0,0.0702
2860.0,0.0663
2859.0,0.0633
2858.0,0.0612
2857.0,0.0599
2856.0,0.0593
2855.0,0.0593
2854.0,0.06
2853.0,0.0614
2852.0,0.0632
2851.0,0.0651
2850.0,0.0669
2849.0,0.0685
2848.0,0.0699
2847.0,0.0715
2846.0,0.0735
2845.0,0.0761
2844.0,0.0794
2843.0,0.0829
2842.0,0.0864
2841.0,0.0896
2840.0,0.092
2839.0,0.0932
2838.0,0.0928
2837.0,0.0909
2836.0,0.0875
2835.0,0.0829
2834.0,0.0778
2833.0,0.0725
2832.0,0.0675
2831.0,0.0631
2830.0,0.0592
2829.0,0.056
2828.0,0.0533
2827.0,0.051
2826.0,0.0491
2825.0,0.0474
2824.0,0.046
2823.0,0.0447
2822.0,0.0436
2821.0,0.0425
2820.0,0.0417
2819.0,0.0409
2818.0,0.0402
2817.0,0.0395
2816.0,0.0389
2815.0,0.0384
2814.0,0.0379
2813.0,0.0375
2812.0,0.0371
2811.0,0.0366
2810.0,0.0361
2809.0,0.0357
2808.0,0.0352
2807.0,0.0347
2806.0,0.0341
2805.0,0.0336
2804.0,0.033
2803.0,0.0326
2802.0,0.0322
2801.0,0.0318
2800.0,0.0314
2799.0,0.0311
2798.0,0.0308
2797.0,0.0305
2796.0,0.0303
2795.0,0.03
2794.0,0.0297
2793.0,0.0294
2792.0,0.0292
2791.0,0.029
2790.0,0.0287
2789.0,0.0285
2788.0,0.0282
2787.0,0.028
2786.0,0.0277
2785.0,0.0275
2784.0,0.0273
2783.0,0.027
2782.0,0.0267
2781.0,0.0264
2780.0,0.0262
2779.0,0.026
2778.0,0.0258
2777.0,0.0256
2776.0,0.0254
2775.0,0.0253
2774.0,0.0252
2773.0,0.0251
2772.0,0.0249
2771.0,0.0249
2770.0,0.0248
2769.0,0.0247
2768.0,0.0246
2767.0,0.0245
2766.0,0.0243
2765.0,0.024
2764.0,0.0239
2763.0,0.0238
2762.0,0.0237
2761.0,0.0237
2760.0,0.0237
2759.0,0.0238
2758.0,0.0237
2757.0,0.0236
2756.0,0.0235
2755.0,0.0233
2754.0,0.0231
2753.0,0.023
2752.0,0.023
2751.0,0.0229
2750.0,0.023
2749.0,0.023
2748.0,0.0229
2747.0,0.0229
2746.0,0.0229
2745.0,0.0229
2744.0,0.0229
2743.0,0.0229
2742.0,0.0229
2741.0,0.0228
2740.0,0.0228
2739.0,0.0228
2738.0,0.0228
2737.0,0.0229
2736.0,0.023
2735.0,0.023
2734.0,0.0231
2733.0,0.0231
2732.0,0.0232
2731.0,0.0233
2730.0,0.0234
2729.0,0.0236
2728.0,0.0239
2727.0,0.0241
2726.0,0.0244
2725.0,0.0245
2724.0,0.0246
2723.0,0.0246
2722.0,0.0245
2721.0,0.0244
2720.0,0.0242
2719.0,0.0241
2718.0,0.0239
2717.0,0.0237
2716.0,0.0235
2715.0,0.0233
2714.0,0.0231
2713.0,0.0228
2712.0,0.0226
2711.0,0.0225
2710.0,0.0223
2709.0,0.0221
2708.0,0.022
2707.0,0.0219
2706.0,0.0218
2705.0,0.0218
2704.0,0.0217
2703.0,0.0216
2702.0,0.0215
2701.0,0.0214
2700.0,0.0213
2699.0,0.0212
2698.0,0.0212
2697.0,0.0211
2696.0,0.0211
2695.0,0.021
2694.0,0.021
2693.0,0.021
2692.0,0.0209
2691.0,0.0209
2690.0,0.0209
2689.0,0.0209
2688.0,0.0209
2687.0,0.0209
2686.0,0.0209
2685.0,0.0209
2684.0,0.0209
2683.0,0.0209
2682.0,0.0208
2681.0,0.0207
2680.0,0.0206
2679.0,0.0206
2678.0,0.0206
2677.0,0.0206
2676.0,0.0207
2675.0,0.0207
2674.0,0.0207
2673.0,0.0207
2672.0,0.0207
2671.0,0.0206
2670.0,0.0205
2669.0,0.0204
2668.0,0.0204
2667.0,0.0204
2666.0,0.0204
2665.0,0.0204
2664.0,0.0205
2663.0,0.0205
2662.0,0.0205
2661.0,0.0205
2660.0,0.0205
2659.0,0.0205
2658.0,0.0204
2657.0,0.0203
2656.0,0.0202
2655.0,0.0201
2654.0,0.0201
2653.0,0.02
2652.0,0.02
2651.0,0.0199
2650.0,0.0198
2649.0,0.0198
2648.0,0.0197
2647.0,0.0197
2646.0,0.0197
2645.0,0.0196
2644.0,0.0196
2643.0,0.0195
2642.0,0.0195
2641.0,0.0195
2640.0,0.0195
2639.0,0.0194
2638.0,0.0194
2637.0,0.0194
2636.0,0.0193
2635.0,0.0193
2634.0,0.0193
2633.0,0.0193
2632.0,0.0194
2631.0,0.0194
2630.0,0.0195
2629.0,0.0195
2628.0,0.0196
2627.0,0.0196
2626.0,0.0196
2625.0,0.0196
2624.0,0.0195
2623.0,0.0195
2622.0,0.0195
2621.0,0.0195
2620.0,0.0195
2619.0,0.0195
2618.0,0.0195
2617.0,0.0195
2616.0,0.0195
2615.0,0.0195
2614.0,0.0194
2613.0,0.0194
2612.0,0.0193
2611.0,0.0192
2610.0,0.0192
2609.0,0.0192
2608.0,0.0192
2607.0,0.0191
2606.0,0.019
2605.0,0.0189
2604.0,0.0188
2603.0,0.0187
2602.0,0.0187
2601.0,0.0186
2600.0,0.0187
2599.0,0.0187
2598.0,0.0187
2597.0,0.0187
2596.0,0.0188
2595.0,0.0188
2594.0,0.0188
2593.0,0.0188
2592.0,0.0188
2591.0,0.0188
2590.0,0.0187
2589.0,0.0188
2588.0,0.0189
2587.0,0.019
2586.0,0.0191
2585.0,0.0191
2584.0,0.0192
2583.0,0.0193
2582.0,0.0194
2581.0,0.0194
2580.0,0.0193
2579.0,0.0193
2578.0,0.0192
2577.0,0.019
2576.0,0.0189
2575.0,0.0188
2574.0,0.0187
2573.0,0.0186
2572.0,0.0185
2571.0,0.0183
2570.0,0.0182
2569.0,0.0182
2568.0,0.0183
2567.0,0.0183
2566.0,0.0182
2565.0,0.0182
2564.0,0.0181
2563.0,0.0181
2562.0,0.0182
2561.0,0.0182
2560.0,0.0182
2559.0,0.0182
2558.0,0.0181
2557.0,0.018
2556.0,0.0179
2555.0,0.0179
2554.0,0.0178
2553.0,0.0179
2552.0,0.0179
2551.0,0.018
2550.0,0.0179
2549.0,0.0179
2548.0,0.0178
2547.0,0.0177
2546.0,0.0177
2545.0,0.0176
2544.0,0.0175
2543.0,0.0175
2542.0,0.0176
2541.0,0.0176
2540.0,0.0175
2539.0,0.0175
2538.0,0.0174
2537.0,0.0174
2536.0,0.0174
2535.0,0.0174
2534.0,0.0174
2533.0,0.0174
2532.0,0.0173
2531.0,0.0173
2530.0,0.0172
2529.0,0.0172
2528.0,0.0172
2527.0,0.0173
2526.0,0.0173
2525.0,0.0173
2524.0,0.0173
2523.0,0.0172
2522.0,0.0171
2521.0,0.0172
2520.0,0.0172
2519.0,0.0171
2518.0,0.0171
2517.0,0.017
2516.0,0.017
2515.0,0.0169
2514.0,0.0168
2513.0,0.0168
2512.0,0.0167
2511.0,0.0167
2510.0,0.0167
2509.0,0.0167
2508.0,0.0167
2507.0,0.0167
2506.0,0.0167
2505.0,0.0167
2504.0,0.0168
2503.0,0.0168
2502.0,0.0168
2501.0,0.0168
2500.0,0.0168
2499.0,0.0168
2498.0,0.0168
2497.0,0.0167
2496.0,0.0167
2495.0,0.0167
2494.0,0.0167
2493.0,0.0167
2492.0,0.0167
2491.0,0.0168
2490.0,0.0168
2489.0,0.0168
2488.0,0.0167
2487.0,0.0166
2486.0,0.0165
2485.0,0.0165
2484.0,0.0165
2483.0,0.0164
2482.0,0.0164
2481.0,0.0165
2480.0,0.0165
2479.0,0.0165
2478.0,0.0165
2477.0,0.0165
2476.0,0.0165
2475.0,0.0165
2474.0,0.0165
2473.0,0.0164
2472.0,0.0164
2471.0,0.0163
2470.0,0.0163
2469.0,0.0163
2468.0,0.0163
2467.0,0.0164
2466.0,0.0164
2465.0,0.0164
2464.0,0.0164
2463.0,0.0164
2462.0,0.0164
2461.0,0.0163
2460.0,0.0163
2459.0,0.0164
2458.0,0.0164
2457.0,0.0164
2456.0,0.0164
2455.0,0.0164
2454.0,0.0164
2453.0,0.0165
2452.0,0.0165
2451.0,0.0165
2450.0,0.0164
2449.0,0.0164
2448.0,0.0164
2447.0,0.0165
2446.0,0.0164
2445.0,0.0164
2444.0,0.0164
2443.0,0.0163
2442.0,0.0163
2441.0,0.0163
2440.0,0.0163
2439.0,0.0164
2438.0,0.0164
2437.0,0.0164
2436.0,0.0164
2435.0,0.0164
2434.0,0.0164
2433.0,0.0165
2432.0,0.0165
2431.0,0.0165
2430.0,0.0165
2429.0,0.0164
2428.0,0.0164
2427.0,0.0164
2426.0,0.0164
2425.0,0.0164
2424.0,0.0164
2423.0,0.0164
2422.0,0.0164
2421.0,0.0165
2420.0,0.0165
2419.0,0.0164
2418.0,0.0164
2417.0,0.0164
2416.0,0.0164
2415.0,0.0164
2414.0,0.0164
2413.0,0.0164
2412.0,0.0164
2411.0,0.0165
2410.0,0.0165
2409.0,0.0164
2408.0,0.0164
2407.0,0.0164
2406.0,0.0163
2405.0,0.0163
2404.0,0.0163
2403.0,0.0163
2402.0,0.0163
2401.0,0.0163
2400.0,0.0163
2399.0,0.0163
2398.0,0.0163
2397.0,0.0163
2396.0,0.0162
2395.0,0.0162
2394.0,0.0161
2393.0,0.0162
2392.0,0.0162
2391.0,0.0163
2390.0,0.0163
2389.0,0.0162
2388.0,0.0161
2387.0,0.0158
2386.0,0.0155
2385.0,0.0151
2384.0,0.0146
2383.0,0.0141
2382.0,0.0135
2381.0,0.0127
2380.0,0.0117
2379.0,0.0106
2378.0,0.0096
2377.0,0.0087
2376.0,0.0081
2375.0,0.0077
2374.0,0.0077
2373.0,0.0081
2372.0,0.0085
2371.0,0.0088
2370.0,0.0089
2369.0,0.0091
2368.0,0.0094
2367.0,0.0096
2366.0,0.0092
2365.0,0.0081
2364.0,0.0068
2363.0,0.0064
2362.0,0.007
2361.0,0.0074
2360.0,0.0068
2359.0,0.0059
2358.0,0.0058
2357.0,0.0066
2356.0,0.0072
2355.0,0.0071
2354.0,0.0066
2353.0,0.006
2352.0,0.0055
2351.0,0.0052
2350.0,0.0053
2349.0,0.0055
2348.0,0.0056
2347.0,0.0055
2346.0,0.0054
2345.0,0.0054
2344.0,0.0052
2343.0,0.0049
2342.0,0.005
2341.0,0.0053
2340.0,0.0053
2339.0,0.0052
2338.0,0.0051
2337.0,0.0053
2336.0,0.0055
2335.0,0.0053
2334.0,0.005
2333.0,0.0049
2332.0,0.0051
2331.0,0.0053
2330.0,0.0052
2329.0,0.005
2328.0,0.005
2327.0,0.0053
2326.0,0.006
2325.0,0.0068
2324.0,0.0071
2323.0,0.0071
2322.0,0.007
2321.0,0.007
2320.0,0.0072
2319.0,0.0076
2318.0,0.0082
2317.0,0.0088
2316.0,0.0094
2315.0,0.0095
2314.0,0.0092
2313.0,0.0089
2312.0,0.0087
2311.0,0.0086
2310.0,0.0088
2309.0,0.0091
2308.0,0.0094
2307.0,0.0098
2306.0,0.0101
2305.0,0.0104
2304.0,0.0107
2303.0,0.0111
2302.0,0.0116
2301.0,0.0119
2300.0,0.0122
2299.0,0.0124
2298.0,0.0126
2297.0,0.0127
2296.0,0.0129
2295.0,0.0131
2294.0,0.0133
2293.0,0.0136
2292.0,0.0139
2291.0,0.0142
2290.0,0.0144
2289.0,0.0146
2288.0,0.0147
2287.0,0.0147
2286.0,0.0148
2285.0,0.0149
2284.0,0.0151
2283.0,0.0152
2282.0,0.0152
2281.0,0.0152
2280.0,0.0152
2279.0,0.0151
2278.0,0.0151
2277.0,0.0151
2276.0,0.0151
2275.0,0.0151
2274.0,0.0151
2273.0,0.015
2272.0,0.015
2271.0,0.0149
2270.0,0.0149
2269.0,0.0149
2268.0,0.015
2267.0,0.015
2266.0,0.015
2265.0,0.015
2264.0,0.015
2263.0,0.0151
2262.0,0.0152
2261.0,0.0153
2260.0,0.0154
2259.0,0.0154
2258.0,0.0154
2257.0,0.0154
2256.0,0.0155
2255.0,0.0155
2254.0,0.0155
2253.0,0.0155
2252.0,0.0154
2251.0,0.0154
2250.0,0.0154
2249.0,0.0154
2248.0,0.0155
2247.0,0.0155
2246.0,0.0155
2245.0,0.0155
2244.0,0.0154
2243.0,0.0154
2242.0,0.0155
2241.0,0.0155
2240.0,0.0156
2239.0,0.0156
2238.0,0.0156
2237.0,0.0156
2236.0,0.0156
2235.0,0.0156
2234.0,0.0156
2233.0,0.0156
2232.0,0.0156
2231.0,0.0156
2230.0,0.0156
2229.0,0.0156
2228.0,0.0155
2227.0,0.0155
2226.0,0.0154
2225.0,0.0154
2224.0,0.0154
2223.0,0.0155
2222.0,0.0155
2221.0,0.0155
2220.0,0.0155
2219.0,0.0155
2218.0,0.0155
2217.0,0.0155
2216.0,0.0155
2215.0,0.0155
2214.0,0.0155
2213.0,0.0155
2212.0,0.0155
2211.0,0.0155
2210.0,0.0155
2209.0,0.0156
2208.0,0.0156
2207.0,0.0157
2206.0,0.0157
2205.0,0.0157
2204.0,0.0157
2203.0,0.0157
2202.0,0.0157
2201.0,0.0157
2200.0,0.0157
2199.0,0.0156
2198.0,0.0155
2197.0,0.0155
2196.0,0.0156
2195.0,0.0157
2194.0,0.0158
2193.0,0.0158
2192.0,0.0157
2191.0,0.0157
2190.0,0.0156
2189.0,0.0156
2188.0,0.0156
2187.0,0.0156
2186.0,0.0156
2185.0,0.0157
2184.0,0.0157
2183.0,0.0157
2182.0,0.0157
2181.0,0.0157
2180.0,0.0156
2179.0,0.0156
2178.0,0.0156
2177.0,0.0157
2176.0,0.0157
2175.0,0.0157
2174.0,0.0158
2173.0,0.0158
2172.0,0.0157
2171.0,0.0157
2170.0,0.0157
2169.0,0.0157
2168.0,0.0156
2167.0,0.0156
2166.0,0.0156
2165.0,0.0156
2164.0,0.0156
2163.0,0.0156
2162.0,0.0155
2161.0,0.0155
2160.0,0.0155
2159.0,0.0155
2158.0,0.0155
2157.0,0.0155
2156.0,0.0155
2155.0,0.0156
2154.0,0.0156
2153.0,0.0155
2152.0,0.0155
2151.0,0.0155
2150.0,0.0155
2149.0,0.0155
2148.0,0.0156
2147.0,0.0156
2146.0,0.0156
2145.0,0.0156
2144.0,0.0156
2143.0,0.0155
2142.0,0.0155
2141.0,0.0155
2140.0,0.0155
2139.0,0.0155
2138.0,0.0156
2137.0,0.0156
2136.0,0.0157
2135.0,0.0157
2134.0,0.0157
2133.0,0.0157
2132.0,0.0156
2131.0,0.0156
2130.0,0.0155
2129.0,0.0155
2128.0,0.0155
2127.0,0.0155
2126.0,0.0155
2125.0,0.0155
2124.0,0.0155
2123.0,0.0154
2122.0,0.0154
2121.0,0.0154
2120.0,0.0155
2119.0,0.0155
2118.0,0.0155
2117.0,0.0154
2116.0,0.0154
2115.0,0.0154
2114.0,0.0154
2113.0,0.0154
2112.0,0.0154
2111.0,0.0153
2110.0,0.0153
2109.0,0.0153
2108.0,0.0154
2107.0,0.0154
2106.0,0.0155
2105.0,0.0155
2104.0,0.0154
2103.0,0.0154
2102.0,0.0154
2101.0,0.0154
2100.0,0.0154
2099.0,0.0154
2098.0,0.0154
2097.0,0.0154
2096.0,0.0154
2095.0,0.0154
2094.0,0.0154
2093.0,0.0153
2092.0,0.0153
2091.0,0.0153
2090.0,0.0153
2089.0,0.0153
2088.0,0.0153
2087.0,0.0154
2086.0,0.0154
2085.0,0.0155
2084.0,0.0155
2083.0,0.0155
2082.0,0.0154
2081.0,0.0154
2080.0,0.0153
2079.0,0.0153
2078.0,0.0153
2077.0,0.0153
2076.0,0.0153
2075.0,0.0152
2074.0,0.0151
2073.0,0.0151
2072.0,0.0152
2071.0,0.0152
2070.0,0.0153
2069.0,0.0153
2068.0,0.0154
2067.0,0.0154
2066.0,0.0154
2065.0,0.0154
2064.0,0.0154
2063.0,0.0154
2062.0,0.0154
2061.0,0.0155
2060.0,0.0155
2059.0,0.0155
2058.0,0.0154
2057.0,0.0154
2056.0,0.0153
2055.0,0.0153
2054.0,0.0153
2053.0,0.0154
2052.0,0.0154
2051.0,0.0154
2050.0,0.0154
2049.0,0.0155
2048.0,0.0155
2047.0,0.0155
2046.0,0.0154
2045.0,0.0154
2044.0,0.0154
2043.0,0.0154
2042.0,0.0154
2041.0,0.0154
2040.0,0.0154
2039.0,0.0154
2038.0,0.0154
2037.0,0.0154
2036.0,0.0153
2035.0,0.0153
2034.0,0.0153
2033.0,0.0154
2032.0,0.0154
2031.0,0.0154
2030.0,0.0154
2029.0,0.0154
2028.0,0.0154
2027.0,0.0153
2026.0,0.0153
2025.0,0.0154
2024.0,0.0154
2023.0,0.0154
2022.0,0.0154
2021.0,0.0154
2020.0,0.0154
2019.0,0.0154
2018.0,0.0154
2017.0,0.0154
2016.0,0.0154
2015.0,0.0154
2014.0,0.0154
2013.0,0.0154
2012.0,0.0154
2011.0,0.0154
2010.0,0.0154
2009.0,0.0154
2008.0,0.0153
2007.0,0.0153
2006.0,0.0153
2005.0,0.0154
2004.0,0.0154
2003.0,0.0154
2002.0,0.0153
2001.0,0.0153
2000.0,0.0153
1999.0,0.0153
1998.0,0.0153
1997.0,0.0153
1996.0,0.0152
1995.0,0.0152
1994.0,0.0153
1993.0,0.0153
1992.0,0.0154
1991.0,0.0155
1990.0,0.0155
1989.0,0.0154
1988.0,0.0154
1987.0,0.0154
1986.0,0.0154
1985.0,0.0154
1984.0,0.0154
1983.0,0.0154
1982.0,0.0154
1981.0,0.0154
1980.0,0.0153
1979.0,0.0153
1978.0,0.0153
1977.0,0.0153
1976.0,0.0153
1975.0,0.0153
1974.0,0.0154
1973.0,0.0154
1972.0,0.0154
1971.0,0.0154
1970.0,0.0153
1969.0,0.0153
1968.0,0.0153
1967.0,0.0154
1966.0,0.0155
1965.0,0.0155
1964.0,0.0155
1963.0,0.0155
1962.0,0.0154
1961.0,0.0153
1960.0,0.0153
1959.0,0.0154
1958.0,0.0154
1957.0,0.0154
1956.0,0.0154
1955.0,0.0154
1954.0,0.0154
1953.0,0.0154
1952.0,0.0154
1951.0,0.0153
1950.0,0.0153
1949.0,0.0153
1948.0,0.0153
1947.0,0.0153
1946.0,0.0153
1945.0,0.0154
1944.0,0.0155
1943.0,0.0155
1942.0,0.0156
1941.0,0.0155
1940.0,0.0155
1939.0,0.0155
1938.0,0.0155
1937.0,0.0155
1936.0,0.0155
1935.0,0.0154
1934.0,0.0154
1933.0,0.0155
1932.0,0.0155
1931.0,0.0156
1930.0,0.0156
1929.0,0.0156
1928.0,0.0155
1927.0,0.0155
1926.0,0.0155
1925.0,0.0155
1924.0,0.0155
1923.0,0.0155
1922.0,0.0155
1921.0,0.0155
1920.0,0.0155
1919.0,0.0154
1918.0,0.0154
1917.0,0.0154
1916.0,0.0154
1915.0,0.0155
1914.0,0.0155
1913.0,0.0154
1912.0,0.0154
1911.0,0.0154
1910.0,0.0155
1909.0,0.0155
1908.0,0.0155
1907.0,0.0155
1906.0,0.0156
1905.0,0.0156
1904.0,0.0156
1903.0,0.0155
1902.0,0.0155
1901.0,0.0155
1900.0,0.0155
1899.0,0.0155
1898.0,0.0155
1897.0,0.0155
1896.0,0.0155
1895.0,0.0155
1894.0,0.0155
1893.0,0.0156
1892.0,0.0156
1891.0,0.0155
1890.0,0.0155
1889.0,0.0155
1888.0,0.0154
1887.0,0.0154
1886.0,0.0155
1885.0,0.0155
1884.0,0.0155
1883.0,0.0155
1882.0,0.0155
1881.0,0.0155
1880.0,0.0155
1879.0,0.0155
1878.0,0.0155
1877.0,0.0155
1876.0,0.0155
1875.0,0.0154
1874.0,0.0154
1873.0,0.0154
1872.0,0.0153
1871.0,0.0153
1870.0,0.0153
1869.0,0.0154
1868.0,0.0154
1867.0,0.0155
1866.0,0.0155
1865.0,0.0155
1864.0,0.0155
1863.0,0.0155
1862.0,0.0155
1861.0,0.0155
1860.0,0.0155
1859.0,0.0155
1858.0,0.0155
1857.0,0.0154
1856.0,0.0154
1855.0,0.0154
1854.0,0.0154
1853.0,0.0154
1852.0,0.0154
1851.0,0.0154
1850.0,0.0155
1849.0,0.0155
1848.0,0.0154
1847.0,0.0154
1846.0,0.0154
1845.0,0.0155
1844.0,0.0155
1843.0,0.0155
1842.0,0.0155
1841.0,0.0155
1840.0,0.0155
1839.0,0.0155
1838.0,0.0154
1837.0,0.0155
1836.0,0.0155
1835.0,0.0155
1834.0,0.0155
1833.0,0.0156
1832.0,0.0156
1831.0,0.0156
1830.0,0.0156
1829.0,0.0155
1828.0,0.0155
1827.0,0.0155
1826.0,0.0155
1825.0,0.0156
1824.0,0.0156
1823.0,0.0156
1822.0,0.0156
1821.0,0.0155
1820.0,0.0155
1819.0,0.0154
1818.0,0.0154
1817.0,0.0155
1816.0,0.0155
1815.0,0.0154
1814.0,0.0154
1813.0,0.0154
1812.0,0.0154
1811.0,0.0154
1810.0,0.0155
1809.0,0.0155
1808.0,0.0155
1807.0,0.0155
1806.0,0.0155
1805.0,0.0155
1804.0,0.0155
1803.0,0.0155
1802.0,0.0156
1801.0,0.0157
1800.0,0.0157
1799.0,0.0157
1798.0,0.0156
1797.0,0.0155
1796.0,0.0155
1795.0,0.0154
1794.0,0.0153
1793.0,0.0153
1792.0,0.0154
1791.0,0.0154
1790.0,0.0154
1789.0,0.0155
1788.0,0.0155
1787.0,0.0154
1786.0,0.0155
1785.0,0.0155
1784.0,0.0156
1783.0,0.0155
1782.0,0.0155
1781.0,0.0156
1780.0,0.0156
1779.0,0.0156
1778.0,0.0155
1777.0,0.0155
1776.0,0.0155
1775.0,0.0155
1774.0,0.0155
1773.0,0.0155
1772.0,0.0156
1771.0,0.0156
1770.0,0.0157
1769.0,0.0158
1768.0,0.0158
1767.0,0.0158
1766.0,0.0158
1765.0,0.0157
1764.0,0.0157
1763.0,0.0157
1762.0,0.0158
1761.0,0.0158
1760.0,0.0159
1759.0,0.016
1758.0,0.0161
1757.0,0.0161
1756.0,0.0162
1755.0,0.0163
1754.0,0.0163
1753.0,0.0164
1752.0,0.0165
1751.0,0.0166
1750.0,0.0167
1749.0,0.0168
1748.0,0.017
1747.0,0.017
1746.0,0.0171
1745.0,0.0171
1744.0,0.0172
1743.0,0.0172
1742.0,0.0172
1741.0,0.0172
1740.0,0.0172
1739.0,0.0172
1738.0,0.0171
1737.0,0.0172
1736.0,0.0171
1735.0,0.0171
1734.0,0.0171
1733.0,0.017
1732.0,0.0171
1731.0,0.0171
1730.0,0.0171
1729.0,0.0171
1728.0,0.017
1727.0,0.017
1726.0,0.0169
1725.0,0.017
1724.0,0.017
1723.0,0.017
1722.0,0.017
1721.0,0.0169
1720.0,0.0168
1719.0,0.0167
1718.0,0.0167
1717.0,0.0167
1716.0,0.0167
1715.0,0.0168
1714.0,0.0169
1713.0,0.0169
1712.0,0.0169
1711.0,0.0169
1710.0,0.0168
1709.0,0.0168
1708.0,0.0168
1707.0,0.0168
1706.0,0.0168
1705.0,0.0168
1704.0,0.0168
1703.0,0.0169
1702.0,0.0169
1701.0,0.017
1700.0,0.017
1699.0,0.017
1698.0,0.017
1697.0,0.0172
1696.0,0.0172
1695.0,0.017
1694.0,0.017
1693.0,0.017
1692.0,0.017
1691.0,0.0169
1690.0,0.0169
1689.0,0.0169
1688.0,0.017
1687.0,0.0171
1686.0,0.017
1685.0,0.0171
1684.0,0.0171
1683.0,0.017
1682.0,0.017
1681.0,0.0171
1680.0,0.0172
1679.0,0.0172
1678.0,0.0172
1677.0,0.0172
1676.0,0.0173
1675.0,0.0173
1674.0,0.0173
1673.0,0.0173
1672.0,0.0172
1671.0,0.0172
1670.0,0.0173
1669.0,0.0174
1668.0,0.0175
1667.0,0.0175
1666.0,0.0175
1665.0,0.0175
1664.0,0.0174
1663.0,0.0174
1662.0,0.0175
1661.0,0.0175
1660.0,0.0175
1659.0,0.0175
1658.0,0.0175
1657.0,0.0174
1656.0,0.0173
1655.0,0.0172
1654.0,0.0174
1653.0,0.0177
1652.0,0.0175
1651.0,0.0174
1650.0,0.0175
1649.0,0.0175
1648.0,0.0175
1647.0,0.0176
1646.0,0.0176
1645.0,0.0176
1644.0,0.0176
1643.0,0.0176
1642.0,0.0176
1641.0,0.0176
1640.0,0.0175
1639.0,0.0175
1638.0,0.0173
1637.0,0.0173
1636.0,0.0174
1635.0,0.0175
1634.0,0.0174
1633.0,0.0174
1632.0,0.0174
1631.0,0.0174
1630.0,0.0173
1629.0,0.0173
1628.0,0.0173
1627.0,0.0173
1626.0,0.0173
1625.0,0.0173
1624.0,0.0172
1623.0,0.0172
1622.0,0.0172
1621.0,0.0172
1620.0,0.0172
1619.0,0.0172
1618.0,0.0172
1617.0,0.0171
1616.0,0.0171
1615.0,0.0171
1614.0,0.0171
1613.0,0.0171
1612.0,0.017
1611.0,0.017
1610.0,0.017
1609.0,0.017
1608.0,0.0171
1607.0,0.0171
1606.0,0.0172
1605.0,0.0172
1604.0,0.0173
1603.0,0.0174
1602.0,0.0174
1601.0,0.0174
1600.0,0.0174
1599.0,0.0173
1598.0,0.0171
1597.0,0.017
1596.0,0.0169
1595.0,0.0169
1594.0,0.0168
1593.0,0.0168
1592.0,0.0167
1591.0,0.0167
1590.0,0.0167
1589.0,0.0167
1588.0,0.0167
1587.0,0.0167
1586.0,0.0168
1585.0,0.0168
1584.0,0.0168
1583.0,0.0167
1582.0,0.0166
1581.0,0.0165
1580.0,0.0165
1579.0,0.0165
1578.0,0.0166
1577.0,0.0167
1576.0,0.0168
1575.0,0.0167
1574.0,0.0166
1573.0,0.0166
1572.0,0.0165
1571.0,0.0164
1570.0,0.0164
1569.0,0.0164
1568.0,0.0163
1567.0,0.0163
1566.0,0.0163
1565.0,0.0162
1564.0,0.0163
1563.0,0.0163
1562.0,0.0163
1561.0,0.0163
1560.0,0.0166
1559.0,0.0171
1558.0,0.0169
1557.0,0.0167
1556.0,0.0168
1555.0,0.0167
1554.0,0.0166
1553.0,0.0165
1552.0,0.0164
1551.0,0.0164
1550.0,0.0164
1549.0,0.0164
1548.0,0.0164
1547.0,0.0164
1546.0,0.0164
1545.0,0.0164
1544.0,0.0165
1543.0,0.0165
1542.0,0.0164
1541.0,0.0165
1540.0,0.0166
1539.0,0.0164
1538.0,0.0162
1537.0,0.0163
1536.0,0.0163
1535.0,0.0163
1534.0,0.0162
1533.0,0.0161
1532.0,0.0161
1531.0,0.0161
1530.0,0.016
1529.0,0.0159
1528.0,0.0158
1527.0,0.0158
1526.0,0.0158
1525.0,0.0158
1524.0,0.0158
1523.0,0.0158
1522.0,0.0158
1521.0,0.0158
1520.0,0.0158
1519.0,0.0157
1518.0,0.0157
1517.0,0.0157
1516.0,0.0157
1515.0,0.0157
1514.0,0.0157
1513.0,0.0158
1512.0,0.0159
1511.0,0.0159
1510.0,0.0159
1509.0,0.0159
1508.0,0.0162
1507.0,0.0163
1506.0,0.016
1505.0,0.0158
1504.0,0.0158
1503.0,0.0158
1502.0,0.0157
1501.0,0.0157
1500.0,0.0158
1499.0,0.0158
1498.0,0.016
1497.0,0.0164
1496.0,0.017
1495.0,0.0173
1494.0,0.0174
1493.0,0.0175
1492.0,0.0175
1491.0,0.0173
1490.0,0.0171
1489.0,0.017
1488.0,0.0171
1487.0,0.0171
1486.0,0.0172
1485.0,0.0174
1484.0,0.0176
1483.0,0.0178
1482.0,0.018
1481.0,0.0185
1480.0,0.019
1479.0,0.0196
1478.0,0.0203
1477.0,0.0216
1476.0,0.0234
1475.0,0.0256
1474.0,0.0286
1473.0,0.033
1472.0,0.0377
1471.0,0.0415
1470.0,0.045
1469.0,0.0488
1468.0,0.053
1467.0,0.058
1466.0,0.0645
1465.0,0.0722
1464.0,0.0788
1463.0,0.0829
1462.0,0.0852
1461.0,0.0866
1460.0,0.0873
1459.0,0.0878
1458.0,0.0891
1457.0,0.0912
1456.0,0.0923
1455.0,0.0924
1454.0,0.0923
1453.0,0.0918
1452.0,0.0909
1451.0,0.0893
1450.0,0.0869
1449.0,0.0832
1448.0,0.0781
1447.0,0.0725
1446.0,0.0675
1445.0,0.0631
1444.0,0.0591
1443.0,0.0557
1442.0,0.053
1441.0,0.0511
1440.0,0.0499
1439.0,0.0492
1438.0,0.0494
1437.0,0.0499
1436.0,0.0499
1435.0,0.0487
1434.0,0.0465
1433.0,0.0438
1432.0,0.0407
1431.0,0.0379
1430.0,0.0357
1429.0,0.034
1428.0,0.0328
1427.0,0.0319
1426.0,0.0312
1425.0,0.0305
1424.0,0.0299
1423.0,0.0294
1422.0,0.0291
1421.0,0.0286
1420.0,0.0281
1419.0,0.0278
1418.0,0.0276
1417.0,0.0273
1416.0,0.027
1415.0,0.0267
1414.0,0.0264
1413.0,0.0261
1412.0,0.0258
1411.0,0.0256
1410.0,0.0254
1409.0,0.0251
1408.0,0.0248
1407.0,0.0246
1406.0,0.0244
1405.0,0.0242
1404.0,0.024
1403.0,0.0238
1402.0,0.0237
1401.0,0.0234
1400.0,0.0231
1399.0,0.0229
1398.0,0.0228
1397.0,0.0227
1396.0,0.0225
1395.0,0.0225
1394.0,0.0224
1393.0,0.0223
1392.0,0.0221
1391.0,0.0222
1390.0,0.0223
1389.0,0.0226
1388.0,0.0233
1387.0,0.0248
1386.0,0.0271
1385.0,0.0302
1384.0,0.0347
1383.0,0.0414
1382.0,0.0505
1381.0,0.0623
1380.0,0.0775
1379.0,0.0956
1378.0,0.1137
1377.0,0.1281
1376.0,0.1351
1375.0,0.1324
1374.0,0.121
1373.0,0.1061
1372.0,0.0921
1371.0,0.08
1370.0,0.0694
1369.0,0.0608
1368.0,0.0546
1367.0,0.0506
1366.0,0.0483
1365.0,0.047
1364.0,0.0469
1363.0,0.0477
1362.0,0.0491
1361.0,0.0507
1360.0,0.0519
1359.0,0.0523
1358.0,0.0516
1357.0,0.05
1356.0,0.0476
1355.0,0.0449
1354.0,0.0423
1353.0,0.0401
1352.0,0.0383
1351.0,0.0367
1350.0,0.0353
1349.0,0.0342
1348.0,0.0332
1347.0,0.0324
1346.0,0.0317
1345.0,0.031
1344.0,0.0305
1343.0,0.0301
1342.0,0.0296
1341.0,0.0293
1340.0,0.0291
1339.0,0.0289
1338.0,0.0288
1337.0,0.0286
1336.0,0.0285
1335.0,0.0284
1334.0,0.0285
1333.0,0.0288
1332.0,0.0291
1331.0,0.0294
1330.0,0.0295
1329.0,0.0294
1328.0,0.0292
1327.0,0.0288
1326.0,0.0284
1325.0,0.0279
1324.0,0.0275
1323.0,0.0272
1322.0,0.0269
1321.0,0.0266
1320.0,0.0264
1319.0,0.0262
1318.0,0.026
1317.0,0.0259
1316.0,0.0257
1315.0,0.0256
1314.0,0.0255
1313.0,0.0254
1312.0,0.0254
1311.0,0.0255
1310.0,0.0256
1309.0,0.026
1308.0,0.0265
1307.0,0.0271
1306.0,0.0278
1305.0,0.0284
1304.0,0.0286
1303.0,0.0285
1302.0,0.0282
1301.0,0.0279
1300.0,0.0277
1299.0,0.0276
1298.0,0.0276
1297.0,0.0277
1296.0,0.0277
1295.0,0.0276
1294.0,0.0274
1293.0,0.0271
1292.0,0.0268
1291.0,0.0265
1290.0,0.0262
1289.0,0.026
1288.0,0.0258
1287.0,0.0256
1286.0,0.0254
1285.0,0.0253
1284.0,0.0252
1283.0,0.025
1282.0,0.0249
1281.0,0.0249
1280.0,0.0248
1279.0,0.0248
1278.0,0.0247
1277.0,0.0246
1276.0,0.0245
1275.0,0.0245
1274.0,0.0244
1273.0,0.0244
1272.0,0.0244
1271.0,0.0244
1270.0,0.0244
1269.0,0.0245
1268.0,0.0246
1267.0,0.0248
1266.0,0.025
1265.0,0.0251
1264.0,0.0252
1263.0,0.0253
1262.0,0.0255
1261.0,0.0257
1260.0,0.0261
1259.0,0.0265
1258.0,0.0269
1257.0,0.0273
1256.0,0.0276
1255.0,0.0276
1254.0,0.0273
1253.0,0.0269
1252.0,0.0264
1251.0,0.026
1250.0,0.0257
1249.0,0.0255
1248.0,0.0253
1247.0,0.0251
1246.0,0.0249
1245.0,0.0248
1244.0,0.0247
1243.0,0.0247
1242.0,0.0246
1241.0,0.0246
1240.0,0.0245
1239.0,0.0245
1238.0,0.0244
1237.0,0.0243
1236.0,0.0243
1235.0,0.0242
1234.0,0.0242
1233.0,0.0243
1232.0,0.0243
1231.0,0.0243
1230.0,0.0243
1229.0,0.0243
1228.0,0.0243
1227.0,0.0244
1226.0,0.0245
1225.0,0.0247
1224.0,0.0249
1223.0,0.025
1222.0,0.0252
1221.0,0.0253
1220.0,0.0254
1219.0,0.0254
1218.0,0.0254
1217.0,0.0254
1216.0,0.0253
1215.0,0.0252
1214.0,0.025
1213.0,0.0248
1212.0,0.0246
1211.0,0.0245
1210.0,0.0244
1209.0,0.0243
1208.0,0.0242
1207.0,0.0242
1206.0,0.0242
1205.0,0.0242
1204.0,0.0241
1203.0,0.0241
1202.0,0.024
1201.0,0.024
1200.0,0.0241
1199.0,0.0241
1198.0,0.0242
1197.0,0.0242
1196.0,0.0243
1195.0,0.0243
1194.0,0.0243
1193.0,0.0243
1192.0,0.0243
1191.0,0.0244
1190.0,0.0244
1189.0,0.0245
1188.0,0.0245
1187.0,0.0246
1186.0,0.0246
1185.0,0.0247
1184.0,0.0248
1183.0,0.0249
1182.0,0.025
1181.0,0.0251
1180.0,0.0253
1179.0,0.0255
1178.0,0.0258
1177.0,0.0263
1176.0,0.0269
1175.0,0.0277
1174.0,0.0288
1173.0,0.0303
1172.0,0.0323
1171.0,0.0346
1170.0,0.0368
1169.0,0.0386
1168.0,0.0398
1167.0,0.0401
1166.0,0.0396
1165.0,0.0388
1164.0,0.0378
1163.0,0.0368
1162.0,0.036
1161.0,0.0352
1160.0,0.0347
1159.0,0.0342
1158.0,0.0339
1157.0,0.0337
1156.0,0.0336
1155.0,0.0335
1154.0,0.0335
1153.0,0.0334
1152.0,0.0332
1151.0,0.0328
1150.0,0.0323
1149.0,0.0317
1148.0,0.0311
1147.0,0.0305
1146.0,0.0298
1145.0,0.0292
1144.0,0.0287
1143.0,0.0282
1142.0,0.0278
1141.0,0.0274
1140.0,0.0271
1139.0,0.0267
1138.0,0.0264
1137.0,0.0261
1136.0,0.0259
1135.0,0.0257
1134.0,0.0256
1133.0,0.0255
1132.0,0.0255
1131.0,0.0254
1130.0,0.0254
1129.0,0.0253
1128.0,0.0253
1127.0,0.0253
1126.0,0.0254
1125.0,0.0254
1124.0,0.0255
1123.0,0.0256
1122.0,0.0257
1121.0,0.0258
1120.0,0.0258
1119.0,0.0259
1118.0,0.0259
1117.0,0.026
1116.0,0.026
1115.0,0.026
1114.0,0.0259
1113.0,0.0259
1112.0,0.0259
1111.0,0.0259
1110.0,0.0261
1109.0,0.0263
1108.0,0.0267
1107.0,0.0271
1106.0,0.0276
1105.0,0.0281
1104.0,0.0285
1103.0,0.0288
1102.0,0.0288
1101.0,0.0286
1100.0,0.0283
1099.0,0.0279
1098.0,0.0275
1097.0,0.0272
1096.0,0.0269
1095.0,0.0266
1094.0,0.0265
1093.0,0.0263
1092.0,0.0262
1091.0,0.0261
1090.0,0.0259
1089.0,0.0259
1088.0,0.0258
1087.0,0.0258
1086.0,0.0257
1085.0,0.0256
1084.0,0.0255
1083.0,0.0255
1082.0,0.0256
1081.0,0.0257
1080.0,0.0257
1079.0,0.0257
1078.0,0.0257
1077.0,0.0257
1076.0,0.0257
1075.0,0.0257
1074.0,0.0256
1073.0,0.0256
1072.0,0.0257
1071.0,0.0257
1070.0,0.0258
1069.0,0.0258
1068.0,0.0257
1067.0,0.0256
1066.0,0.0255
1065.0,0.0254
1064.0,0.0254
1063.0,0.0254
1062.0,0.0254
1061.0,0.0254
1060.0,0.0253
1059.0,0.0253
1058.0,0.0253
1057.0,0.0254
1056.0,0.0255
1055.0,0.0257
1054.0,0.0259
1053.0,0.0261
1052.0,0.0265
1051.0,0.0268
1050.0,0.0271
1049.0,0.0273
1048.0,0.0276
1047.0,0.0278
1046.0,0.0281
1045.0,0.0282
1044.0,0.0283
1043.0,0.0282
1042.0,0.028
1041.0,0.0277
1040.0,0.0275
1039.0,0.0273
1038.0,0.0272
1037.0,0.0272
1036.0,0.0272
1035.0,0.0272
1034.0,0.0272
1033.0,0.0272
1032.0,0.0272
1031.0,0.0272
1030.0,0.0272
1029.0,0.0271
1028.0,0.0271
1027.0,0.0271
1026.0,0.0272
1025.0,0.0274
1024.0,0.0276
1023.0,0.0278
1022.0,0.028
1021.0,0.0282
1020.0,0.0282
1019.0,0.0283
1018.0,0.0282
1017.0,0.0282
1016.0,0.0282
1015.0,0.0281
1014.0,0.0279
1013.0,0.0278
1012.0,0.0277
1011.0,0.0276
1010.0,0.0275
1009.0,0.0275
1008.0,0.0276
1007.0,0.0277
1006.0,0.0279
1005.0,0.0284
1004.0,0.0292
1003.0,0.0307
1002.0,0.0327
1001.0,0.0353
1000.0,0.0382
999.0,0.0407
998.0,0.0421
997.0,0.0421
996.0,0.0406
995.0,0.0383
994.0,0.0358
993.0,0.0336
992.0,0.0318
991.0,0.0304
990.0,0.0293
989.0,0.0286
988.0,0.028
987.0,0.0277
986.0,0.0275
985.0,0.0274
984.0,0.0276
983.0,0.0279
982.0,0.0285
981.0,0.0294
980.0,0.0308
979.0,0.0328
978.0,0.0353
977.0,0.0383
976.0,0.0415
975.0,0.0446
974.0,0.047
973.0,0.0481
972.0,0.0476
971.0,0.0455
970.0,0.0425
969.0,0.0394
968.0,0.0367
967.0,0.0346
966.0,0.033
965.0,0.0318
964.0,0.0309
963.0,0.0302
962.0,0.0296
961.0,0.0292
960.0,0.0288
959.0,0.0284
958.0,0.0281
957.0,0.0279
956.0,0.0276
955.0,0.0273
954.0,0.0272
953.0,0.0271
952.0,0.0271
951.0,0.0271
950.0,0.027
949.0,0.0269
948.0,0.0268
947.0,0.0268
946.0,0.0268
945.0,0.0269
944.0,0.0271
943.0,0.0274
942.0,0.0277
941.0,0.0278
940.0,0.0278
939.0,0.0277
938.0,0.0274
937.0,0.027
936.0,0.0266
935.0,0.0263
934.0,0.0261
933.0,0.0259
932.0,0.0258
931.0,0.0258
930.0,0.0257
929.0,0.0256
928.0,0.0255
927.0,0.0255
926.0,0.0255
925.0,0.0254
924.0,0.0254
923.0,0.0253
922.0,0.0252
921.0,0.0251
920.0,0.0251
919.0,0.0252
918.0,0.0251
917.0,0.0251
916.0,0.0251
915.0,0.0251
914.0,0.0252
913.0,0.0253
912.0,0.0254
911.0,0.0255
910.0,0.0256
909.0,0.0258
908.0,0.026
907.0,0.0263
906.0,0.0267
905.0,0.0273
904.0,0.0283
903.0,0.0295
902.0,0.0311
901.0,0.0326
900.0,0.0339
899.0,0.0344
898.0,0.0342
897.0,0.0334
896.0,0.0321
895.0,0.0309
894.0,0.0297
893.0,0.0288
892.0,0.0282
891.0,0.0277
890.0,0.0274
889.0,0.0272
888.0,0.0271
887.0,0.0271
886.0,0.0271
885.0,0.0272
884.0,0.0273
883.0,0.0273
882.0,0.0273
881.0,0.0273
880.0,0.0274
879.0,0.0275
878.0,0.0277
877.0,0.0279
876.0,0.028
875.0,0.028
874.0,0.0277
873.0,0.0274
872.0,0.0271
871.0,0.0269
870.0,0.0268
869.0,0.0268
868.0,0.0267
867.0,0.0267
866.0,0.0266
865.0,0.0266
864.0,0.0265
863.0,0.0266
862.0,0.0267
861.0,0.0267
860.0,0.0267
859.0,0.0267
858.0,0.0268
857.0,0.0268
856.0,0.0269
855.0,0.0269
854.0,0.027
853.0,0.0271
852.0,0.0272
851.0,0.0275
850.0,0.0278
849.0,0.0281
848.0,0.0287
847.0,0.0294
846.0,0.0306
845.0,0.0325
844.0,0.0353
843.0,0.0387
842.0,0.0418
841.0,0.043
840.0,0.042
839.0,0.0393
838.0,0.0362
837.0,0.0338
836.0,0.0322
835.0,0.0314
834.0,0.0309
833.0,0.0305
832.0,0.0302
831.0,0.0299
830.0,0.0295
829.0,0.0292
828.0,0.0288
827.0,0.0286
826.0,0.0284
825.0,0.0283
824.0,0.0283
823.0,0.0283
822.0,0.0283
821.0,0.0283
820.0,0.0285
819.0,0.0287
818.0,0.029
817.0,0.0294
816.0,0.0299
815.0,0.0306
814.0,0.0315
813.0,0.0329
812.0,0.0344
811.0,0.0358
810.0,0.037
809.0,0.0376
808.0,0.0376
807.0,0.037
806.0,0.0359
805.0,0.0347
804.0,0.0335
803.0,0.0326
802.0,0.032
801.0,0.0315
800.0,0.031
799.0,0.0306
798.0,0.0302
797.0,0.0299
796.0,0.0297
795.0,0.0294
794.0,0.0291
793.0,0.029
792.0,0.0289
791.0,0.0288
790.0,0.0287
789.0,0.0285
788.0,0.0283
787.0,0.0282
786.0,0.0281
785.0,0.0281
784.0,0.0281
783.0,0.028
782.0,0.0278
781.0,0.0277
780.0,0.0276
779.0,0.0276
778.0,0.0276
777.0,0.0276
776.0,0.0277
775.0,0.0278
774.0,0.0279
773.0,0.0281
772.0,0.0282
771.0,0.0284
770.0,0.0286
769.0,0.0289
768.0,0.0292
767.0,0.0294
766.0,0.0295
765.0,0.0296
764.0,0.0296
763.0,0.0297
762.0,0.0299
761.0,0.0299
760.0,0.0299
759.0,0.0297
758.0,0.0296
757.0,0.0298
756.0,0.03
755.0,0.0303
754.0,0.0305
753.0,0.0306
752.0,0.0307
751.0,0.0307
750.0,0.0306
749.0,0.0305
748.0,0.0305
747.0,0.0305
746.0,0.0305
745.0,0.0305
744.0,0.0303
743.0,0.0302
742.0,0.0302
741.0,0.0303
740.0,0.0305
739.0,0.0307
738.0,0.0309
737.0,0.0313
736.0,0.0317
735.0,0.0321
734.0,0.0326
733.0,0.0334
732.0,0.0346
731.0,0.0358
730.0,0.0365
729.0,0.0364
728.0,0.0358
727.0,0.0352
726.0,0.0348
725.0,0.0348
724.0,0.0351
723.0,0.0357
722.0,0.0364
721.0,0.0372
720.0,0.0379
719.0,0.0383
718.0,0.0382
717.0,0.0377
716.0,0.0369
715.0,0.036
714.0,0.0354
713.0,0.0351
712.0,0.035
711.0,0.035
710.0,0.0352
709.0,0.0355
708.0,0.0358
707.0,0.0361
706.0,0.0367
705.0,0.0375
704.0,0.0387
703.0,0.0399
702.0,0.0412
701.0,0.0423
700.0,0.0432
699.0,0.0435
698.0,0.0432
697.0,0.0426
696.0,0.0417
695.0,0.0406
694.0,0.039
693.0,0.0371
692.0,0.0355
691.0,0.0346
690.0,0.0344
689.0,0.0347
688.0,0.035
687.0,0.035
686.0,0.0345
685.0,0.0336
684.0,0.0329
683.0,0.0327
682.0,0.0329
681.0,0.0332
680.0,0.0335
679.0,0.0334
678.0,0.0337
677.0,0.0334
676.0,0.0363
675.0,0.0367
674.0,0.036
673.0,0.0354
672.0,0.0345
671.0,0.0338
670.0,0.0331
669.0,0.0327
668.0,0.0328
667.0,0.0332
666.0,0.0335
665.0,0.034
664.0,0.0334
663.0,0.0335
662.0,0.0341
661.0,0.0343
660.0,0.0339
659.0,0.0329
658.0,0.0316
657.0,0.0306
656.0,0.03
655.0,0.0298
654.0,0.0298
653.0,0.0299
652.0,0.0303
651.0,0.0308
650.0,0.0313
649.0,0.0315
648.0,0.0314
647.0,0.0312
646.0,0.0312
645.0,0.0314
644.0,0.0317
643.0,0.0319
642.0,0.032
641.0,0.0321
640.0,0.0324
639.0,0.033
638.0,0.0341
637.0,0.0356
636.0,0.037
635.0,0.0378
634.0,0.0377
633.0,0.037
632.0,0.0362
631.0,0.0355
630.0,0.0352
629.0,0.0352
628.0,0.0353
627.0,0.0353
626.0,0.0351
625.0,0.0351
624.0,0.0354
623.0,0.036
622.0,0.0364
621.0,0.0364
620.0,0.0358
619.0,0.035
618.0,0.0345
617.0,0.0346
616.0,0.0351
615.0,0.0354
614.0,0.0352
613.0,0.0347
612.0,0.0345
611.0,0.0349
610.0,0.036
609.0,0.0371
608.0,0.0375
607.0,0.0369
606.0,0.0354
605.0,0.034
604.0,0.0335
603.0,0.0342
602.0,0.0354
601.0,0.0367
600.0,0.0382
