cm-1,A
4000.0,0.0079
3999.0,0.008
3998.0,0.008
3997.0,0.0081
3996.0,0.0082
3995.0,0.0082
3994.0,0.0082
3993.0,0.0082
3992.0,0.0081
3991.0,0.0081
3990.0,0.008
3989.0,0.008
3988.0,0.008
3987.0,0.008
3986.0,0.0081
3985.0,0.0081
3984.0,0.0082
3983.0,0.0082
3982.0,0.0082
3981.0,0.0082
3980.0,0.0082
3979.0,0.0082
3978.0,0.0082
3977.0,0.0082
3976.0,0.0081
3975.0,0.0081
3974.0,0.0081
3973.0,0.0081
3972.0,0.0081
3971.0,0.0081
3970.0,0.0082
3969.0,0.0082
3968.0,0.0082
3967.0,0.0082
3966.0,0.0081
3965.0,0.008
3964.0,0.008
3963.0,0.008
3962.0,0.0081
3961.0,0.0081
3960.0,0.0081
3959.0,0.0081
3958.0,0.008
3957.0,0.0079
3956.0,0.0079
3955.0,0.0079
3954.0,0.0079
3953.0,0.0079
3952.0,0.0079
3951.0,0.008
3950.0,0.008
3949.0,0.0081
3948.0,0.0082
3947.0,0.0082
3946.0,0.0083
3945.0,0.0083
3944.0,0.0083
3943.0,0.0083
3942.0,0.0084
3941.0,0.0084
3940.0,0.0085
3939.0,0.0084
3938.0,0.0084
3937.0,0.0085
3936.0,0.0085
3935.0,0.0084
3934.0,0.0083
3933.0,0.0082
3932.0,0.0081
3931.0,0.008
3930.0,0.008
3929.0,0.008
3928.0,0.0081
3927.0,0.0081
3926.0,0.0081
3925.0,0.0081
3924.0,0.0082
3923.0,0.0082
3922.0,0.0083
3921.0,0.0083
3920.0,0.0084
3919.0,0.0085
3918.0,0.0085
3917.0,0.0084
3916.0,0.0084
3915.0,0.0084
3914.0,0.0084
3913.0,0.0084
3912.0,0.0084
3911.0,0.0084
3910.0,0.0085
3909.0,0.0085
3908.0,0.0086
3907.0,0.0086
3906.0,0.0086
3905.0,0.0087
3904.0,0.0087
3903.0,0.0087
3902.0,0.0086
3901.0,0.0085
3900.0,0.0084
3899.0,0.0084
3898.0,0.0084
3897.0,0.0084
3896.0,0.0084
3895.0,0.0083
3894.0,0.0083
3893.0,0.0082
3892.0,0.0082
3891.0,0.0083
3890.0,0.0085
3889.0,0.0085
3888.0,0.0085
3887.0,0.0084
3886.0,0.0085
3885.0,0.0086
3884.0,0.0086
3883.0,0.0084
3882.0,0.0082
3881.0,0.008
3880.0,0.008
3879.0,0.0081
3878.0,0.0082
3877.0,0.0082
3876.0,0.0082
3875.0,0.0083
3874.0,0.0084
3873.0,0.0085
3872.0,0.0085
3871.0,0.0085
3870.0,0.0085
3869.0,0.0085
3868.0,0.0086
3867.0,0.0085
3866.0,0.0085
3865.0,0.0085
3864.0,0.0086
3863.0,0.0086
3862.0,0.0086
3861.0,0.0086
3860.0,0.0087
3859.0,0.0087
3858.0,0.0088
3857.0,0.0088
3856.0,0.0087
3855.0,0.0087
3854.0,0.0086
3853.0,0.0086
3852.0,0.0086
3851.0,0.0085
3850.0,0.0084
3849.0,0.0084
3848.0,0.0084
3847.0,0.0085
3846.0,0.0085
3845.0,0.0085
3844.0,0.0085
3843.0,0.0085
3842.0,0.0085
3841.0,0.0085
3840.0,0.0085
3839.0,0.0085
3838.0,0.0085
3837.0,0.0086
3836.0,0.0088
3835.0,0.0089
3834.0,0.0089
3833.0,0.0089
3832.0,0.0088
3831.0,0.0088
3830.0,0.0088
3829.0,0.0087
3828.0,0.0086
3827.0,0.0086
3826.0,0.0087
3825.0,0.0088
3824.0,0.0087
3823.0,0.0086
3822.0,0.0086
3821.0,0.0086
3820.0,0.0088
3819.0,0.0088
3818.0,0.0086
3817.0,0.0084
3816.0,0.0084
3815.0,0.0086
3814.0,0.0088
3813.0,0.0089
3812.0,0.0089
3811.0,0.0089
3810.0,0.0089
3809.0,0.0089
3808.0,0.0088
3807.0,0.0087
3806.0,0.0087
3805.0,0.0086
3804.0,0.0084
3803.0,0.0082
3802.0,0.0082
3801.0,0.0084
3800.0,0.0086
3799.0,0.0088
3798.0,0.0088
3797.0,0.0089
3796.0,0.0089
3795.0,0.0089
3794.0,0.0088
3793.0,0.0087
3792.0,0.0087
3791.0,0.0088
3790.0,0.0088
3789.0,0.0088
3788.0,0.0087
3787.0,0.0087
3786.0,0.0086
3785.0,0.0085
3784.0,0.0085
3783.0,0.0085
3782.0,0.0084
3781.0,0.0084
3780.0,0.0086
3779.0,0.0087
3778.0,0.0089
3777.0,0.0089
3776.0,0.0089
3775.0,0.0089
3774.0,0.0089
3773.0,0.009
3772.0,0.0091
3771.0,0.0092
3770.0,0.0092
3769.0,0.0091
3768.0,0.009
3767.0,0.0088
3766.0,0.0087
3765.0,0.0087
3764.0,0.0088
3763.0,0.0088
3762.0,0.0088
3761.0,0.0087
3760.0,0.0088
3759.0,0.0088
3758.0,0.0088
3757.0,0.0088
3756.0,0.0088
3755.0,0.0088
3754.0,0.0088
3753.0,0.0089
3752.0,0.0091
3751.0,0.0093
3750.0,0.0093
3749.0,0.0093
3748.0,0.0093
3747.0,0.0093
3746.0,0.0093
3745.0,0.0095
3744.0,0.0098
3743.0,0.0101
3742.0,0.0101
3741.0,0.01
3740.0,0.01
3739.0,0.0101
3738.0,0.0102
3737.0,0.0103
3736.0,0.0101
3735.0,0.0098
3734.0,0.0096
3733.0,0.0097
3732.0,0.0099
3731.0,0.0101
3730.0,0.0102
3729.0,0.0101
3728.0,0.0101
3727.0,0.0101
3726.0,0.01
3725.0,0.0099
3724.0,0.0096
3723.0,0.0094
3722.0,0.0093
3721.0,0.0094
3720.0,0.0094
3719.0,0.0094
3718.0,0.0094
3717.0,0.0094
3716.0,0.0094
3715.0,0.0094
3714.0,0.0095
3713.0,0.0098
3712.0,0.0102
3711.0,0.0104
3710.0,0.0103
3709.0,0.0102
3708.0,0.0101
3707.0,0.01
3706.0,0.0099
3705.0,0.0098
3704.0,0.0096
3703.0,0.0094
3702.0,0.0094
3701.0,0.0094
3700.0,0.0096
3699.0,0.0097
3698.0,0.0097
3697.0,0.0097
3696.0,0.0097
3695.0,0.0097
3694.0,0.0097
3693.0,0.0096
3692.0,0.0094
3691.0,0.0093
3690.0,0.0092
3689.0,0.0092
3688.0,0.0094
3687.0,0.0097
3686.0,0.0099
3685.0,0.01
3684.0,0.01
3683.0,0.01
3682.0,0.0101
3681.0,0.01
3680.0,0.01
3679.0,0.0099
3678.0,0.0098
3677.0,0.0097
3676.0,0.0096
3675.0,0.0097
3674.0,0.0098
3673.0,0.0099
3672.0,0.0099
3671.0,0.01
3670.0,0.01
3669.0,0.0101
3668.0,0.01
3667.0,0.01
3666.0,0.0099
3665.0,0.0099
3664.0,0.0098
3663.0,0.0098
3662.0,0.0099
3661.0,0.0099
3660.0,0.01
3659.0,0.01
3658.0,0.0101
3657.0,0.0102
3656.0,0.0103
3655.0,0.0104
3654.0,0.0104
3653.0,0.0103
3652.0,0.0101
3651.0,0.0102
3650.0,0.0103
3649.0,0.0101
3648.0,0.01
3647.0,0.0101
3646.0,0.0104
3645.0,0.0106
3644.0,0.0107
3643.0,0.0108
3642.0,0.0108
3641.0,0.0109
3640.0,0.0109
3639.0,0.0109
3638.0,0.011
3637.0,0.0111
3636.0,0.0112
3635.0,0.0113
3634.0,0.0114
3633.0,0.0115
3632.0,0.0116
3631.0,0.0115
3630.0,0.0116
3629.0,0.0118
3628.0,0.0118
3627.0,0.0118
3626.0,0.0117
3625.0,0.0115
3624.0,0.0114
3623.0,0.0113
3622.0,0.0111
3621.0,0.011
3620.0,0.011
3619.0,0.0112
3618.0,0.0114
3617.0,0.0116
3616.0,0.0116
3615.0,0.0116
3614.0,0.0116
3613.0,0.0118
3612.0,0.012
3611.0,0.0121
3610.0,0.0122
3609.0,0.0123
3608.0,0.0124
3607.0,0.0124
3606.0,0.0124
3605.0,0.0123
3604.0,0.0123
3603.0,0.0123
3602.0,0.0124
3601.0,0.0124
3600.0,0.0123
3599.0,0.0122
3598.0,0.0122
3597.0,0.0123
3596.0,0.0124
3595.0,0.0126
3594.0,0.0126
3593.0,0.0126
3592.0,0.0125
3591.0,0.0124
3590.0,0.0123
3589.0,0.0123
3588.0,0.0124
3587.0,0.0126
3586.0,0.0127
3585.0,0.0128
3584.0,0.0128
3583.0,0.0128
3582.0,0.0128
3581.0,0.0127
3580.0,0.0127
3579.0,0.0126
3578.0,0.0126
3577.0,0.0126
3576.0,0.0127
3575.0,0.0128
3574.0,0.0129
3573.0,0.0129
3572.0,0.013
3571.0,0.013
3570.0,0.0129
3569.0,0.0128
3568.0,0.0129
3567.0,0.013
3566.0,0.013
3565.0,0.0131
3564.0,0.0132
3563.0,0.0133
3562.0,0.0133
3561.0,0.0133
3560.0,0.0132
3559.0,0.0132
3558.0,0.0133
3557.0,0.0135
3556.0,0.0136
3555.0,0.0136
3554.0,0.0136
3553.0,0.0137
3552.0,0.0137
3551.0,0.0138
3550.0,0.0138
3549.0,0.0137
3548.0,0.0138
3547.0,0.0139
3546.0,0.014
3545.0,0.0141
3544.0,0.014
3543.0,0.014
3542.0,0.0139
3541.0,0.0139
3540.0,0.014
3539.0,0.014
3538.0,0.0141
3537.0,0.0142
3536.0,0.0143
3535.0,0.0143
3534.0,0.0143
3533.0,0.0143
3532.0,0.0144
3531.0,0.0145
3530.0,0.0146
3529.0,0.0147
3528.0,0.0148
3527.0,0.0148
3526.0,0.0148
3525.0,0.0148
3524.0,0.0148
3523.0,0.0148
3522.0,0.0148
3521.0,0.0148
3520.0,0.0147
3519.0,0.0147
3518.0,0.0147
3517.0,0.0148
3516.0,0.0148
3515.0,0.0149
3514.0,0.0149
3513.0,0.0149
3512.0,0.0148
3511.0,0.0148
3510.0,0.0149
3509.0,0.015
3508.0,0.0153
3507.0,0.0154
3506.0,0.0154
3505.0,0.0154
3504.0,0.0153
3503.0,0.0152
3502.0,0.0152
3501.0,0.0153
3500.0,0.0153
3499.0,0.0154
3498.0,0.0154
3497.0,0.0154
3496.0,0.0154
3495.0,0.0154
3494.0,0.0154
3493.0,0.0153
3492.0,0.0153
3491.0,0.0153
3490.0,0.0153
3489.0,0.0153
3488.0,0.0155
3487.0,0.0156
3486.0,0.0156
3485.0,0.0156
3484.0,0.0155
3483.0,0.0155
3482.0,0.0155
3481.0,0.0155
3480.0,0.0155
3479.0,0.0155
3478.0,0.0154
3477.0,0.0152
3476.0,0.0152
3475.0,0.0152
3474.0,0.0153
3473.0,0.0154
3472.0,0.0155
3471.0,0.0155
3470.0,0.0154
3469.0,0.0154
3468.0,0.0154
3467.0,0.0154
3466.0,0.0155
3465.0,0.0154
3464.0,0.0154
3463.0,0.0154
3462.0,0.0153
3461.0,0.0154
3460.0,0.0154
3459.0,0.0155
3458.0,0.0156
3457.0,0.0156
3456.0,0.0155
3455.0,0.0154
3454.0,0.0154
3453.0,0.0154
3452.0,0.0154
3451.0,0.0155
3450.0,0.0155
3449.0,0.0155
3448.0,0.0154
3447.0,0.0154
3446.0,0.0153
3445.0,0.0153
3444.0,0.0153
3443.0,0.0153
3442.0,0.0154
3441.0,0.0155
3440.0,0.0155
3439.0,0.0155
3438.0,0.0156
3437.0,0.0157
3436.0,0.0157
3435.0,0.0158
3434.0,0.0158
3433.0,0.0157
3432.0,0.0157
3431.0,0.0157
3430.0,0.0158
3429.0,0.0158
3428.0,0.0159
3427.0,0.0159
3426.0,0.0159
3425.0,0.016
3424.0,0.016
3423.0,0.0161
3422.0,0.0162
3421.0,0.0162
3420.0,0.0161
3419.0,0.0162
3418.0,0.0162
3417.0,0.0163
3416.0,0.0163
3415.0,0.0162
3414.0,0.0162
3413.0,0.0163
3412.0,0.0164
3411.0,0.0165
3410.0,0.0165
3409.0,0.0165
3408.0,0.0165
3407.0,0.0164
3406.0,0.0164
3405.0,0.0164
3404.0,0.0165
3403.0,0.0165
3402.0,0.0166
3401.0,0.0166
3400.0,0.0166
3399.0,0.0166
3398.0,0.0166
3397.0,0.0165
3396.0,0.0165
3395.0,0.0165
3394.0,0.0164
3393.0,0.0164
3392.0,0.0164
3391.0,0.0164
3390.0,0.0165
3389.0,0.0165
3388.0,0.0165
3387.0,0.0165
3386.0,0.0165
3385.0,0.0164
3384.0,0.0162
3383.0,0.0161
3382.0,0.0161
3381.0,0.0161
3380.0,0.0161
3379.0,0.0161
3378.0,0.016
3377.0,0.016
3376.0,0.0159
3375.0,0.0158
3374.0,0.0158
3373.0,0.0158
3372.0,0.0158
3371.0,0.0158
3370.0,0.0157
3369.0,0.0157
3368.0,0.0157
3367.0,0.0158
3366.0,0.0158
3365.0,0.0158
3364.0,0.0158
3363.0,0.0157
3362.0,0.0157
3361.0,0.0156
3360.0,0.0156
3359.0,0.0156
3358.0,0.0156
3357.0,0.0156
3356.0,0.0156
3355.0,0.0155
3354.0,0.0154
3353.0,0.0152
3352.0,0.0152
3351.0,0.0152
3350.0,0.0153
3349.0,0.0153
3348.0,0.0153
3347.0,0.0153
3346.0,0.0152
3345.0,0.0152
3344.0,0.0151
3343.0,0.015
3342.0,0.015
3341.0,0.015
3340.0,0.015
3339.0,0.015
3338.0,0.0151
3337.0,0.0151
3336.0,0.0151
3335.0,0.0151
3334.0,0.015
3333.0,0.0149
3332.0,0.0148
3331.0,0.0148
3330.0,0.0148
3329.0,0.0149
3328.0,0.0149
3327.0,0.0149
3326.0,0.0149
3325.0,0.0148
3324.0,0.0147
3323.0,0.0147
3322.0,0.0146
3321.0,0.0146
3320.0,0.0147
3319.0,0.0146
3318.0,0.0146
3317.0,0.0146
3316.0,0.0145
3315.0,0.0145
3314.0,0.0145
3313.0,0.0145
3312.0,0.0146
3311.0,0.0146
3310.0,0.0146
3309.0,0.0146
3308.0,0.0145
3307.0,0.0145
3306.0,0.0144
3305.0,0.0144
3304.0,0.0144
3303.0,0.0143
3302.0,0.0143
3301.0,0.0144
3300.0,0.0144
3299.0,0.0144
3298.0,0.0143
3297.0,0.0143
3296.0,0.0142
3295.0,0.0142
3294.0,0.0142
3293.0,0.0141
3292.0,0.0141
3291.0,0.0141
3290.0,0.014
3289.0,0.014
3288.0,0.014
3287.0,0.014
3286.0,0.014
3285.0,0.014
3284.0,0.014
3283.0,0.014
3282.0,0.014
3281.0,0.014
3280.0,0.0139
3279.0,0.0139
3278.0,0.0139
3277.0,0.0139
3276.0,0.0139
3275.0,0.0138
3274.0,0.0137
3273.0,0.0136
3272.0,0.0136
3271.0,0.0136
3270.0,0.0137
3269.0,0.0136
3268.0,0.0136
3267.0,0.0136
3266.0,0.0137
3265.0,0.0137
3264.0,0.0138
3263.0,0.0138
3262.0,0.0137
3261.0,0.0136
3260.0,0.0135
3259.0,0.0134
3258.0,0.0133
3257.0,0.0132
3256.0,0.0132
3255.0,0.0132
3254.0,0.0132
3253.0,0.0132
3252.0,0.0132
3251.0,0.0132
3250.0,0.0132
3249.0,0.0132
3248.0,0.0132
3247.0,0.0132
3246.0,0.0132
3245.0,0.0132
3244.0,0.0132
3243.0,0.0131
3242.0,0.013
3241.0,0.0129
3240.0,0.013
3239.0,0.013
3238.0,0.013
3237.0,0.013
3236.0,0.0129
3235.0,0.0127
3234.0,0.0127
3233.0,0.0126
3232.0,0.0126
3231.0,0.0126
3230.0,0.0127
3229.0,0.0127
3228.0,0.0127
3227.0,0.0127
3226.0,0.0126
3225.0,0.0126
3224.0,0.0127
3223.0,0.0127
3222.0,0.0126
3221.0,0.0125
3220.0,0.0124
3219.0,0.0123
3218.0,0.0123
3217.0,0.0124
3216.0,0.0124
3215.0,0.0123
3214.0,0.0122
3213.0,0.0121
3212.0,0.012
3211.0,0.012
3210.0,0.012
3209.0,0.012
3208.0,0.012
3207.0,0.0119
3206.0,0.0119
3205.0,0.012
3204.0,0.012
3203.0,0.012
3202.0,0.012
3201.0,0.012
3200.0,0.0119
3199.0,0.0118
3198.0,0.0118
3197.0,0.0118
3196.0,0.0117
3195.0,0.0118
3194.0,0.0117
3193.0,0.0117
3192.0,0.0116
3191.0,0.0115
3190.0,0.0114
3189.0,0.0113
3188.0,0.0114
3187.0,0.0114
3186.0,0.0114
3185.0,0.0114
3184.0,0.0113
3183.0,0.0112
3182.0,0.0112
3181.0,0.0112
3180.0,0.0112
3179.0,0.0111
3178.0,0.0111
3177.0,0.011
3176.0,0.011
3175.0,0.011
3174.0,0.011
3173.0,0.0111
3172.0,0.011
3171.0,0.011
3170.0,0.0109
3169.0,0.0108
3168.0,0.0107
3167.0,0.0107
3166.0,0.0107
3165.0,0.0107
3164.0,0.0107
3163.0,0.0107
3162.0,0.0107
3161.0,0.0107
3160.0,0.0107
3159.0,0.0106
3158.0,0.0106
3157.0,0.0105
3156.0,0.0104
3155.0,0.0103
3154.0,0.0102
3153.0,0.0101
3152.0,0.0101
3151.0,0.0101
3150.0,0.0101
3149.0,0.01
3148.0,0.01
3147.0,0.0099
3146.0,0.0099
3145.0,0.0099
3144.0,0.0098
3143.0,0.0098
3142.0,0.0098
3141.0,0.0097
3140.0,0.0097
3139.0,0.0096
3138.0,0.0095
3137.0,0.0095
3136.0,0.0095
3135.0,0.0095
3134.0,0.0094
3133.0,0.0094
3132.0,0.0093
3131.0,0.0093
3130.0,0.0092
3129.0,0.0092
3128.0,0.0091
3127.0,0.0091
3126.0,0.009
3125.0,0.009
3124.0,0.0091
3123.0,0.0091
3122.0,0.0091
3121.0,0.009
3120.0,0.0089
3119.0,0.0089
3118.0,0.0089
3117.0,0.0089
3116.0,0.0089
3115.0,0.0089
3114.0,0.0088
3113.0,0.0087
3112.0,0.0087
3111.0,0.0087
3110.0,0.0086
3109.0,0.0085
3108.0,0.0085
3107.0,0.0085
3106.0,0.0085
3105.0,0.0085
3104.0,0.0085
3103.0,0.0085
3102.0,0.0084
3101.0,0.0083
3100.0,0.0083
3099.0,0.0083
3098.0,0.0083
3097.0,0.0084
3096.0,0.0084
3095.0,0.0083
3094.0,0.0083
3093.0,0.0082
3092.0,0.0082
3091.0,0.0083
3090.0,0.0083
3089.0,0.0082
3088.0,0.0081
3087.0,0.008
3086.0,0.0079
3085.0,0.0078
3084.0,0.0079
3083.0,0.0079
3082.0,0.0079
3081.0,0.0079
3080.0,0.0079
3079.0,0.0079
3078.0,0.0078
3077.0,0.0078
3076.0,0.0078
3075.0,0.0078
3074.0,0.0078
3073.0,0.0077
3072.0,0.0076
3071.0,0.0076
3070.0,0.0075
3069.0,0.0075
3068.0,0.0074
3067.0,0.0074
3066.0,0.0074
3065.0,0.0073
3064.0,0.0073
3063.0,0.0073
3062.0,0.0072
3061.0,0.0072
3060.0,0.0071
3059.0,0.007
3058.0,0.007
3057.0,0.0069
3056.0,0.0069
3055.0,0.0068
3054.0,0.0068
3053.0,0.0068
3052.0,0.0067
3051.0,0.0067
3050.0,0.0066
3049.0,0.0065
3048.0,0.0065
3047.0,0.0065
3046.0,0.0065
3045.0,0.0065
3044.0,0.0064
3043.0,0.0064
3042.0,0.0064
3041.0,0.0065
3040.0,0.0065
3039.0,0.0065
3038.0,0.0064
3037.0,0.0063
3036.0,0.0063
3035.0,0.0062
3034.0,0.0061
3033.0,0.0061
3032.0,0.006
3031.0,0.0059
3030.0,0.0058
3029.0,0.0058
3028.0,0.0058
3027.0,0.0057
3026.0,0.0056
3025.0,0.0056
3024.0,0.0056
3023.0,0.0056
3022.0,0.0055
3021.0,0.0054
3020.0,0.0054
3019.0,0.0053
3018.0,0.0053
3017.0,0.0053
3016.0,0.0052
3015.0,0.0052
3014.0,0.0051
3013.0,0.005
3012.0,0.0049
3011.0,0.0048
3010.0,0.0047
3009.0,0.0046
3008.0,0.0044
3007.0,0.0043
3006.0,0.0043
3005.0,0.0042
3004.0,0.0041
3003.0,0.0041
3002.0,0.004
3001.0,0.004
3000.0,0.004
2999.0,0.0039
2998.0,0.0039
2997.0,0.0039
2996.0,0.0039
2995.0,0.0039
2994.0,0.0039
2993.0,0.0039
2992.0,0.0039
2991.0,0.0039
2990.0,0.0039
2989.0,0.0039
2988.0,0.0039
2987.0,0.0039
2986.0,0.004
2985.0,0.004
2984.0,0.0041
2983.0,0.0041
2982.0,0.0043
2981.0,0.0045
2980.0,0.0047
2979.0,0.005
2978.0,0.0053
2977.0,0.0056
2976.0,0.006
2975.0,0.0066
2974.0,0.0071
2973.0,0.0077
2972.0,0.0083
2971.0,0.009
2970.0,0.0098
2969.0,0.0107
2968.0,0.0116
2967.0,0.0126
2966.0,0.0135
2965.0,0.0144
2964.0,0.0153
2963.0,0.0163
2962.0,0.0172
2961.0,0.018
2960.0,0.0188
2959.0,0.0195
2958.0,0.0201
2957.0,0.0206
2956.0,0.021
2955.0,0.0214
2954.0,0.0217
2953.0,0.022
2952.0,0.0223
2951.0,0.0228
2950.0,0.0233
2949.0,0.0241
2948.0,0.0252
2947.0,0.0267
2946.0,0.0286
2945.0,0.0308
2944.0,0.0335
2943.0,0.0365
2942.0,0.0399
2941.0,0.0437
2940.0,0.0478
2939.0,0.0523
2938.0,0.0571
2937.0,0.0623
2936.0,0.068
2935.0,0.074
2934.0,0.0805
2933.0,0.0874
2932.0,0.0949
2931.0,0.1029
2930.0,0.1116
2929.0,0.121
2928.0,0.1313
2927.0,0.1425
2926.0,0.1549
2925.0,0.1686
2924.0,0.1837
2923.0,0.2003
2922.0,0.2185
2921.0,0.2381
2920.0,0.2584
2919.0,0.2781
2918.0,0.295
2917.0,0.3065
2916.0,0.3103
2915.0,0.3057
2914.0,0.2939
2913.0,0.2778
2912.0,0.26
2911.0,0.2428
2910.0,0.2272
2909.0,0.2136
2908.0,0.2019
2907.0,0.1919
2906.0,0.1835
2905.0,0.1763
2904.0,0.17
2903.0,0.1645
2902.0,0.1597
2901.0,0.1552
2900.0,0.1511
2899.0,0.1473
2898.0,0.1436
2897.0,0.1401
2896.0,0.1366
2895.0,0.1332
2894.0,0.1298
2893.0,0.1263
2892.0,0.1228
2891.0,0.1192
2890.0,0.1156
2889.0,0.112
2888.0,0.1083
2887.0,0.1047
2886.0,0.1011
2885.0,0.0976
2884.0,0.0941
2883.0,0.0907
2882.0,0.0874
2881.0,0.0842
2880.0,0.0811
2879.0,0.0783
2878.0,0.0757
2877.0,0.0732
2876.0,0.071
2875.0,0.0691
2874.0,0.0675
2873.0,0.0662
2872.0,0.0651
2871.0,0.0641
2870.0,0.0632
2869.0,0.0626
2868.0,0.0623
2867.0,0.0624
2866.0,0.0631
2865.0,0.0644
2864.0,0.0665
2863.0,0.0695
2862.0,0.0734
2861.0,0.0785
2860.0,0.0848
2859.0,0.0925
2858.0,0.1019
2857.0,0.1134
2856.0,0.1272
2855.0,0.1438
2854.0,0.1638
2853.0,0.1873
2852.0,0.2135
2851.0,0.2401
2850.0,0.2624
2849.0,0.275
2848.0,0.2745
2847.0,0.2616
2846.0,0.2406
2845.0,0.2168
2844.0,0.1937
2843.0,0.1731
2842.0,0.1555
2841.0,0.1406
2840.0,0.1281
2839.0,0.1178
2838.0,0.1091
2837.0,0.1018
2836.0,0.0956
2835.0,0.0902
2834.0,0.0856
2833.0,0.0816
2832.0,0.0781
2831.0,0.075
2830.0,0.0722
2829.0,0.0697
2828.0,0.0675
2827.0,0.0654
2826.0,0.0635
2825.0,0.0618
2824.0,0.0602
2823.0,0.0587
2822.0,0.0574
2821.0,0.0562
2820.0,0.0551
2819.0,0.054
2818.0,0.0529
2817.0,0.0519
2816.0,0.0509
2815.0,0.05
2814.0,0.0492
2813.0,0.0484
2812.0,0.0477
2811.0,0.0471
2810.0,0.0464
2809.0,0.0457
2808.0,0.0451
2807.0,0.0445
2806.0,0.044
2805.0,0.0434
2804.0,0.0428
2803.0,0.0423
2802.0,0.0417
2801.0,0.0412
2800.0,0.0407
2799.0,0.0403
2798.0,0.0398
2797.0,0.0394
2796.0,0.0389
2795.0,0.0385
2794.0,0.0381
2793.0,0.0376
2792.0,0.0372
2791.0,0.0368
2790.0,0.0365
2789.0,0.0362
2788.0,0.0358
2787.0,0.0355
2786.0,0.0352
2785.0,0.0349
2784.0,0.0347
2783.0,0.0344
2782.0,0.034
2781.0,0.0337
2780.0,0.0333
2779.0,0.0331
2778.0,0.0328
2777.0,0.0325
2776.0,0.0323
2775.0,0.032
2774.0,0.0318
2773.0,0.0316
2772.0,0.0314
2771.0,0.0312
2770.0,0.031
2769.0,0.0308
2768.0,0.0306
2767.0,0.0304
2766.0,0.0302
2765.0,0.03
2764.0,0.0298
2763.0,0.0297
2762.0,0.0295
2761.0,0.0293
2760.0,0.0291
2759.0,0.0289
2758.0,0.0288
2757.0,0.0286
2756.0,0.0285
2755.0,0.0284
2754.0,0.0283
2753.0,0.0282
2752.0,0.028
2751.0,0.0279
2750.0,0.0277
2749.0,0.0277
2748.0,0.0276
2747.0,0.0275
2746.0,0.0275
2745.0,0.0274
2744.0,0.0274
2743.0,0.0273
2742.0,0.0272
2741.0,0.0272
2740.0,0.0271
2739.0,0.027
2738.0,0.0269
2737.0,0.0267
2736.0,0.0266
2735.0,0.0265
2734.0,0.0264
2733.0,0.0264
2732.0,0.0263
2731.0,0.0263
2730.0,0.0262
2729.0,0.0261
2728.0,0.026
2727.0,0.0259
2726.0,0.0258
2725.0,0.0258
2724.0,0.0257
2723.0,0.0255
2722.0,0.0254
2721.0,0.0252
2720.0,0.0251
2719.0,0.025
2718.0,0.0249
2717.0,0.0249
2716.0,0.0248
2715.0,0.0248
2714.0,0.0247
2713.0,0.0246
2712.0,0.0246
2711.0,0.0245
2710.0,0.0245
2709.0,0.0243
2708.0,0.0242
2707.0,0.024
2706.0,0.0239
2705.0,0.0239
2704.0,0.0239
2703.0,0.0239
2702.0,0.0238
2701.0,0.0238
2700.0,0.0237
2699.0,0.0236
2698.0,0.0236
2697.0,0.0235
2696.0,0.0235
2695.0,0.0235
2694.0,0.0235
2693.0,0.0235
2692.0,0.0235
2691.0,0.0235
2690.0,0.0234
2689.0,0.0234
2688.0,0.0233
2687.0,0.0233
2686.0,0.0233
2685.0,0.0232
2684.0,0.0232
2683.0,0.0232
2682.0,0.0232
2681.0,0.0232
2680.0,0.0232
2679.0,0.0232
2678.0,0.0231
2677.0,0.0231
2676.0,0.0231
2675.0,0.023
2674.0,0.023
2673.0,0.023
2672.0,0.023
2671.0,0.023
2670.0,0.023
2669.0,0.023
2668.0,0.023
2667.0,0.023
2666.0,0.023
2665.0,0.023
2664.0,0.023
2663.0,0.0229
2662.0,0.0228
2661.0,0.0228
2660.0,0.0228
2659.0,0.0228
2658.0,0.0228
2657.0,0.0228
2656.0,0.0227
2655.0,0.0227
2654.0,0.0227
2653.0,0.0226
2652.0,0.0226
2651.0,0.0226
2650.0,0.0225
2649.0,0.0224
2648.0,0.0223
2647.0,0.0222
2646.0,0.0221
2645.0,0.0221
2644.0,0.0222
2643.0,0.0222
2642.0,0.0222
2641.0,0.0221
2640.0,0.0221
2639.0,0.0221
2638.0,0.0221
2637.0,0.0221
2636.0,0.022
2635.0,0.022
2634.0,0.022
2633.0,0.0221
2632.0,0.0221
2631.0,0.022
2630.0,0.0219
2629.0,0.0218
2628.0,0.0217
2627.0,0.0216
2626.0,0.0215
2625.0,0.0214
2624.0,0.0214
2623.0,0.0213
2622.0,0.0213
2621.0,0.0212
2620.0,0.0212
2619.0,0.0211
2618.0,0.021
2617.0,0.021
2616.0,0.021
2615.0,0.0209
2614.0,0.0209
2613.0,0.0208
2612.0,0.0207
2611.0,0.0206
2610.0,0.0205
2609.0,0.0204
2608.0,0.0203
2607.0,0.0203
2606.0,0.0202
2605.0,0.0202
2604.0,0.0201
2603.0,0.0201
2602.0,0.0201
2601.0,0.0201
2600.0,0.0201
2599.0,0.02
2598.0,0.02
2597.0,0.02
2596.0,0.0199
2595.0,0.0198
2594.0,0.0198
2593.0,0.0197
2592.0,0.0197
2591.0,0.0196
2590.0,0.0195
2589.0,0.0195
2588.0,0.0195
2587.0,0.0195
2586.0,0.0194
2585.0,0.0193
2584.0,0.0191
2583.0,0.019
2582.0,0.019
2581.0,0.0189
2580.0,0.0189
2579.0,0.0189
2578.0,0.0189
2577.0,0.0188
2576.0,0.0187
2575.0,0.0187
2574.0,0.0186
2573.0,0.0186
2572.0,0.0186
2571.0,0.0186
2570.0,0.0186
2569.0,0.0185
2568.0,0.0185
2567.0,0.0184
2566.0,0.0184
2565.0,0.0184
2564.0,0.0185
2563.0,0.0185
2562.0,0.0184
2561.0,0.0184
2560.0,0.0183
2559.0,0.0183
2558.0,0.0182
2557.0,0.0182
2556.0,0.0181
2555.0,0.0181
2554.0,0.0181
2553.0,0.0181
2552.0,0.0181
2551.0,0.0181
2550.0,0.0181
2549.0,0.018
2548.0,0.018
2547.0,0.018
2546.0,0.0179
2545.0,0.0178
2544.0,0.0177
2543.0,0.0176
2542.0,0.0175
2541.0,0.0176
2540.0,0.0176
2539.0,0.0176
2538.0,0.0176
2537.0,0.0176
2536.0,0.0175
2535.0,0.0175
2534.0,0.0175
2533.0,0.0175
2532.0,0.0175
2531.0,0.0175
2530.0,0.0174
2529.0,0.0174
2528.0,0.0174
2527.0,0.0173
2526.0,0.0173
2525.0,0.0173
2524.0,0.0173
2523.0,0.0173
2522.0,0.0172
2521.0,0.0171
2520.0,0.0171
2519.0,0.017
2518.0,0.017
2517.0,0.017
2516.0,0.017
2515.0,0.017
2514.0,0.017
2513.0,0.017
2512.0,0.0169
2511.0,0.0169
2510.0,0.0168
2509.0,0.0168
2508.0,0.0167
2507.0,0.0167
2506.0,0.0167
2505.0,0.0167
2504.0,0.0167
2503.0,0.0166
2502.0,0.0165
2501.0,0.0165
2500.0,0.0165
2499.0,0.0165
2498.0,0.0165
2497.0,0.0166
2496.0,0.0166
2495.0,0.0166
2494.0,0.0166
2493.0,0.0165
2492.0,0.0165
2491.0,0.0165
2490.0,0.0164
2489.0,0.0164
2488.0,0.0164
2487.0,0.0164
2486.0,0.0164
2485.0,0.0164
2484.0,0.0165
2483.0,0.0165
2482.0,0.0165
2481.0,0.0164
2480.0,0.0164
2479.0,0.0163
2478.0,0.0163
2477.0,0.0163
2476.0,0.0162
2475.0,0.0162
2474.0,0.0161
2473.0,0.0161
2472.0,0.0161
2471.0,0.0162
2470.0,0.0161
2469.0,0.0161
2468.0,0.016
2467.0,0.016
2466.0,0.016
2465.0,0.016
2464.0,0.016
2463.0,0.016
2462.0,0.0159
2461.0,0.0159
2460.0,0.0159
2459.0,0.0159
2458.0,0.0158
2457.0,0.0158
2456.0,0.0159
2455.0,0.0159
2454.0,0.0159
2453.0,0.0158
2452.0,0.0158
2451.0,0.0158
2450.0,0.0158
2449.0,0.0158
2448.0,0.0159
2447.0,0.0159
2446.0,0.0158
2445.0,0.0157
2444.0,0.0156
2443.0,0.0156
2442.0,0.0156
2441.0,0.0156
2440.0,0.0156
2439.0,0.0156
2438.0,0.0156
2437.0,0.0156
2436.0,0.0157
2435.0,0.0157
2434.0,0.0157
2433.0,0.0156
2432.0,0.0156
2431.0,0.0155
2430.0,0.0155
2429.0,0.0155
2428.0,0.0155
2427.0,0.0155
2426.0,0.0155
2425.0,0.0155
2424.0,0.0155
2423.0,0.0155
2422.0,0.0155
2421.0,0.0155
2420.0,0.0155
2419.0,0.0155
2418.0,0.0155
2417.0,0.0155
2416.0,0.0155
2415.0,0.0155
2414.0,0.0155
2413.0,0.0155
2412.0,0.0154
2411.0,0.0154
2410.0,0.0153
2409.0,0.0153
2408.0,0.0152
2407.0,0.0152
2406.0,0.0152
2405.0,0.0152
2404.0,0.0152
2403.0,0.0153
2402.0,0.0153
2401.0,0.0154
2400.0,0.0154
2399.0,0.0154
2398.0,0.0154
2397.0,0.0153
2396.0,0.0153
2395.0,0.0153
2394.0,0.0153
2393.0,0.0152
2392.0,0.0152
2391.0,0.0152
2390.0,0.0152
2389.0,0.0154
2388.0,0.0155
2387.0,0.0158
2386.0,0.016
2385.0,0.0162
2384.0,0.0162
2383.0,0.016
2382.0,0.0156
2381.0,0.015
2380.0,0.0145
2379.0,0.0141
2378.0,0.014
2377.0,0.0141
2376.0,0.0144
2375.0,0.0149
2374.0,0.0157
2373.0,0.0165
2372.0,0.0172
2371.0,0.0176
2370.0,0.0176
2369.0,0.0173
2368.0,0.017
2367.0,0.0169
2366.0,0.017
2365.0,0.017
2364.0,0.0167
2363.0,0.017
2362.0,0.0186
2361.0,0.0211
2360.0,0.0229
2359.0,0.0222
2358.0,0.0196
2357.0,0.0169
2356.0,0.0159
2355.0,0.0162
2354.0,0.0161
2353.0,0.0149
2352.0,0.0142
2351.0,0.0147
2350.0,0.016
2349.0,0.0169
2348.0,0.0171
2347.0,0.0167
2346.0,0.0164
2345.0,0.0167
2344.0,0.0175
2343.0,0.0182
2342.0,0.0179
2341.0,0.0167
2340.0,0.0158
2339.0,0.016
2338.0,0.0169
2337.0,0.0174
2336.0,0.0173
2335.0,0.0166
2334.0,0.0152
2333.0,0.0136
2332.0,0.0126
2331.0,0.0128
2330.0,0.0141
2329.0,0.0158
2328.0,0.017
2327.0,0.0174
2326.0,0.0169
2325.0,0.0158
2324.0,0.0146
2323.0,0.014
2322.0,0.0143
2321.0,0.0152
2320.0,0.0162
2319.0,0.0169
2318.0,0.0173
2317.0,0.0172
2316.0,0.017
2315.0,0.0166
2314.0,0.0162
2313.0,0.016
2312.0,0.0161
2311.0,0.0163
2310.0,0.0165
2309.0,0.0166
2308.0,0.0165
2307.0,0.0162
2306.0,0.016
2305.0,0.016
2304.0,0.0163
2303.0,0.0166
2302.0,0.0168
2301.0,0.0169
2300.0,0.0168
2299.0,0.0168
2298.0,0.0167
2297.0,0.0168
2296.0,0.0168
2295.0,0.0167
2294.0,0.0166
2293.0,0.0164
2292.0,0.0162
2291.0,0.016
2290.0,0.0159
2289.0,0.0159
2288.0,0.0158
2287.0,0.0157
2286.0,0.0156
2285.0,0.0155
2284.0,0.0154
2283.0,0.0153
2282.0,0.0153
2281.0,0.0153
2280.0,0.0153
2279.0,0.0153
2278.0,0.0153
2277.0,0.0152
2276.0,0.0152
2275.0,0.0151
2274.0,0.0151
2273.0,0.015
2272.0,0.015
2271.0,0.015
2270.0,0.015
2269.0,0.015
2268.0,0.015
2267.0,0.015
2266.0,0.0149
2265.0,0.0149
2264.0,0.0148
2263.0,0.0148
2262.0,0.0148
2261.0,0.0148
2260.0,0.0148
2259.0,0.0148
2258.0,0.0149
2257.0,0.0149
2256.0,0.0148
2255.0,0.0147
2254.0,0.0147
2253.0,0.0146
2252.0,0.0146
2251.0,0.0145
2250.0,0.0144
2249.0,0.0143
2248.0,0.0143
2247.0,0.0143
2246.0,0.0143
2245.0,0.0144
2244.0,0.0144
2243.0,0.0144
2242.0,0.0144
2241.0,0.0143
2240.0,0.0143
2239.0,0.0143
2238.0,0.0143
2237.0,0.0142
2236.0,0.0142
2235.0,0.0141
2234.0,0.0141
2233.0,0.0141
2232.0,0.0141
2231.0,0.0141
2230.0,0.0141
2229.0,0.0141
2228.0,0.0141
2227.0,0.0141
2226.0,0.0141
2225.0,0.0141
2224.0,0.0141
2223.0,0.0141
2222.0,0.014
2221.0,0.014
2220.0,0.014
2219.0,0.014
2218.0,0.014
2217.0,0.014
2216.0,0.0139
2215.0,0.0139
2214.0,0.0139
2213.0,0.0139
2212.0,0.0139
2211.0,0.0139
2210.0,0.014
2209.0,0.014
2208.0,0.014
2207.0,0.014
2206.0,0.014
2205.0,0.014
2204.0,0.014
2203.0,0.014
2202.0,0.014
2201.0,0.014
2200.0,0.014
2199.0,0.0139
2198.0,0.0139
2197.0,0.0139
2196.0,0.0139
2195.0,0.0139
2194.0,0.0139
2193.0,0.0139
2192.0,0.0139
2191.0,0.0139
2190.0,0.0139
2189.0,0.0139
2188.0,0.0138
2187.0,0.0138
2186.0,0.0139
2185.0,0.0139
2184.0,0.0139
2183.0,0.0139
2182.0,0.0139
2181.0,0.0139
2180.0,0.0138
2179.0,0.0138
2178.0,0.0138
2177.0,0.0138
2176.0,0.0138
2175.0,0.0138
2174.0,0.0138
2173.0,0.0138
2172.0,0.0138
2171.0,0.0138
2170.0,0.0138
2169.0,0.0138
2168.0,0.0139
2167.0,0.0139
2166.0,0.0139
2165.0,0.0139
2164.0,0.0138
2163.0,0.0138
2162.0,0.0139
2161.0,0.0139
2160.0,0.0139
2159.0,0.0139
2158.0,0.0139
2157.0,0.0139
2156.0,0.0139
2155.0,0.0139
2154.0,0.0139
2153.0,0.0139
2152.0,0.0139
2151.0,0.0139
2150.0,0.0138
2149.0,0.0138
2148.0,0.0138
2147.0,0.0138
2146.0,0.0138
2145.0,0.0139
2144.0,0.0139
2143.0,0.0139
2142.0,0.0139
2141.0,0.0138
2140.0,0.0137
2139.0,0.0137
2138.0,0.0137
2137.0,0.0137
2136.0,0.0137
2135.0,0.0137
2134.0,0.0137
2133.0,0.0137
2132.0,0.0136
2131.0,0.0136
2130.0,0.0136
2129.0,0.0136
2128.0,0.0136
2127.0,0.0136
2126.0,0.0136
2125.0,0.0137
2124.0,0.0137
2123.0,0.0137
2122.0,0.0137
2121.0,0.0137
2120.0,0.0137
2119.0,0.0137
2118.0,0.0137
2117.0,0.0136
2116.0,0.0136
2115.0,0.0136
2114.0,0.0136
2113.0,0.0136
2112.0,0.0135
2111.0,0.0135
2110.0,0.0136
2109.0,0.0136
2108.0,0.0136
2107.0,0.0136
2106.0,0.0136
2105.0,0.0136
2104.0,0.0136
2103.0,0.0136
2102.0,0.0136
2101.0,0.0136
2100.0,0.0136
2099.0,0.0136
2098.0,0.0135
2097.0,0.0135
2096.0,0.0135
2095.0,0.0135
2094.0,0.0135
2093.0,0.0135
2092.0,0.0136
2091.0,0.0135
2090.0,0.0135
2089.0,0.0134
2088.0,0.0133
2087.0,0.0133
2086.0,0.0133
2085.0,0.0134
2084.0,0.0134
2083.0,0.0135
2082.0,0.0135
2081.0,0.0135
2080.0,0.0135
2079.0,0.0135
2078.0,0.0135
2077.0,0.0135
2076.0,0.0135
2075.0,0.0135
2074.0,0.0135
2073.0,0.0135
2072.0,0.0135
2071.0,0.0134
2070.0,0.0134
2069.0,0.0134
2068.0,0.0134
2067.0,0.0134
2066.0,0.0134
2065.0,0.0135
2064.0,0.0135
2063.0,0.0136
2062.0,0.0136
2061.0,0.0136
2060.0,0.0136
2059.0,0.0135
2058.0,0.0135
2057.0,0.0135
2056.0,0.0135
2055.0,0.0135
2054.0,0.0135
2053.0,0.0135
2052.0,0.0135
2051.0,0.0135
2050.0,0.0135
2049.0,0.0135
2048.0,0.0136
2047.0,0.0136
2046.0,0.0136
2045.0,0.0136
2044.0,0.0136
2043.0,0.0137
2042.0,0.0137
2041.0,0.0136
2040.0,0.0136
2039.0,0.0136
2038.0,0.0136
2037.0,0.0136
2036.0,0.0137
2035.0,0.0137
2034.0,0.0137
2033.0,0.0137
2032.0,0.0136
2031.0,0.0137
2030.0,0.0137
2029.0,0.0138
2028.0,0.0138
2027.0,0.0138
2026.0,0.0138
2025.0,0.0138
2024.0,0.0137
2023.0,0.0138
2022.0,0.0138
2021.0,0.0138
2020.0,0.0139
2019.0,0.0139
2018.0,0.0139
2017.0,0.0138
2016.0,0.0138
2015.0,0.0138
2014.0,0.0138
2013.0,0.0137
2012.0,0.0136
2011.0,0.0135
2010.0,0.0135
2009.0,0.0136
2008.0,0.0136
2007.0,0.0136
2006.0,0.0136
2005.0,0.0135
2004.0,0.0135
2003.0,0.0134
2002.0,0.0134
2001.0,0.0134
2000.0,0.0134
1999.0,0.0134
1998.0,0.0134
1997.0,0.0134
1996.0,0.0134
1995.0,0.0133
1994.0,0.0133
1993.0,0.0133
1992.0,0.0133
1991.0,0.0133
1990.0,0.0133
1989.0,0.0133
1988.0,0.0133
1987.0,0.0133
1986.0,0.0133
1985.0,0.0133
1984.0,0.0133
1983.0,0.0133
1982.0,0.0133
1981.0,0.0133
1980.0,0.0133
1979.0,0.0133
1978.0,0.0133
1977.0,0.0134
1976.0,0.0134
1975.0,0.0133
1974.0,0.0133
1973.0,0.0133
1972.0,0.0133
1971.0,0.0134
1970.0,0.0134
1969.0,0.0134
1968.0,0.0133
1967.0,0.0133
1966.0,0.0133
1965.0,0.0133
1964.0,0.0133
1963.0,0.0134
1962.0,0.0134
1961.0,0.0134
1960.0,0.0134
1959.0,0.0134
1958.0,0.0134
1957.0,0.0134
1956.0,0.0134
1955.0,0.0134
1954.0,0.0134
1953.0,0.0134
1952.0,0.0134
1951.0,0.0134
1950.0,0.0134
1949.0,0.0134
1948.0,0.0134
1947.0,0.0134
1946.0,0.0133
1945.0,0.0133
1944.0,0.0132
1943.0,0.0132
1942.0,0.0132
1941.0,0.0132
1940.0,0.0133
1939.0,0.0133
1938.0,0.0134
1937.0,0.0134
1936.0,0.0134
1935.0,0.0134
1934.0,0.0133
1933.0,0.0133
1932.0,0.0133
1931.0,0.0133
1930.0,0.0133
1929.0,0.0132
1928.0,0.0132
1927.0,0.0133
1926.0,0.0133
1925.0,0.0134
1924.0,0.0134
1923.0,0.0134
1922.0,0.0133
1921.0,0.0133
1920.0,0.0134
1919.0,0.0135
1918.0,0.0135
1917.0,0.0135
1916.0,0.0135
1915.0,0.0134
1914.0,0.0134
1913.0,0.0134
1912.0,0.0134
1911.0,0.0134
1910.0,0.0134
1909.0,0.0134
1908.0,0.0134
1907.0,0.0134
1906.0,0.0135
1905.0,0.0135
1904.0,0.0136
1903.0,0.0136
1902.0,0.0136
1901.0,0.0137
1900.0,0.0137
1899.0,0.0138
1898.0,0.0138
1897.0,0.0138
1896.0,0.0138
1895.0,0.0137
1894.0,0.0137
1893.0,0.0136
1892.0,0.0136
1891.0,0.0135
1890.0,0.0134
1889.0,0.0134
1888.0,0.0134
1887.0,0.0134
1886.0,0.0134
1885.0,0.0134
1884.0,0.0134
1883.0,0.0134
1882.0,0.0134
1881.0,0.0133
1880.0,0.0133
1879.0,0.0133
1878.0,0.0133
1877.0,0.0133
1876.0,0.0133
1875.0,0.0133
1874.0,0.0133
1873.0,0.0133
1872.0,0.0133
1871.0,0.0134
1870.0,0.0134
1869.0,0.0134
1868.0,0.0133
1867.0,0.0131
1866.0,0.0131
1865.0,0.0131
1864.0,0.0132
1863.0,0.0132
1862.0,0.0132
1861.0,0.0132
1860.0,0.0131
1859.0,0.0131
1858.0,0.0131
1857.0,0.0131
1856.0,0.0132
1855.0,0.0132
1854.0,0.0132
1853.0,0.0132
1852.0,0.0132
1851.0,0.0132
1850.0,0.0132
1849.0,0.0132
1848.0,0.0132
1847.0,0.0133
1846.0,0.0134
1845.0,0.0134
1844.0,0.0134
1843.0,0.0133
1842.0,0.0132
1841.0,0.0132
1840.0,0.0132
1839.0,0.0132
1838.0,0.0131
1837.0,0.0131
1836.0,0.0131
1835.0,0.0131
1834.0,0.0131
1833.0,0.0131
1832.0,0.0131
1831.0,0.0131
1830.0,0.013
1829.0,0.013
1828.0,0.0129
1827.0,0.0129
1826.0,0.013
1825.0,0.013
1824.0,0.0131
1823.0,0.0131
1822.0,0.0131
1821.0,0.013
1820.0,0.013
1819.0,0.0131
1818.0,0.0131
1817.0,0.0131
1816.0,0.0131
1815.0,0.0131
1814.0,0.0132
1813.0,0.0132
1812.0,0.0132
1811.0,0.0131
1810.0,0.0131
1809.0,0.0131
1808.0,0.0131
1807.0,0.0131
1806.0,0.0131
1805.0,0.0131
1804.0,0.0131
1803.0,0.013
1802.0,0.013
1801.0,0.0131
1800.0,0.0131
1799.0,0.0131
1798.0,0.0132
1797.0,0.0132
1796.0,0.0132
1795.0,0.0132
1794.0,0.0132
1793.0,0.0132
1792.0,0.0132
1791.0,0.013
1790.0,0.013
1789.0,0.013
1788.0,0.0131
1787.0,0.0132
1786.0,0.0133
1785.0,0.0134
1784.0,0.0134
1783.0,0.0133
1782.0,0.0132
1781.0,0.0132
1780.0,0.0132
1779.0,0.0131
1778.0,0.0131
1777.0,0.0131
1776.0,0.0132
1775.0,0.0132
1774.0,0.0133
1773.0,0.0135
1772.0,0.0135
1771.0,0.0135
1770.0,0.0134
1769.0,0.0134
1768.0,0.0134
1767.0,0.0134
1766.0,0.0134
1765.0,0.0134
1764.0,0.0135
1763.0,0.0135
1762.0,0.0134
1761.0,0.0134
1760.0,0.0134
1759.0,0.0134
1758.0,0.0134
1757.0,0.0134
1756.0,0.0135
1755.0,0.0136
1754.0,0.0136
1753.0,0.0137
1752.0,0.0138
1751.0,0.0139
1750.0,0.0139
1749.0,0.0139
1748.0,0.0139
1747.0,0.0139
1746.0,0.0139
1745.0,0.0139
1744.0,0.0139
1743.0,0.0139
1742.0,0.014
1741.0,0.0142
1740.0,0.0144
1739.0,0.0146
1738.0,0.0146
1737.0,0.0146
1736.0,0.0147
1735.0,0.0148
1734.0,0.0148
1733.0,0.0146
1732.0,0.0146
1731.0,0.0145
1730.0,0.0145
1729.0,0.0146
1728.0,0.0148
1727.0,0.0149
1726.0,0.0151
1725.0,0.0152
1724.0,0.0154
1723.0,0.0155
1722.0,0.0155
1721.0,0.0155
1720.0,0.0155
1719.0,0.0155
1718.0,0.0157
1717.0,0.016
1716.0,0.016
1715.0,0.0159
1714.0,0.0158
1713.0,0.0158
1712.0,0.0157
1711.0,0.0156
1710.0,0.0155
1709.0,0.0155
1708.0,0.0155
1707.0,0.0154
1706.0,0.0153
1705.0,0.0153
1704.0,0.0153
1703.0,0.0154
1702.0,0.0155
1701.0,0.0158
1700.0,0.016
1699.0,0.0159
1698.0,0.0158
1697.0,0.0157
1696.0,0.0155
1695.0,0.0155
1694.0,0.0156
1693.0,0.0157
1692.0,0.0158
1691.0,0.0158
1690.0,0.0159
1689.0,0.016
1688.0,0.0161
1687.0,0.0161
1686.0,0.016
1685.0,0.0162
1684.0,0.0164
1683.0,0.0165
1682.0,0.0166
1681.0,0.0166
1680.0,0.0166
1679.0,0.0166
1678.0,0.0166
1677.0,0.0168
1676.0,0.0169
1675.0,0.0169
1674.0,0.0168
1673.0,0.0167
1672.0,0.0166
1671.0,0.0166
1670.0,0.0167
1669.0,0.0166
1668.0,0.0165
1667.0,0.0166
1666.0,0.0166
1665.0,0.0166
1664.0,0.0167
1663.0,0.0168
1662.0,0.0169
1661.0,0.017
1660.0,0.017
1659.0,0.017
1658.0,0.017
1657.0,0.0169
1656.0,0.0169
1655.0,0.0168
1654.0,0.0169
1653.0,0.017
1652.0,0.0171
1651.0,0.017
1650.0,0.017
1649.0,0.017
1648.0,0.0172
1647.0,0.0173
1646.0,0.0172
1645.0,0.0172
1644.0,0.0172
1643.0,0.0172
1642.0,0.0172
1641.0,0.0172
1640.0,0.0171
1639.0,0.017
1638.0,0.0169
1637.0,0.0169
1636.0,0.017
1635.0,0.017
1634.0,0.017
1633.0,0.017
1632.0,0.017
1631.0,0.017
1630.0,0.017
1629.0,0.0171
1628.0,0.0171
1627.0,0.0171
1626.0,0.0172
1625.0,0.0173
1624.0,0.0174
1623.0,0.0176
1622.0,0.0176
1621.0,0.0176
1620.0,0.0176
1619.0,0.0176
1618.0,0.0175
1617.0,0.0174
1616.0,0.0171
1615.0,0.017
1614.0,0.0168
1613.0,0.0168
1612.0,0.0167
1611.0,0.0166
1610.0,0.0166
1609.0,0.0165
1608.0,0.0164
1607.0,0.0163
1606.0,0.0162
1605.0,0.0161
1604.0,0.016
1603.0,0.0161
1602.0,0.0161
1601.0,0.016
1600.0,0.016
1599.0,0.016
1598.0,0.0159
1597.0,0.0159
1596.0,0.0159
1595.0,0.0158
1594.0,0.0157
1593.0,0.0157
1592.0,0.0157
1591.0,0.0156
1590.0,0.0156
1589.0,0.0156
1588.0,0.0156
1587.0,0.0155
1586.0,0.0155
1585.0,0.0155
1584.0,0.0156
1583.0,0.0156
1582.0,0.0156
1581.0,0.0155
1580.0,0.0155
1579.0,0.0154
1578.0,0.0154
1577.0,0.0154
1576.0,0.0155
1575.0,0.0154
1574.0,0.0154
1573.0,0.0154
1572.0,0.0153
1571.0,0.0153
1570.0,0.0153
1569.0,0.0152
1568.0,0.0152
1567.0,0.0152
1566.0,0.0152
1565.0,0.0152
1564.0,0.0152
1563.0,0.0152
1562.0,0.0151
1561.0,0.0149
1560.0,0.0149
1559.0,0.0152
1558.0,0.0151
1557.0,0.0153
1556.0,0.0155
1555.0,0.0154
1554.0,0.0153
1553.0,0.0152
1552.0,0.0151
1551.0,0.015
1550.0,0.0149
1549.0,0.015
1548.0,0.0151
1547.0,0.0151
1546.0,0.0151
1545.0,0.0153
1544.0,0.0154
1543.0,0.0154
1542.0,0.0154
1541.0,0.0154
1540.0,0.0149
1539.0,0.0144
1538.0,0.0145
1537.0,0.0147
1536.0,0.0148
1535.0,0.0148
1534.0,0.0146
1533.0,0.0145
1532.0,0.0144
1531.0,0.0144
1530.0,0.0144
1529.0,0.0145
1528.0,0.0146
1527.0,0.0146
1526.0,0.0145
1525.0,0.0145
1524.0,0.0145
1523.0,0.0145
1522.0,0.0145
1521.0,0.0144
1520.0,0.0143
1519.0,0.0142
1518.0,0.0141
1517.0,0.014
1516.0,0.0139
1515.0,0.0138
1514.0,0.0138
1513.0,0.0139
1512.0,0.014
1511.0,0.0138
1510.0,0.0136
1509.0,0.0134
1508.0,0.0135
1507.0,0.0132
1506.0,0.0129
1505.0,0.0132
1504.0,0.0136
1503.0,0.0136
1502.0,0.0136
1501.0,0.0137
1500.0,0.0138
1499.0,0.0137
1498.0,0.0136
1497.0,0.0136
1496.0,0.0136
1495.0,0.0135
1494.0,0.0134
1493.0,0.0134
1492.0,0.0135
1491.0,0.0134
1490.0,0.0133
1489.0,0.0133
1488.0,0.0133
1487.0,0.0132
1486.0,0.0131
1485.0,0.0133
1484.0,0.0135
1483.0,0.0136
1482.0,0.0138
1481.0,0.0144
1480.0,0.0154
1479.0,0.0167
1478.0,0.0197
1477.0,0.0258
1476.0,0.0359
1475.0,0.0493
1474.0,0.0649
1473.0,0.0785
1472.0,0.0834
1471.0,0.0821
1470.0,0.0806
1469.0,0.0805
1468.0,0.0815
1467.0,0.0842
1466.0,0.0901
1465.0,0.0992
1464.0,0.1069
1463.0,0.1086
1462.0,0.1049
1461.0,0.0976
1460.0,0.0886
1459.0,0.0792
1458.0,0.071
1457.0,0.0648
1456.0,0.0607
1455.0,0.0578
1454.0,0.0553
1453.0,0.0525
1452.0,0.0496
1451.0,0.0472
1450.0,0.0453
1449.0,0.0437
1448.0,0.0422
1447.0,0.0411
1446.0,0.0403
1445.0,0.0396
1444.0,0.0389
1443.0,0.0383
1442.0,0.0377
1441.0,0.0371
1440.0,0.0365
1439.0,0.0359
1438.0,0.0354
1437.0,0.0347
1436.0,0.0337
1435.0,0.0329
1434.0,0.0321
1433.0,0.0313
1432.0,0.0304
1431.0,0.0294
1430.0,0.0284
1429.0,0.0275
1428.0,0.0267
1427.0,0.026
1426.0,0.0254
1425.0,0.0247
1424.0,0.0242
1423.0,0.0239
1422.0,0.0236
1421.0,0.0233
1420.0,0.0229
1419.0,0.0227
1418.0,0.0225
1417.0,0.0223
1416.0,0.0221
1415.0,0.022
1414.0,0.0219
1413.0,0.0217
1412.0,0.0216
1411.0,0.0214
1410.0,0.0213
1409.0,0.0212
1408.0,0.021
1407.0,0.0209
1406.0,0.0209
1405.0,0.0207
1404.0,0.0206
1403.0,0.0205
1402.0,0.0204
1401.0,0.0203
1400.0,0.0202
1399.0,0.0202
1398.0,0.0202
1397.0,0.0201
1396.0,0.0199
1395.0,0.0198
1394.0,0.0198
1393.0,0.0198
1392.0,0.0198
1391.0,0.0198
1390.0,0.0198
1389.0,0.0198
1388.0,0.0199
1387.0,0.0201
1386.0,0.0204
1385.0,0.0207
1384.0,0.0212
1383.0,0.0219
1382.0,0.0229
1381.0,0.024
1380.0,0.0251
1379.0,0.0261
1378.0,0.0266
1377.0,0.0267
1376.0,0.0263
1375.0,0.026
1374.0,0.0256
1373.0,0.0255
1372.0,0.0256
1371.0,0.0258
1370.0,0.0259
1369.0,0.026
1368.0,0.026
1367.0,0.0259
1366.0,0.0256
1365.0,0.0253
1364.0,0.0249
1363.0,0.0246
1362.0,0.0243
1361.0,0.024
1360.0,0.0238
1359.0,0.0237
1358.0,0.0236
1357.0,0.0235
1356.0,0.0235
1355.0,0.0235
1354.0,0.0236
1353.0,0.0237
1352.0,0.0236
1351.0,0.0236
1350.0,0.0236
1349.0,0.0235
1348.0,0.0233
1347.0,0.0231
1346.0,0.0229
1345.0,0.0227
1344.0,0.0225
1343.0,0.0224
1342.0,0.0222
1341.0,0.022
1340.0,0.0218
1339.0,0.0216
1338.0,0.0214
1337.0,0.0213
1336.0,0.0211
1335.0,0.021
1334.0,0.0209
1333.0,0.0207
1332.0,0.0206
1331.0,0.0205
1330.0,0.0205
1329.0,0.0205
1328.0,0.0204
1327.0,0.0204
1326.0,0.0204
1325.0,0.0204
1324.0,0.0204
1323.0,0.0205
1322.0,0.0206
1321.0,0.0207
1320.0,0.0208
1319.0,0.0209
1318.0,0.021
1317.0,0.0211
1316.0,0.0211
1315.0,0.0213
1314.0,0.0214
1313.0,0.0215
1312.0,0.0216
1311.0,0.0217
1310.0,0.0219
1309.0,0.022
1308.0,0.0221
1307.0,0.0221
1306.0,0.0222
1305.0,0.0223
1304.0,0.0223
1303.0,0.0223
1302.0,0.0223
1301.0,0.0223
1300.0,0.0223
1299.0,0.0224
1298.0,0.0223
1297.0,0.0223
1296.0,0.0221
1295.0,0.022
1294.0,0.0219
1293.0,0.0218
1292.0,0.0217
1291.0,0.0216
1290.0,0.0216
1289.0,0.0215
1288.0,0.0215
1287.0,0.0214
1286.0,0.0213
1285.0,0.0212
1284.0,0.0211
1283.0,0.021
1282.0,0.021
1281.0,0.021
1280.0,0.021
1279.0,0.021
1278.0,0.021
1277.0,0.0211
1276.0,0.0211
1275.0,0.0211
1274.0,0.0211
1273.0,0.021
1272.0,0.021
1271.0,0.0211
1270.0,0.0211
1269.0,0.0211
1268.0,0.0212
1267.0,0.0211
1266.0,0.0212
1265.0,0.0212
1264.0,0.0212
1263.0,0.0213
1262.0,0.0213
1261.0,0.0212
1260.0,0.0212
1259.0,0.0211
1258.0,0.0211
1257.0,0.021
1256.0,0.0209
1255.0,0.0208
1254.0,0.0208
1253.0,0.0208
1252.0,0.0208
1251.0,0.0209
1250.0,0.0209
1249.0,0.0208
1248.0,0.0208
1247.0,0.0207
1246.0,0.0207
1245.0,0.0207
1244.0,0.0207
1243.0,0.0207
1242.0,0.0208
1241.0,0.0208
1240.0,0.0208
1239.0,0.0208
1238.0,0.0208
1237.0,0.0208
1236.0,0.0208
1235.0,0.0209
1234.0,0.0209
1233.0,0.0209
1232.0,0.0208
1231.0,0.0208
1230.0,0.0208
1229.0,0.0207
1228.0,0.0207
1227.0,0.0208
1226.0,0.0209
1225.0,0.0209
1224.0,0.021
1223.0,0.021
1222.0,0.021
1221.0,0.021
1220.0,0.021
1219.0,0.021
1218.0,0.0211
1217.0,0.0211
1216.0,0.0212
1215.0,0.0213
1214.0,0.0213
1213.0,0.0214
1212.0,0.0215
1211.0,0.0216
1210.0,0.0217
1209.0,0.0218
1208.0,0.0219
1207.0,0.022
1206.0,0.022
1205.0,0.0221
1204.0,0.0222
1203.0,0.0224
1202.0,0.0225
1201.0,0.0225
1200.0,0.0226
1199.0,0.0227
1198.0,0.0228
1197.0,0.023
1196.0,0.0231
1195.0,0.0233
1194.0,0.0234
1193.0,0.0236
1192.0,0.0237
1191.0,0.0238
1190.0,0.024
1189.0,0.0241
1188.0,0.0243
1187.0,0.0245
1186.0,0.0246
1185.0,0.0248
1184.0,0.025
1183.0,0.0252
1182.0,0.0254
1181.0,0.0256
1180.0,0.0259
1179.0,0.0262
1178.0,0.0264
1177.0,0.0267
1176.0,0.0269
1175.0,0.0271
1174.0,0.0273
1173.0,0.0275
1172.0,0.0277
1171.0,0.0279
1170.0,0.0281
1169.0,0.0283
1168.0,0.0285
1167.0,0.0286
1166.0,0.0287
1165.0,0.0288
1164.0,0.029
1163.0,0.0291
1162.0,0.0293
1161.0,0.0294
1160.0,0.0295
1159.0,0.0297
1158.0,0.0297
1157.0,0.0298
1156.0,0.0299
1155.0,0.03
1154.0,0.0302
1153.0,0.0303
1152.0,0.0305
1151.0,0.0306
1150.0,0.0308
1149.0,0.031
1148.0,0.0313
1147.0,0.0316
1146.0,0.0318
1145.0,0.032
1144.0,0.0322
1143.0,0.0323
1142.0,0.0325
1141.0,0.0327
1140.0,0.0329
1139.0,0.033
1138.0,0.0332
1137.0,0.0334
1136.0,0.0336
1135.0,0.0338
1134.0,0.034
1133.0,0.0342
1132.0,0.0343
1131.0,0.0343
1130.0,0.0344
1129.0,0.0344
1128.0,0.0345
1127.0,0.0345
1126.0,0.0346
1125.0,0.0346
1124.0,0.0346
1123.0,0.0347
1122.0,0.0347
1121.0,0.0347
1120.0,0.0348
1119.0,0.0348
1118.0,0.0349
1117.0,0.035
1116.0,0.0351
1115.0,0.0352
1114.0,0.0353
1113.0,0.0353
1112.0,0.0354
1111.0,0.0354
1110.0,0.0355
1109.0,0.0356
1108.0,0.0357
1107.0,0.0357
1106.0,0.0355
1105.0,0.0354
1104.0,0.0353
1103.0,0.0352
1102.0,0.0351
1101.0,0.035
1100.0,0.0348
1099.0,0.0346
1098.0,0.0344
1097.0,0.0342
1096.0,0.034
1095.0,0.0338
1094.0,0.0335
1093.0,0.0334
1092.0,0.0332
1091.0,0.0331
1090.0,0.033
1089.0,0.0329
1088.0,0.0327
1087.0,0.0326
1086.0,0.0324
1085.0,0.0323
1084.0,0.0322
1083.0,0.0322
1082.0,0.0321
1081.0,0.032
1080.0,0.0319
1079.0,0.0318
1078.0,0.0316
1077.0,0.0316
1076.0,0.0315
1075.0,0.0313
1074.0,0.0312
1073.0,0.0311
1072.0,0.0311
1071.0,0.031
1070.0,0.0309
1069.0,0.0308
1068.0,0.0306
1067.0,0.0306
1066.0,0.0306
1065.0,0.0306
1064.0,0.0307
1063.0,0.0307
1062.0,0.0307
1061.0,0.0307
1060.0,0.0307
1059.0,0.0306
1058.0,0.0306
1057.0,0.0305
1056.0,0.0305
1055.0,0.0305
1054.0,0.0305
1053.0,0.0305
1052.0,0.0304
1051.0,0.0304
1050.0,0.0303
1049.0,0.0303
1048.0,0.0302
1047.0,0.03
1046.0,0.0299
1045.0,0.0297
1044.0,0.0296
1043.0,0.0294
1042.0,0.0291
1041.0,0.0289
1040.0,0.0287
1039.0,0.0286
1038.0,0.0285
1037.0,0.0285
1036.0,0.0284
1035.0,0.0283
1034.0,0.0282
1033.0,0.0281
1032.0,0.028
1031.0,0.0279
1030.0,0.0278
1029.0,0.0277
1028.0,0.0276
1027.0,0.0274
1026.0,0.0273
1025.0,0.0272
1024.0,0.0272
1023.0,0.0271
1022.0,0.027
1021.0,0.027
1020.0,0.0269
1019.0,0.0268
1018.0,0.0267
1017.0,0.0266
1016.0,0.0265
1015.0,0.0264
1014.0,0.0263
1013.0,0.0261
1012.0,0.026
1011.0,0.0259
1010.0,0.0258
1009.0,0.0258
1008.0,0.0258
1007.0,0.0258
1006.0,0.0257
1005.0,0.0257
1004.0,0.0256
1003.0,0.0256
1002.0,0.0255
1001.0,0.0253
1000.0,0.0252
999.0,0.0251
998.0,0.025
997.0,0.0249
996.0,0.0248
995.0,0.0247
994.0,0.0246
993.0,0.0245
992.0,0.0244
991.0,0.0244
990.0,0.0242
989.0,0.0241
988.0,0.0239
987.0,0.0238
986.0,0.0237
985.0,0.0237
984.0,0.0237
983.0,0.0238
982.0,0.0237
981.0,0.0237
980.0,0.0236
979.0,0.0235
978.0,0.0235
977.0,0.0235
976.0,0.0235
975.0,0.0235
974.0,0.0234
973.0,0.0233
972.0,0.0233
971.0,0.0233
970.0,0.0232
969.0,0.0232
968.0,0.0231
967.0,0.0231
966.0,0.0231
965.0,0.0231
964.0,0.0231
963.0,0.0231
962.0,0.0231
961.0,0.0231
960.0,0.0231
959.0,0.023
958.0,0.023
957.0,0.023
956.0,0.023
955.0,0.0229
954.0,0.0228
953.0,0.0228
952.0,0.0228
951.0,0.0228
950.0,0.0228
949.0,0.0228
948.0,0.0228
947.0,0.0228
946.0,0.0229
945.0,0.0229
944.0,0.0229
943.0,0.0229
942.0,0.0229
941.0,0.0228
940.0,0.0228
939.0,0.0227
938.0,0.0227
937.0,0.0227
936.0,0.0227
935.0,0.0228
934.0,0.0229
933.0,0.0229
932.0,0.023
931.0,0.023
930.0,0.0229
929.0,0.0229
928.0,0.0229
927.0,0.0229
926.0,0.0229
925.0,0.0229
924.0,0.0228
923.0,0.0228
922.0,0.0228
921.0,0.0228
920.0,0.0227
919.0,0.0227
918.0,0.0228
917.0,0.0228
916.0,0.0229
915.0,0.0229
914.0,0.023
913.0,0.0231
912.0,0.0232
911.0,0.0233
910.0,0.0233
909.0,0.0232
908.0,0.0231
907.0,0.023
906.0,0.023
905.0,0.023
904.0,0.0231
903.0,0.0231
902.0,0.0231
901.0,0.0231
900.0,0.0231
899.0,0.0231
898.0,0.0231
897.0,0.0231
896.0,0.0231
895.0,0.0233
894.0,0.0234
893.0,0.0235
892.0,0.0236
891.0,0.0236
890.0,0.0237
889.0,0.0238
888.0,0.0239
887.0,0.0239
886.0,0.0237
885.0,0.0236
884.0,0.0235
883.0,0.0234
882.0,0.0233
881.0,0.0232
880.0,0.0232
879.0,0.0232
878.0,0.0232
877.0,0.0233
876.0,0.0232
875.0,0.0232
874.0,0.0231
873.0,0.023
872.0,0.023
871.0,0.023
870.0,0.0231
869.0,0.0232
868.0,0.0232
867.0,0.0231
866.0,0.0229
865.0,0.0228
864.0,0.0228
863.0,0.0228
862.0,0.0228
861.0,0.0227
860.0,0.0227
859.0,0.0227
858.0,0.0227
857.0,0.0227
856.0,0.0227
855.0,0.0227
854.0,0.0227
853.0,0.0227
852.0,0.0227
851.0,0.0228
850.0,0.0227
849.0,0.0226
848.0,0.0225
847.0,0.0224
846.0,0.0224
845.0,0.0225
844.0,0.0227
843.0,0.0227
842.0,0.0227
841.0,0.0226
840.0,0.0226
839.0,0.0225
838.0,0.0224
837.0,0.0224
836.0,0.0224
835.0,0.0223
834.0,0.0223
833.0,0.0223
832.0,0.0223
831.0,0.0223
830.0,0.0223
829.0,0.0223
828.0,0.0223
827.0,0.0223
826.0,0.0223
825.0,0.0223
824.0,0.0225
823.0,0.0226
822.0,0.0226
821.0,0.0225
820.0,0.0224
819.0,0.0223
818.0,0.0223
817.0,0.0223
816.0,0.0223
815.0,0.0223
814.0,0.0224
813.0,0.0225
812.0,0.0226
811.0,0.0227
810.0,0.0228
809.0,0.0229
808.0,0.023
807.0,0.0231
806.0,0.0231
805.0,0.0229
804.0,0.0228
803.0,0.0227
802.0,0.0227
801.0,0.0227
800.0,0.0228
799.0,0.0228
798.0,0.0228
797.0,0.0228
796.0,0.0227
795.0,0.0227
794.0,0.0228
793.0,0.0228
792.0,0.0228
791.0,0.0228
790.0,0.0227
789.0,0.0227
788.0,0.0228
787.0,0.0229
786.0,0.0231
785.0,0.0233
784.0,0.0234
783.0,0.0235
782.0,0.0234
781.0,0.0234
780.0,0.0233
779.0,0.0232
778.0,0.0232
777.0,0.0231
776.0,0.0232
775.0,0.0233
774.0,0.0235
773.0,0.0237
772.0,0.0239
771.0,0.0238
770.0,0.0237
769.0,0.0237
768.0,0.0237
767.0,0.0238
766.0,0.0238
765.0,0.0237
764.0,0.0236
763.0,0.0235
762.0,0.0235
761.0,0.0234
760.0,0.0234
759.0,0.0233
758.0,0.0232
757.0,0.0232
756.0,0.0233
755.0,0.0234
754.0,0.0233
753.0,0.0233
752.0,0.0233
751.0,0.0234
750.0,0.0235
749.0,0.0236
748.0,0.0238
747.0,0.0238
746.0,0.0237
745.0,0.0238
744.0,0.0241
743.0,0.0243
742.0,0.0245
741.0,0.0246
740.0,0.0248
739.0,0.025
738.0,0.0254
737.0,0.0264
736.0,0.028
735.0,0.0309
734.0,0.0363
733.0,0.0456
732.0,0.0578
731.0,0.0696
730.0,0.0767
729.0,0.0774
728.0,0.0737
727.0,0.0692
726.0,0.0666
725.0,0.0669
724.0,0.0702
723.0,0.0775
722.0,0.0896
721.0,0.1058
720.0,0.1205
719.0,0.1266
718.0,0.1223
717.0,0.1109
716.0,0.0971
715.0,0.0842
714.0,0.0735
713.0,0.0651
712.0,0.0589
711.0,0.0544
710.0,0.0512
709.0,0.0488
708.0,0.0466
707.0,0.0444
706.0,0.0424
705.0,0.0408
704.0,0.0397
703.0,0.039
702.0,0.0384
701.0,0.0376
700.0,0.0366
699.0,0.0357
698.0,0.0349
697.0,0.0344
696.0,0.0341
695.0,0.0337
694.0,0.0332
693.0,0.0324
692.0,0.0319
691.0,0.0315
690.0,0.0312
689.0,0.0308
688.0,0.0306
687.0,0.0307
686.0,0.031
685.0,0.0316
684.0,0.0323
683.0,0.0328
682.0,0.0325
681.0,0.0314
680.0,0.0303
679.0,0.0298
678.0,0.0302
677.0,0.0312
676.0,0.0324
675.0,0.0335
674.0,0.0344
673.0,0.0346
672.0,0.0337
671.0,0.0315
670.0,0.028
669.0,0.0238
668.0,0.0217
667.0,0.0248
666.0,0.0286
665.0,0.0304
664.0,0.0308
663.0,0.0307
662.0,0.0303
661.0,0.0296
660.0,0.0286
659.0,0.0275
658.0,0.0265
657.0,0.026
656.0,0.0261
655.0,0.0265
654.0,0.027
653.0,0.0273
652.0,0.0277
651.0,0.0281
650.0,0.0285
649.0,0.0288
648.0,0.029
647.0,0.029
646.0,0.0289
645.0,0.0289
644.0,0.0287
643.0,0.0283
642.0,0.028
641.0,0.0278
640.0,0.028
639.0,0.0284
638.0,0.029
637.0,0.0298
636.0,0.0308
635.0,0.0318
634.0,0.0324
633.0,0.0324
632.0,0.0318
631.0,0.031
630.0,0.0302
629.0,0.0297
628.0,0.0296
627.0,0.0297
626.0,0.0297
625.0,0.0296
624.0,0.0293
623.0,0.0288
622.0,0.0285
621.0,0.0286
620.0,0.0295
619.0,0.0306
618.0,0.0311
617.0,0.0307
616.0,0.0299
615.0,0.0293
614.0,0.0293
613.0,0.0298
612.0,0.0307
611.0,0.0314
610.0,0.0316
609.0,0.0315
608.0,0.0315
607.0,0.0319
606.0,0.0324
605.0,0.0326
604.0,0.0325
603.0,0.0322
602.0,0.0317
601.0,0.0309
600.0,0.0304
