cm-1,A
4000.0,0.0081
3999.0,0.0082
3998.0,0.0083
3997.0,0.0084
3996.0,0.0084
3995.0,0.0085
3994.0,0.0084
3993.0,0.0084
3992.0,0.0083
3991.0,0.0082
3990.0,0.0082
3989.0,0.0082
3988.0,0.0082
3987.0,0.0082
3986.0,0.0083
3985.0,0.0082
3984.0,0.0082
3983.0,0.0081
3982.0,0.008
3981.0,0.008
3980.0,0.0079
3979.0,0.0079
3978.0,0.0079
3977.0,0.008
3976.0,0.008
3975.0,0.008
3974.0,0.008
3973.0,0.008
3972.0,0.0081
3971.0,0.0082
3970.0,0.0082
3969.0,0.0083
3968.0,0.0084
3967.0,0.0084
3966.0,0.0084
3965.0,0.0084
3964.0,0.0083
3963.0,0.0083
3962.0,0.0082
3961.0,0.0082
3960.0,0.0082
3959.0,0.0082
3958.0,0.0083
3957.0,0.0084
3956.0,0.0084
3955.0,0.0084
3954.0,0.0084
3953.0,0.0084
3952.0,0.0084
3951.0,0.0083
3950.0,0.0082
3949.0,0.0081
3948.0,0.0081
3947.0,0.0081
3946.0,0.0081
3945.0,0.0082
3944.0,0.0082
3943.0,0.0082
3942.0,0.0082
3941.0,0.0082
3940.0,0.0082
3939.0,0.0083
3938.0,0.0083
3937.0,0.0083
3936.0,0.0084
3935.0,0.0085
3934.0,0.0085
3933.0,0.0084
3932.0,0.0084
3931.0,0.0083
3930.0,0.0083
3929.0,0.0084
3928.0,0.0085
3927.0,0.0085
3926.0,0.0085
3925.0,0.0084
3924.0,0.0085
3923.0,0.0085
3922.0,0.0085
3921.0,0.0084
3920.0,0.0083
3919.0,0.0083
3918.0,0.0083
3917.0,0.0084
3916.0,0.0084
3915.0,0.0085
3914.0,0.0085
3913.0,0.0084
3912.0,0.0084
3911.0,0.0084
3910.0,0.0084
3909.0,0.0085
3908.0,0.0085
3907.0,0.0085
3906.0,0.0084
3905.0,0.0084
3904.0,0.0084
3903.0,0.0085
3902.0,0.0086
3901.0,0.0086
3900.0,0.0085
3899.0,0.0084
3898.0,0.0084
3897.0,0.0084
3896.0,0.0084
3895.0,0.0084
3894.0,0.0084
3893.0,0.0085
3892.0,0.0085
3891.0,0.0085
3890.0,0.0085
3889.0,0.0086
3888.0,0.0086
3887.0,0.0085
3886.0,0.0084
3885.0,0.0084
3884.0,0.0086
3883.0,0.0088
3882.0,0.0089
3881.0,0.0089
3880.0,0.0088
3879.0,0.0088
3878.0,0.0088
3877.0,0.0088
3876.0,0.0087
3875.0,0.0086
3874.0,0.0087
3873.0,0.0088
3872.0,0.0088
3871.0,0.0087
3870.0,0.0085
3869.0,0.0084
3868.0,0.0084
3867.0,0.0084
3866.0,0.0084
3865.0,0.0083
3864.0,0.0084
3863.0,0.0085
3862.0,0.0085
3861.0,0.0085
3860.0,0.0084
3859.0,0.0084
3858.0,0.0085
3857.0,0.0086
3856.0,0.0085
3855.0,0.0083
3854.0,0.0083
3853.0,0.0085
3852.0,0.0087
3851.0,0.0088
3850.0,0.0089
3849.0,0.0089
3848.0,0.0088
3847.0,0.0087
3846.0,0.0086
3845.0,0.0085
3844.0,0.0085
3843.0,0.0085
3842.0,0.0086
3841.0,0.0087
3840.0,0.0087
3839.0,0.0087
3838.0,0.0087
3837.0,0.0086
3836.0,0.0087
3835.0,0.0088
3834.0,0.0088
3833.0,0.0088
3832.0,0.0088
3831.0,0.0087
3830.0,0.0087
3829.0,0.0087
3828.0,0.0087
3827.0,0.0086
3826.0,0.0086
3825.0,0.0087
3824.0,0.0088
3823.0,0.0089
3822.0,0.0088
3821.0,0.0088
3820.0,0.0088
3819.0,0.0089
3818.0,0.0088
3817.0,0.0086
3816.0,0.0084
3815.0,0.0084
3814.0,0.0086
3813.0,0.0086
3812.0,0.0086
3811.0,0.0087
3810.0,0.0088
3809.0,0.0088
3808.0,0.0088
3807.0,0.0087
3806.0,0.0086
3805.0,0.0087
3804.0,0.0087
3803.0,0.0086
3802.0,0.0085
3801.0,0.0085
3800.0,0.0087
3799.0,0.0088
3798.0,0.0089
3797.0,0.0089
3796.0,0.0089
3795.0,0.0089
3794.0,0.0089
3793.0,0.0089
3792.0,0.0089
3791.0,0.0089
3790.0,0.0089
3789.0,0.0089
3788.0,0.0089
3787.0,0.009
3786.0,0.009
3785.0,0.009
3784.0,0.0089
3783.0,0.0089
3782.0,0.0089
3781.0,0.0088
3780.0,0.0087
3779.0,0.0088
3778.0,0.0088
3777.0,0.0089
3776.0,0.0089
3775.0,0.0088
3774.0,0.0088
3773.0,0.0089
3772.0,0.0089
3771.0,0.0089
3770.0,0.0089
3769.0,0.0089
3768.0,0.0089
3767.0,0.009
3766.0,0.0089
3765.0,0.0089
3764.0,0.0089
3763.0,0.0089
3762.0,0.0088
3761.0,0.0086
3760.0,0.0086
3759.0,0.0087
3758.0,0.0088
3757.0,0.0088
3756.0,0.0089
3755.0,0.0089
3754.0,0.0088
3753.0,0.0088
3752.0,0.0088
3751.0,0.0088
3750.0,0.0086
3749.0,0.0084
3748.0,0.0083
3747.0,0.0085
3746.0,0.0085
3745.0,0.0084
3744.0,0.0085
3743.0,0.0086
3742.0,0.0087
3741.0,0.0087
3740.0,0.0086
3739.0,0.0085
3738.0,0.0084
3737.0,0.0083
3736.0,0.0082
3735.0,0.0083
3734.0,0.0084
3733.0,0.0082
3732.0,0.008
3731.0,0.0078
3730.0,0.0078
3729.0,0.008
3728.0,0.0081
3727.0,0.0082
3726.0,0.0082
3725.0,0.0082
3724.0,0.0082
3723.0,0.0082
3722.0,0.0083
3721.0,0.0085
3720.0,0.0085
3719.0,0.0086
3718.0,0.0085
3717.0,0.0086
3716.0,0.0087
3715.0,0.0088
3714.0,0.0087
3713.0,0.0085
3712.0,0.0082
3711.0,0.0081
3710.0,0.0081
3709.0,0.008
3708.0,0.008
3707.0,0.0079
3706.0,0.008
3705.0,0.008
3704.0,0.0081
3703.0,0.0083
3702.0,0.0083
3701.0,0.0084
3700.0,0.0083
3699.0,0.0083
3698.0,0.0082
3697.0,0.0081
3696.0,0.0081
3695.0,0.0081
3694.0,0.0081
3693.0,0.008
3692.0,0.0079
3691.0,0.0079
3690.0,0.0081
3689.0,0.0083
3688.0,0.0085
3687.0,0.0086
3686.0,0.0087
3685.0,0.0086
3684.0,0.0085
3683.0,0.0085
3682.0,0.0084
3681.0,0.0084
3680.0,0.0085
3679.0,0.0086
3678.0,0.0088
3677.0,0.0088
3676.0,0.0087
3675.0,0.0088
3674.0,0.0088
3673.0,0.009
3672.0,0.0091
3671.0,0.0091
3670.0,0.0092
3669.0,0.0092
3668.0,0.0091
3667.0,0.009
3666.0,0.0089
3665.0,0.009
3664.0,0.009
3663.0,0.0091
3662.0,0.0091
3661.0,0.009
3660.0,0.009
3659.0,0.009
3658.0,0.009
3657.0,0.009
3656.0,0.009
3655.0,0.0091
3654.0,0.0091
3653.0,0.0091
3652.0,0.0089
3651.0,0.0087
3650.0,0.0088
3649.0,0.0092
3648.0,0.0094
3647.0,0.0095
3646.0,0.0094
3645.0,0.0093
3644.0,0.0093
3643.0,0.0093
3642.0,0.0094
3641.0,0.0095
3640.0,0.0095
3639.0,0.0095
3638.0,0.0094
3637.0,0.0093
3636.0,0.0092
3635.0,0.009
3634.0,0.0089
3633.0,0.0088
3632.0,0.0089
3631.0,0.009
3630.0,0.009
3629.0,0.0091
3628.0,0.0091
3627.0,0.0091
3626.0,0.0091
3625.0,0.0091
3624.0,0.0092
3623.0,0.0093
3622.0,0.0095
3621.0,0.0097
3620.0,0.0098
3619.0,0.0098
3618.0,0.0098
3617.0,0.0099
3616.0,0.01
3615.0,0.0101
3614.0,0.0102
3613.0,0.0103
3612.0,0.0103
3611.0,0.0103
3610.0,0.0102
3609.0,0.0102
3608.0,0.0102
3607.0,0.0103
3606.0,0.0103
3605.0,0.0102
3604.0,0.0101
3603.0,0.0101
3602.0,0.01
3601.0,0.01
3600.0,0.0101
3599.0,0.0102
3598.0,0.0104
3597.0,0.0105
3596.0,0.0106
3595.0,0.0106
3594.0,0.0107
3593.0,0.0107
3592.0,0.0108
3591.0,0.0109
3590.0,0.011
3589.0,0.0112
3588.0,0.0113
3587.0,0.0114
3586.0,0.0114
3585.0,0.0113
3584.0,0.0113
3583.0,0.0112
3582.0,0.0113
3581.0,0.0114
3580.0,0.0115
3579.0,0.0115
3578.0,0.0116
3577.0,0.0116
3576.0,0.0116
3575.0,0.0116
3574.0,0.0116
3573.0,0.0115
3572.0,0.0115
3571.0,0.0116
3570.0,0.0116
3569.0,0.0116
3568.0,0.0117
3567.0,0.0119
3566.0,0.012
3565.0,0.012
3564.0,0.012
3563.0,0.012
3562.0,0.012
3561.0,0.0121
3560.0,0.0122
3559.0,0.0123
3558.0,0.0124
3557.0,0.0124
3556.0,0.0125
3555.0,0.0125
3554.0,0.0126
3553.0,0.0127
3552.0,0.0128
3551.0,0.0127
3550.0,0.0127
3549.0,0.0126
3548.0,0.0126
3547.0,0.0127
3546.0,0.0129
3545.0,0.013
3544.0,0.0131
3543.0,0.0131
3542.0,0.013
3541.0,0.013
3540.0,0.013
3539.0,0.013
3538.0,0.0131
3537.0,0.0131
3536.0,0.0132
3535.0,0.0133
3534.0,0.0133
3533.0,0.0132
3532.0,0.0132
3531.0,0.0133
3530.0,0.0134
3529.0,0.0136
3528.0,0.0137
3527.0,0.0138
3526.0,0.0138
3525.0,0.0138
3524.0,0.0138
3523.0,0.0139
3522.0,0.014
3521.0,0.014
3520.0,0.014
3519.0,0.014
3518.0,0.014
3517.0,0.0139
3516.0,0.0139
3515.0,0.014
3514.0,0.0141
3513.0,0.0142
3512.0,0.0142
3511.0,0.0141
3510.0,0.0141
3509.0,0.0141
3508.0,0.0142
3507.0,0.0143
3506.0,0.0143
3505.0,0.0143
3504.0,0.0143
3503.0,0.0144
3502.0,0.0145
3501.0,0.0146
3500.0,0.0146
3499.0,0.0146
3498.0,0.0147
3497.0,0.0148
3496.0,0.0149
3495.0,0.015
3494.0,0.015
3493.0,0.0151
3492.0,0.0151
3491.0,0.0152
3490.0,0.0152
3489.0,0.0153
3488.0,0.0153
3487.0,0.0153
3486.0,0.0153
3485.0,0.0152
3484.0,0.0152
3483.0,0.0152
3482.0,0.0152
3481.0,0.0153
3480.0,0.0153
3479.0,0.0153
3478.0,0.0152
3477.0,0.0152
3476.0,0.0152
3475.0,0.0153
3474.0,0.0154
3473.0,0.0154
3472.0,0.0155
3471.0,0.0155
3470.0,0.0155
3469.0,0.0155
3468.0,0.0156
3467.0,0.0157
3466.0,0.0159
3465.0,0.016
3464.0,0.016
3463.0,0.016
3462.0,0.0159
3461.0,0.0159
3460.0,0.0159
3459.0,0.0159
3458.0,0.0158
3457.0,0.0159
3456.0,0.016
3455.0,0.0161
3454.0,0.0162
3453.0,0.0163
3452.0,0.0162
3451.0,0.0162
3450.0,0.0162
3449.0,0.0163
3448.0,0.0164
3447.0,0.0165
3446.0,0.0166
3445.0,0.0166
3444.0,0.0167
3443.0,0.0167
3442.0,0.0167
3441.0,0.0167
3440.0,0.0168
3439.0,0.0168
3438.0,0.0168
3437.0,0.0168
3436.0,0.0168
3435.0,0.0168
3434.0,0.0169
3433.0,0.0168
3432.0,0.0168
3431.0,0.0168
3430.0,0.0169
3429.0,0.017
3428.0,0.0171
3427.0,0.0172
3426.0,0.0172
3425.0,0.0171
3424.0,0.0171
3423.0,0.0171
3422.0,0.0171
3421.0,0.0172
3420.0,0.0174
3419.0,0.0174
3418.0,0.0174
3417.0,0.0174
3416.0,0.0174
3415.0,0.0173
3414.0,0.0173
3413.0,0.0173
3412.0,0.0173
3411.0,0.0174
3410.0,0.0174
3409.0,0.0175
3408.0,0.0175
3407.0,0.0175
3406.0,0.0174
3405.0,0.0174
3404.0,0.0174
3403.0,0.0174
3402.0,0.0175
3401.0,0.0175
3400.0,0.0175
3399.0,0.0174
3398.0,0.0173
3397.0,0.0172
3396.0,0.0172
3395.0,0.0172
3394.0,0.0172
3393.0,0.0172
3392.0,0.0172
3391.0,0.0173
3390.0,0.0173
3389.0,0.0174
3388.0,0.0174
3387.0,0.0174
3386.0,0.0174
3385.0,0.0173
3384.0,0.0173
3383.0,0.0173
3382.0,0.0173
3381.0,0.0173
3380.0,0.0173
3379.0,0.0173
3378.0,0.0173
3377.0,0.0173
3376.0,0.0172
3375.0,0.0171
3374.0,0.017
3373.0,0.017
3372.0,0.0171
3371.0,0.0171
3370.0,0.0171
3369.0,0.0171
3368.0,0.0171
3367.0,0.0172
3366.0,0.0172
3365.0,0.0172
3364.0,0.0172
3363.0,0.0172
3362.0,0.0171
3361.0,0.0171
3360.0,0.0171
3359.0,0.0171
3358.0,0.017
3357.0,0.0169
3356.0,0.0168
3355.0,0.0169
3354.0,0.017
3353.0,0.0171
3352.0,0.0172
3351.0,0.0172
3350.0,0.0171
3349.0,0.017
3348.0,0.0169
3347.0,0.0169
3346.0,0.0168
3345.0,0.0168
3344.0,0.0168
3343.0,0.0168
3342.0,0.0167
3341.0,0.0167
3340.0,0.0167
3339.0,0.0167
3338.0,0.0167
3337.0,0.0167
3336.0,0.0167
3335.0,0.0166
3334.0,0.0166
3333.0,0.0166
3332.0,0.0165
3331.0,0.0164
3330.0,0.0163
3329.0,0.0163
3328.0,0.0162
3327.0,0.0163
3326.0,0.0163
3325.0,0.0163
3324.0,0.0162
3323.0,0.0161
3322.0,0.0159
3321.0,0.0158
3320.0,0.0157
3319.0,0.0157
3318.0,0.0157
3317.0,0.0158
3316.0,0.0158
3315.0,0.0158
3314.0,0.0158
3313.0,0.0158
3312.0,0.0159
3311.0,0.0159
3310.0,0.0159
3309.0,0.0159
3308.0,0.0158
3307.0,0.0157
3306.0,0.0156
3305.0,0.0156
3304.0,0.0156
3303.0,0.0157
3302.0,0.0157
3301.0,0.0157
3300.0,0.0157
3299.0,0.0157
3298.0,0.0157
3297.0,0.0156
3296.0,0.0155
3295.0,0.0155
3294.0,0.0155
3293.0,0.0156
3292.0,0.0155
3291.0,0.0155
3290.0,0.0154
3289.0,0.0153
3288.0,0.0153
3287.0,0.0153
3286.0,0.0153
3285.0,0.0152
3284.0,0.0152
3283.0,0.0152
3282.0,0.0152
3281.0,0.0151
3280.0,0.015
3279.0,0.0149
3278.0,0.0149
3277.0,0.0148
3276.0,0.0148
3275.0,0.0148
3274.0,0.0147
3273.0,0.0147
3272.0,0.0147
3271.0,0.0148
3270.0,0.0148
3269.0,0.0148
3268.0,0.0148
3267.0,0.0148
3266.0,0.0147
3265.0,0.0146
3264.0,0.0146
3263.0,0.0146
3262.0,0.0146
3261.0,0.0146
3260.0,0.0146
3259.0,0.0147
3258.0,0.0147
3257.0,0.0147
3256.0,0.0147
3255.0,0.0147
3254.0,0.0146
3253.0,0.0145
3252.0,0.0144
3251.0,0.0143
3250.0,0.0142
3249.0,0.0142
3248.0,0.0141
3247.0,0.0141
3246.0,0.0141
3245.0,0.0141
3244.0,0.014
3243.0,0.014
3242.0,0.014
3241.0,0.014
3240.0,0.014
3239.0,0.014
3238.0,0.0139
3237.0,0.0139
3236.0,0.0138
3235.0,0.0138
3234.0,0.0138
3233.0,0.0139
3232.0,0.0139
3231.0,0.0139
3230.0,0.0138
3229.0,0.0137
3228.0,0.0137
3227.0,0.0136
3226.0,0.0136
3225.0,0.0136
3224.0,0.0136
3223.0,0.0137
3222.0,0.0137
3221.0,0.0138
3220.0,0.0137
3219.0,0.0136
3218.0,0.0135
3217.0,0.0134
3216.0,0.0134
3215.0,0.0134
3214.0,0.0135
3213.0,0.0135
3212.0,0.0135
3211.0,0.0135
3210.0,0.0135
3209.0,0.0135
3208.0,0.0135
3207.0,0.0134
3206.0,0.0133
3205.0,0.0133
3204.0,0.0132
3203.0,0.0131
3202.0,0.013
3201.0,0.013
3200.0,0.013
3199.0,0.013
3198.0,0.013
3197.0,0.013
3196.0,0.0131
3195.0,0.0131
3194.0,0.0131
3193.0,0.0131
3192.0,0.013
3191.0,0.0129
3190.0,0.0128
3189.0,0.0128
3188.0,0.0127
3187.0,0.0126
3186.0,0.0126
3185.0,0.0125
3184.0,0.0126
3183.0,0.0125
3182.0,0.0125
3181.0,0.0124
3180.0,0.0124
3179.0,0.0124
3178.0,0.0124
3177.0,0.0123
3176.0,0.0123
3175.0,0.0122
3174.0,0.0121
3173.0,0.0121
3172.0,0.0121
3171.0,0.0121
3170.0,0.012
3169.0,0.0119
3168.0,0.0119
3167.0,0.0119
3166.0,0.0119
3165.0,0.0119
3164.0,0.0118
3163.0,0.0118
3162.0,0.0118
3161.0,0.0117
3160.0,0.0117
3159.0,0.0116
3158.0,0.0115
3157.0,0.0114
3156.0,0.0114
3155.0,0.0114
3154.0,0.0113
3153.0,0.0113
3152.0,0.0113
3151.0,0.0113
3150.0,0.0113
3149.0,0.0113
3148.0,0.0113
3147.0,0.0113
3146.0,0.0112
3145.0,0.0112
3144.0,0.0112
3143.0,0.0111
3142.0,0.0111
3141.0,0.011
3140.0,0.0109
3139.0,0.0108
3138.0,0.0107
3137.0,0.0107
3136.0,0.0106
3135.0,0.0106
3134.0,0.0106
3133.0,0.0107
3132.0,0.0107
3131.0,0.0106
3130.0,0.0105
3129.0,0.0105
3128.0,0.0104
3127.0,0.0104
3126.0,0.0103
3125.0,0.0102
3124.0,0.0101
3123.0,0.01
3122.0,0.01
3121.0,0.0099
3120.0,0.0098
3119.0,0.0097
3118.0,0.0097
3117.0,0.0098
3116.0,0.0098
3115.0,0.0098
3114.0,0.0097
3113.0,0.0097
3112.0,0.0096
3111.0,0.0096
3110.0,0.0095
3109.0,0.0095
3108.0,0.0095
3107.0,0.0095
3106.0,0.0095
3105.0,0.0095
3104.0,0.0095
3103.0,0.0095
3102.0,0.0095
3101.0,0.0094
3100.0,0.0093
3099.0,0.0092
3098.0,0.0091
3097.0,0.009
3096.0,0.0089
3095.0,0.0089
3094.0,0.0088
3093.0,0.0087
3092.0,0.0087
3091.0,0.0086
3090.0,0.0085
3089.0,0.0085
3088.0,0.0085
3087.0,0.0086
3086.0,0.0086
3085.0,0.0087
3084.0,0.0087
3083.0,0.0086
3082.0,0.0085
3081.0,0.0084
3080.0,0.0083
3079.0,0.0083
3078.0,0.0083
3077.0,0.0082
3076.0,0.0081
3075.0,0.0081
3074.0,0.008
3073.0,0.0079
3072.0,0.0079
3071.0,0.0078
3070.0,0.0078
3069.0,0.0077
3068.0,0.0077
3067.0,0.0077
3066.0,0.0077
3065.0,0.0077
3064.0,0.0078
3063.0,0.0078
3062.0,0.0078
3061.0,0.0077
3060.0,0.0076
3059.0,0.0075
3058.0,0.0074
3057.0,0.0073
3056.0,0.0072
3055.0,0.0071
3054.0,0.007
3053.0,0.0069
3052.0,0.0069
3051.0,0.0068
3050.0,0.0067
3049.0,0.0066
3048.0,0.0065
3047.0,0.0065
3046.0,0.0065
3045.0,0.0065
3044.0,0.0065
3043.0,0.0064
3042.0,0.0064
3041.0,0.0063
3040.0,0.0062
3039.0,0.0061
3038.0,0.006
3037.0,0.0059
3036.0,0.0059
3035.0,0.0058
3034.0,0.0058
3033.0,0.0058
3032.0,0.0057
3031.0,0.0056
3030.0,0.0056
3029.0,0.0056
3028.0,0.0055
3027.0,0.0055
3026.0,0.0055
3025.0,0.0054
3024.0,0.0053
3023.0,0.0052
3022.0,0.0051
3021.0,0.005
3020.0,0.0048
3019.0,0.0046
3018.0,0.0044
3017.0,0.0042
3016.0,0.0042
3015.0,0.0042
3014.0,0.0041
3013.0,0.0041
3012.0,0.0039
3011.0,0.0038
3010.0,0.0036
3009.0,0.0036
3008.0,0.0036
3007.0,0.0036
3006.0,0.0036
3005.0,0.0036
3004.0,0.0035
3003.0,0.0035
3002.0,0.0034
3001.0,0.0034
3000.0,0.0034
2999.0,0.0034
2998.0,0.0034
2997.0,0.0034
2996.0,0.0034
2995.0,0.0035
2994.0,0.0036
2993.0,0.0038
2992.0,0.0039
2991.0,0.0041
2990.0,0.0044
2989.0,0.0047
2988.0,0.0051
2987.0,0.0056
2986.0,0.0063
2985.0,0.0069
2984.0,0.0077
2983.0,0.0085
2982.0,0.0095
2981.0,0.0107
2980.0,0.0121
2979.0,0.0138
2978.0,0.0157
2977.0,0.0179
2976.0,0.0205
2975.0,0.0235
2974.0,0.027
2973.0,0.031
2972.0,0.0355
2971.0,0.0406
2970.0,0.0463
2969.0,0.0526
2968.0,0.0593
2967.0,0.0665
2966.0,0.074
2965.0,0.0816
2964.0,0.0889
2963.0,0.0956
2962.0,0.1012
2961.0,0.1053
2960.0,0.1081
2959.0,0.1097
2958.0,0.111
2957.0,0.1124
2956.0,0.1146
2955.0,0.1178
2954.0,0.1218
2953.0,0.1262
2952.0,0.1302
2951.0,0.1328
2950.0,0.1333
2949.0,0.1312
2948.0,0.1266
2947.0,0.12
2946.0,0.1122
2945.0,0.1039
2944.0,0.096
2943.0,0.089
2942.0,0.0834
2941.0,0.0792
2940.0,0.0765
2939.0,0.0753
2938.0,0.0753
2937.0,0.0766
2936.0,0.079
2935.0,0.0824
2934.0,0.0867
2933.0,0.0919
2932.0,0.0979
2931.0,0.1045
2930.0,0.1114
2929.0,0.1186
2928.0,0.1257
2927.0,0.1329
2926.0,0.1399
2925.0,0.1468
2924.0,0.1538
2923.0,0.1607
2922.0,0.1676
2921.0,0.1741
2920.0,0.1799
2919.0,0.1842
2918.0,0.1863
2917.0,0.1859
2916.0,0.183
2915.0,0.1782
2914.0,0.1724
2913.0,0.1662
2912.0,0.1605
2911.0,0.1554
2910.0,0.1511
2909.0,0.1473
2908.0,0.144
2907.0,0.1406
2906.0,0.1372
2905.0,0.1336
2904.0,0.1298
2903.0,0.1258
2902.0,0.1218
2901.0,0.1177
2900.0,0.1139
2899.0,0.1103
2898.0,0.1068
2897.0,0.1036
2896.0,0.1006
2895.0,0.0979
2894.0,0.0957
2893.0,0.0938
2892.0,0.0924
2891.0,0.0913
2890.0,0.0906
2889.0,0.09
2888.0,0.0897
2887.0,0.0896
2886.0,0.0897
2885.0,0.09
2884.0,0.0905
2883.0,0.0913
2882.0,0.0924
2881.0,0.0935
2880.0,0.0946
2879.0,0.0954
2878.0,0.0958
2877.0,0.0957
2876.0,0.0953
2875.0,0.0947
2874.0,0.0943
2873.0,0.0943
2872.0,0.0948
2871.0,0.0959
2870.0,0.0974
2869.0,0.0988
2868.0,0.0999
2867.0,0.0999
2866.0,0.0985
2865.0,0.0956
2864.0,0.0914
2863.0,0.0865
2862.0,0.0817
2861.0,0.0775
2860.0,0.0744
2859.0,0.0723
2858.0,0.0712
2857.0,0.071
2856.0,0.0717
2855.0,0.0731
2854.0,0.0753
2853.0,0.0778
2852.0,0.0803
2851.0,0.0824
2850.0,0.0835
2849.0,0.0837
2848.0,0.0835
2847.0,0.0836
2846.0,0.0846
2845.0,0.0865
2844.0,0.0895
2843.0,0.0931
2842.0,0.0969
2841.0,0.1004
2840.0,0.1032
2839.0,0.1047
2838.0,0.1045
2837.0,0.1024
2836.0,0.0985
2835.0,0.0932
2834.0,0.087
2833.0,0.0806
2832.0,0.0744
2831.0,0.069
2830.0,0.0643
2829.0,0.0604
2828.0,0.0572
2827.0,0.0545
2826.0,0.0522
2825.0,0.0502
2824.0,0.0486
2823.0,0.0471
2822.0,0.0458
2821.0,0.0446
2820.0,0.0436
2819.0,0.0427
2818.0,0.0418
2817.0,0.0411
2816.0,0.0404
2815.0,0.0398
2814.0,0.0392
2813.0,0.0387
2812.0,0.0381
2811.0,0.0376
2810.0,0.0371
2809.0,0.0367
2808.0,0.0361
2807.0,0.0355
2806.0,0.0349
2805.0,0.0343
2804.0,0.0337
2803.0,0.0331
2802.0,0.0326
2801.0,0.0322
2800.0,0.0318
2799.0,0.0315
2798.0,0.0313
2797.0,0.031
2796.0,0.0307
2795.0,0.0305
2794.0,0.0302
2793.0,0.0298
2792.0,0.0295
2791.0,0.0292
2790.0,0.0288
2789.0,0.0284
2788.0,0.0281
2787.0,0.0278
2786.0,0.0275
2785.0,0.0272
2784.0,0.027
2783.0,0.0267
2782.0,0.0264
2781.0,0.0261
2780.0,0.0259
2779.0,0.0257
2778.0,0.0255
2777.0,0.0253
2776.0,0.0251
2775.0,0.0249
2774.0,0.0247
2773.0,0.0245
2772.0,0.0244
2771.0,0.0243
2770.0,0.0242
2769.0,0.024
2768.0,0.0239
2767.0,0.0237
2766.0,0.0236
2765.0,0.0236
2764.0,0.0236
2763.0,0.0235
2762.0,0.0234
2761.0,0.0233
2760.0,0.0231
2759.0,0.023
2758.0,0.0229
2757.0,0.0229
2756.0,0.0228
2755.0,0.0227
2754.0,0.0226
2753.0,0.0224
2752.0,0.0223
2751.0,0.0222
2750.0,0.0222
2749.0,0.0222
2748.0,0.0222
2747.0,0.0222
2746.0,0.0222
2745.0,0.0222
2744.0,0.0222
2743.0,0.0223
2742.0,0.0223
2741.0,0.0223
2740.0,0.0223
2739.0,0.0223
2738.0,0.0223
2737.0,0.0224
2736.0,0.0225
2735.0,0.0225
2734.0,0.0226
2733.0,0.0227
2732.0,0.0227
2731.0,0.0228
2730.0,0.023
2729.0,0.0232
2728.0,0.0234
2727.0,0.0237
2726.0,0.0239
2725.0,0.024
2724.0,0.0242
2723.0,0.0242
2722.0,0.0242
2721.0,0.0241
2720.0,0.0238
2719.0,0.0236
2718.0,0.0233
2717.0,0.0231
2716.0,0.0228
2715.0,0.0226
2714.0,0.0224
2713.0,0.0222
2712.0,0.022
2711.0,0.0218
2710.0,0.0217
2709.0,0.0215
2708.0,0.0214
2707.0,0.0213
2706.0,0.0212
2705.0,0.0211
2704.0,0.021
2703.0,0.0209
2702.0,0.0208
2701.0,0.0206
2700.0,0.0204
2699.0,0.0203
2698.0,0.0203
2697.0,0.0203
2696.0,0.0203
2695.0,0.0203
2694.0,0.0202
2693.0,0.0202
2692.0,0.0201
2691.0,0.0201
2690.0,0.0201
2689.0,0.0201
2688.0,0.0201
2687.0,0.0201
2686.0,0.02
2685.0,0.02
2684.0,0.02
2683.0,0.02
2682.0,0.0201
2681.0,0.0201
2680.0,0.0202
2679.0,0.0202
2678.0,0.0201
2677.0,0.02
2676.0,0.02
2675.0,0.0199
2674.0,0.0198
2673.0,0.0198
2672.0,0.0197
2671.0,0.0197
2670.0,0.0197
2669.0,0.0196
2668.0,0.0196
2667.0,0.0195
2666.0,0.0195
2665.0,0.0195
2664.0,0.0196
2663.0,0.0196
2662.0,0.0195
2661.0,0.0195
2660.0,0.0195
2659.0,0.0194
2658.0,0.0194
2657.0,0.0193
2656.0,0.0193
2655.0,0.0192
2654.0,0.0191
2653.0,0.0191
2652.0,0.019
2651.0,0.0189
2650.0,0.0188
2649.0,0.0187
2648.0,0.0187
2647.0,0.0187
2646.0,0.0187
2645.0,0.0186
2644.0,0.0186
2643.0,0.0186
2642.0,0.0186
2641.0,0.0186
2640.0,0.0185
2639.0,0.0185
2638.0,0.0184
2637.0,0.0184
2636.0,0.0183
2635.0,0.0183
2634.0,0.0183
2633.0,0.0182
2632.0,0.0182
2631.0,0.0182
2630.0,0.0183
2629.0,0.0183
2628.0,0.0183
2627.0,0.0183
2626.0,0.0183
2625.0,0.0183
2624.0,0.0183
2623.0,0.0183
2622.0,0.0183
2621.0,0.0183
2620.0,0.0184
2619.0,0.0184
2618.0,0.0184
2617.0,0.0184
2616.0,0.0184
2615.0,0.0184
2614.0,0.0184
2613.0,0.0184
2612.0,0.0183
2611.0,0.0182
2610.0,0.0181
2609.0,0.018
2608.0,0.0179
2607.0,0.0178
2606.0,0.0177
2605.0,0.0177
2604.0,0.0176
2603.0,0.0175
2602.0,0.0175
2601.0,0.0175
2600.0,0.0176
2599.0,0.0176
2598.0,0.0176
2597.0,0.0176
2596.0,0.0176
2595.0,0.0175
2594.0,0.0175
2593.0,0.0175
2592.0,0.0174
2591.0,0.0174
2590.0,0.0174
2589.0,0.0175
2588.0,0.0176
2587.0,0.0178
2586.0,0.0178
2585.0,0.0179
2584.0,0.0179
2583.0,0.0179
2582.0,0.018
2581.0,0.018
2580.0,0.018
2579.0,0.0179
2578.0,0.0178
2577.0,0.0177
2576.0,0.0176
2575.0,0.0175
2574.0,0.0174
2573.0,0.0173
2572.0,0.0173
2571.0,0.0172
2570.0,0.0171
2569.0,0.017
2568.0,0.017
2567.0,0.017
2566.0,0.017
2565.0,0.017
2564.0,0.0169
2563.0,0.0168
2562.0,0.0167
2561.0,0.0167
2560.0,0.0166
2559.0,0.0166
2558.0,0.0166
2557.0,0.0166
2556.0,0.0166
2555.0,0.0165
2554.0,0.0165
2553.0,0.0164
2552.0,0.0164
2551.0,0.0163
2550.0,0.0163
2549.0,0.0163
2548.0,0.0163
2547.0,0.0162
2546.0,0.0162
2545.0,0.0162
2544.0,0.0162
2543.0,0.0162
2542.0,0.0161
2541.0,0.0161
2540.0,0.0161
2539.0,0.0161
2538.0,0.0161
2537.0,0.0161
2536.0,0.0161
2535.0,0.016
2534.0,0.016
2533.0,0.016
2532.0,0.0159
2531.0,0.0159
2530.0,0.0159
2529.0,0.0159
2528.0,0.0159
2527.0,0.0159
2526.0,0.0159
2525.0,0.0158
2524.0,0.0158
2523.0,0.0158
2522.0,0.0158
2521.0,0.0157
2520.0,0.0157
2519.0,0.0156
2518.0,0.0155
2517.0,0.0155
2516.0,0.0154
2515.0,0.0154
2514.0,0.0153
2513.0,0.0153
2512.0,0.0153
2511.0,0.0152
2510.0,0.0152
2509.0,0.0152
2508.0,0.0152
2507.0,0.0151
2506.0,0.0151
2505.0,0.0151
2504.0,0.0152
2503.0,0.0152
2502.0,0.0152
2501.0,0.0153
2500.0,0.0152
2499.0,0.0152
2498.0,0.0152
2497.0,0.0152
2496.0,0.0152
2495.0,0.0152
2494.0,0.0152
2493.0,0.0152
2492.0,0.0152
2491.0,0.0151
2490.0,0.0151
2489.0,0.0152
2488.0,0.0152
2487.0,0.0152
2486.0,0.0151
2485.0,0.0151
2484.0,0.015
2483.0,0.015
2482.0,0.0149
2481.0,0.015
2480.0,0.015
2479.0,0.015
2478.0,0.015
2477.0,0.015
2476.0,0.0149
2475.0,0.0149
2474.0,0.0149
2473.0,0.0149
2472.0,0.0149
2471.0,0.0149
2470.0,0.0149
2469.0,0.0149
2468.0,0.0149
2467.0,0.0149
2466.0,0.0149
2465.0,0.0149
2464.0,0.0149
2463.0,0.0149
2462.0,0.0149
2461.0,0.0148
2460.0,0.0148
2459.0,0.0148
2458.0,0.0149
2457.0,0.0149
2456.0,0.0148
2455.0,0.0148
2454.0,0.0148
2453.0,0.0148
2452.0,0.0148
2451.0,0.0148
2450.0,0.0148
2449.0,0.0148
2448.0,0.0147
2447.0,0.0147
2446.0,0.0147
2445.0,0.0147
2444.0,0.0147
2443.0,0.0147
2442.0,0.0148
2441.0,0.0148
2440.0,0.0148
2439.0,0.0148
2438.0,0.0148
2437.0,0.0148
2436.0,0.0148
2435.0,0.0148
2434.0,0.0148
2433.0,0.0148
2432.0,0.0148
2431.0,0.0148
2430.0,0.0147
2429.0,0.0147
2428.0,0.0148
2427.0,0.0149
2426.0,0.0149
2425.0,0.0149
2424.0,0.0149
2423.0,0.0149
2422.0,0.0149
2421.0,0.0149
2420.0,0.0148
2419.0,0.0148
2418.0,0.0148
2417.0,0.0148
2416.0,0.0148
2415.0,0.0147
2414.0,0.0147
2413.0,0.0147
2412.0,0.0147
2411.0,0.0147
2410.0,0.0148
2409.0,0.0148
2408.0,0.0147
2407.0,0.0147
2406.0,0.0147
2405.0,0.0147
2404.0,0.0147
2403.0,0.0148
2402.0,0.0148
2401.0,0.0148
2400.0,0.0147
2399.0,0.0147
2398.0,0.0147
2397.0,0.0146
2396.0,0.0146
2395.0,0.0145
2394.0,0.0145
2393.0,0.0145
2392.0,0.0145
2391.0,0.0146
2390.0,0.0146
2389.0,0.0145
2388.0,0.0145
2387.0,0.0145
2386.0,0.0144
2385.0,0.0143
2384.0,0.0143
2383.0,0.0144
2382.0,0.0144
2381.0,0.0145
2380.0,0.0145
2379.0,0.0144
2378.0,0.0143
2377.0,0.0141
2376.0,0.0138
2375.0,0.0135
2374.0,0.0133
2373.0,0.0134
2372.0,0.0137
2371.0,0.0145
2370.0,0.0158
2369.0,0.017
2368.0,0.0166
2367.0,0.0144
2366.0,0.012
2365.0,0.0112
2364.0,0.012
2363.0,0.0126
2362.0,0.0131
2361.0,0.0145
2360.0,0.0167
2359.0,0.019
2358.0,0.0198
2357.0,0.0183
2356.0,0.0151
2355.0,0.012
2354.0,0.0102
2353.0,0.0091
2352.0,0.0079
2351.0,0.0068
2350.0,0.0067
2349.0,0.0076
2348.0,0.0088
2347.0,0.0095
2346.0,0.0101
2345.0,0.0111
2344.0,0.0123
2343.0,0.0127
2342.0,0.0125
2341.0,0.012
2340.0,0.0111
2339.0,0.01
2338.0,0.0092
2337.0,0.0092
2336.0,0.0094
2335.0,0.0098
2334.0,0.0107
2333.0,0.0119
2332.0,0.0128
2331.0,0.0129
2330.0,0.0123
2329.0,0.0117
2328.0,0.0112
2327.0,0.0111
2326.0,0.0115
2325.0,0.0122
2324.0,0.0128
2323.0,0.0132
2322.0,0.0134
2321.0,0.0135
2320.0,0.0133
2319.0,0.0127
2318.0,0.0121
2317.0,0.0119
2316.0,0.012
2315.0,0.0123
2314.0,0.0125
2313.0,0.0124
2312.0,0.0122
2311.0,0.0119
2310.0,0.0118
2309.0,0.0119
2308.0,0.0121
2307.0,0.0124
2306.0,0.0126
2305.0,0.0126
2304.0,0.0126
2303.0,0.0125
2302.0,0.0124
2301.0,0.0124
2300.0,0.0124
2299.0,0.0123
2298.0,0.0122
2297.0,0.0121
2296.0,0.0121
2295.0,0.0122
2294.0,0.0124
2293.0,0.0125
2292.0,0.0127
2291.0,0.0128
2290.0,0.0129
2289.0,0.013
2288.0,0.0131
2287.0,0.0133
2286.0,0.0134
2285.0,0.0135
2284.0,0.0136
2283.0,0.0135
2282.0,0.0134
2281.0,0.0133
2280.0,0.0132
2279.0,0.0132
2278.0,0.0131
2277.0,0.0131
2276.0,0.0131
2275.0,0.0131
2274.0,0.0132
2273.0,0.0132
2272.0,0.0132
2271.0,0.0133
2270.0,0.0134
2269.0,0.0134
2268.0,0.0134
2267.0,0.0133
2266.0,0.0133
2265.0,0.0133
2264.0,0.0134
2263.0,0.0134
2262.0,0.0135
2261.0,0.0135
2260.0,0.0135
2259.0,0.0135
2258.0,0.0135
2257.0,0.0135
2256.0,0.0135
2255.0,0.0136
2254.0,0.0136
2253.0,0.0136
2252.0,0.0137
2251.0,0.0137
2250.0,0.0136
2249.0,0.0136
2248.0,0.0136
2247.0,0.0136
2246.0,0.0137
2245.0,0.0137
2244.0,0.0137
2243.0,0.0137
2242.0,0.0137
2241.0,0.0137
2240.0,0.0137
2239.0,0.0137
2238.0,0.0137
2237.0,0.0138
2236.0,0.0138
2235.0,0.0138
2234.0,0.0138
2233.0,0.0138
2232.0,0.0138
2231.0,0.0138
2230.0,0.0138
2229.0,0.0138
2228.0,0.0138
2227.0,0.0138
2226.0,0.0137
2225.0,0.0137
2224.0,0.0137
2223.0,0.0137
2222.0,0.0137
2221.0,0.0137
2220.0,0.0137
2219.0,0.0137
2218.0,0.0138
2217.0,0.0138
2216.0,0.0138
2215.0,0.0138
2214.0,0.0138
2213.0,0.0138
2212.0,0.0138
2211.0,0.0138
2210.0,0.0138
2209.0,0.0138
2208.0,0.0137
2207.0,0.0137
2206.0,0.0137
2205.0,0.0138
2204.0,0.0138
2203.0,0.0138
2202.0,0.0138
2201.0,0.0138
2200.0,0.0138
2199.0,0.0138
2198.0,0.0138
2197.0,0.0138
2196.0,0.0138
2195.0,0.0138
2194.0,0.0138
2193.0,0.0137
2192.0,0.0137
2191.0,0.0138
2190.0,0.0138
2189.0,0.0138
2188.0,0.0138
2187.0,0.0138
2186.0,0.0138
2185.0,0.0138
2184.0,0.0138
2183.0,0.0138
2182.0,0.0137
2181.0,0.0137
2180.0,0.0137
2179.0,0.0138
2178.0,0.0139
2177.0,0.0139
2176.0,0.014
2175.0,0.014
2174.0,0.014
2173.0,0.014
2172.0,0.014
2171.0,0.014
2170.0,0.014
2169.0,0.0139
2168.0,0.0138
2167.0,0.0137
2166.0,0.0137
2165.0,0.0137
2164.0,0.0137
2163.0,0.0138
2162.0,0.0138
2161.0,0.0138
2160.0,0.0138
2159.0,0.0138
2158.0,0.0138
2157.0,0.0138
2156.0,0.0137
2155.0,0.0137
2154.0,0.0136
2153.0,0.0136
2152.0,0.0136
2151.0,0.0136
2150.0,0.0136
2149.0,0.0136
2148.0,0.0135
2147.0,0.0135
2146.0,0.0135
2145.0,0.0135
2144.0,0.0135
2143.0,0.0135
2142.0,0.0136
2141.0,0.0136
2140.0,0.0137
2139.0,0.0137
2138.0,0.0137
2137.0,0.0136
2136.0,0.0136
2135.0,0.0136
2134.0,0.0137
2133.0,0.0137
2132.0,0.0137
2131.0,0.0137
2130.0,0.0136
2129.0,0.0136
2128.0,0.0136
2127.0,0.0136
2126.0,0.0135
2125.0,0.0135
2124.0,0.0135
2123.0,0.0135
2122.0,0.0135
2121.0,0.0135
2120.0,0.0135
2119.0,0.0134
2118.0,0.0134
2117.0,0.0134
2116.0,0.0135
2115.0,0.0135
2114.0,0.0134
2113.0,0.0134
2112.0,0.0134
2111.0,0.0134
2110.0,0.0134
2109.0,0.0134
2108.0,0.0134
2107.0,0.0134
2106.0,0.0134
2105.0,0.0134
2104.0,0.0134
2103.0,0.0134
2102.0,0.0134
2101.0,0.0135
2100.0,0.0135
2099.0,0.0135
2098.0,0.0134
2097.0,0.0134
2096.0,0.0134
2095.0,0.0134
2094.0,0.0134
2093.0,0.0134
2092.0,0.0134
2091.0,0.0134
2090.0,0.0134
2089.0,0.0134
2088.0,0.0134
2087.0,0.0134
2086.0,0.0133
2085.0,0.0133
2084.0,0.0133
2083.0,0.0133
2082.0,0.0133
2081.0,0.0133
2080.0,0.0133
2079.0,0.0133
2078.0,0.0133
2077.0,0.0133
2076.0,0.0134
2075.0,0.0134
2074.0,0.0134
2073.0,0.0134
2072.0,0.0133
2071.0,0.0133
2070.0,0.0133
2069.0,0.0133
2068.0,0.0132
2067.0,0.0132
2066.0,0.0133
2065.0,0.0133
2064.0,0.0133
2063.0,0.0133
2062.0,0.0133
2061.0,0.0133
2060.0,0.0133
2059.0,0.0133
2058.0,0.0133
2057.0,0.0133
2056.0,0.0133
2055.0,0.0133
2054.0,0.0133
2053.0,0.0132
2052.0,0.0132
2051.0,0.0133
2050.0,0.0133
2049.0,0.0133
2048.0,0.0133
2047.0,0.0133
2046.0,0.0133
2045.0,0.0133
2044.0,0.0132
2043.0,0.0133
2042.0,0.0133
2041.0,0.0133
2040.0,0.0133
2039.0,0.0133
2038.0,0.0133
2037.0,0.0133
2036.0,0.0133
2035.0,0.0132
2034.0,0.0132
2033.0,0.0132
2032.0,0.0132
2031.0,0.0133
2030.0,0.0133
2029.0,0.0133
2028.0,0.0133
2027.0,0.0132
2026.0,0.0132
2025.0,0.0132
2024.0,0.0132
2023.0,0.0133
2022.0,0.0133
2021.0,0.0134
2020.0,0.0134
2019.0,0.0134
2018.0,0.0134
2017.0,0.0134
2016.0,0.0133
2015.0,0.0133
2014.0,0.0133
2013.0,0.0133
2012.0,0.0133
2011.0,0.0133
2010.0,0.0133
2009.0,0.0133
2008.0,0.0133
2007.0,0.0133
2006.0,0.0133
2005.0,0.0133
2004.0,0.0133
2003.0,0.0133
2002.0,0.0133
2001.0,0.0133
2000.0,0.0132
1999.0,0.0132
1998.0,0.0132
1997.0,0.0132
1996.0,0.0133
1995.0,0.0133
1994.0,0.0133
1993.0,0.0133
1992.0,0.0133
1991.0,0.0134
1990.0,0.0134
1989.0,0.0133
1988.0,0.0133
1987.0,0.0132
1986.0,0.0132
1985.0,0.0132
1984.0,0.0131
1983.0,0.0131
1982.0,0.0131
1981.0,0.0132
1980.0,0.0132
1979.0,0.0132
1978.0,0.0132
1977.0,0.0132
1976.0,0.0132
1975.0,0.0132
1974.0,0.0132
1973.0,0.0133
1972.0,0.0133
1971.0,0.0133
1970.0,0.0133
1969.0,0.0133
1968.0,0.0133
1967.0,0.0133
1966.0,0.0134
1965.0,0.0134
1964.0,0.0134
1963.0,0.0133
1962.0,0.0133
1961.0,0.0133
1960.0,0.0133
1959.0,0.0133
1958.0,0.0133
1957.0,0.0133
1956.0,0.0133
1955.0,0.0133
1954.0,0.0133
1953.0,0.0133
1952.0,0.0133
1951.0,0.0133
1950.0,0.0133
1949.0,0.0133
1948.0,0.0133
1947.0,0.0133
1946.0,0.0133
1945.0,0.0133
1944.0,0.0134
1943.0,0.0134
1942.0,0.0134
1941.0,0.0134
1940.0,0.0134
1939.0,0.0133
1938.0,0.0133
1937.0,0.0133
1936.0,0.0133
1935.0,0.0133
1934.0,0.0132
1933.0,0.0132
1932.0,0.0132
1931.0,0.0133
1930.0,0.0134
1929.0,0.0135
1928.0,0.0134
1927.0,0.0134
1926.0,0.0134
1925.0,0.0134
1924.0,0.0134
1923.0,0.0134
1922.0,0.0134
1921.0,0.0134
1920.0,0.0134
1919.0,0.0134
1918.0,0.0133
1917.0,0.0134
1916.0,0.0134
1915.0,0.0134
1914.0,0.0134
1913.0,0.0135
1912.0,0.0135
1911.0,0.0135
1910.0,0.0134
1909.0,0.0134
1908.0,0.0134
1907.0,0.0134
1906.0,0.0134
1905.0,0.0134
1904.0,0.0134
1903.0,0.0134
1902.0,0.0134
1901.0,0.0134
1900.0,0.0134
1899.0,0.0135
1898.0,0.0135
1897.0,0.0135
1896.0,0.0135
1895.0,0.0135
1894.0,0.0134
1893.0,0.0134
1892.0,0.0134
1891.0,0.0134
1890.0,0.0134
1889.0,0.0134
1888.0,0.0134
1887.0,0.0134
1886.0,0.0134
1885.0,0.0134
1884.0,0.0134
1883.0,0.0134
1882.0,0.0134
1881.0,0.0134
1880.0,0.0134
1879.0,0.0133
1878.0,0.0134
1877.0,0.0134
1876.0,0.0134
1875.0,0.0134
1874.0,0.0134
1873.0,0.0134
1872.0,0.0133
1871.0,0.0133
1870.0,0.0133
1869.0,0.0133
1868.0,0.0134
1867.0,0.0134
1866.0,0.0134
1865.0,0.0134
1864.0,0.0133
1863.0,0.0133
1862.0,0.0133
1861.0,0.0133
1860.0,0.0134
1859.0,0.0135
1858.0,0.0135
1857.0,0.0135
1856.0,0.0135
1855.0,0.0135
1854.0,0.0135
1853.0,0.0134
1852.0,0.0134
1851.0,0.0134
1850.0,0.0135
1849.0,0.0135
1848.0,0.0135
1847.0,0.0135
1846.0,0.0135
1845.0,0.0135
1844.0,0.0135
1843.0,0.0135
1842.0,0.0135
1841.0,0.0135
1840.0,0.0135
1839.0,0.0134
1838.0,0.0134
1837.0,0.0135
1836.0,0.0135
1835.0,0.0135
1834.0,0.0135
1833.0,0.0135
1832.0,0.0135
1831.0,0.0135
1830.0,0.0136
1829.0,0.0136
1828.0,0.0136
1827.0,0.0137
1826.0,0.0136
1825.0,0.0136
1824.0,0.0136
1823.0,0.0135
1822.0,0.0134
1821.0,0.0134
1820.0,0.0134
1819.0,0.0134
1818.0,0.0134
1817.0,0.0134
1816.0,0.0134
1815.0,0.0134
1814.0,0.0134
1813.0,0.0134
1812.0,0.0135
1811.0,0.0135
1810.0,0.0135
1809.0,0.0135
1808.0,0.0135
1807.0,0.0135
1806.0,0.0135
1805.0,0.0135
1804.0,0.0135
1803.0,0.0135
1802.0,0.0136
1801.0,0.0136
1800.0,0.0136
1799.0,0.0136
1798.0,0.0136
1797.0,0.0136
1796.0,0.0136
1795.0,0.0137
1794.0,0.0136
1793.0,0.0136
1792.0,0.0135
1791.0,0.0135
1790.0,0.0135
1789.0,0.0135
1788.0,0.0135
1787.0,0.0135
1786.0,0.0136
1785.0,0.0136
1784.0,0.0136
1783.0,0.0136
1782.0,0.0136
1781.0,0.0136
1780.0,0.0136
1779.0,0.0137
1778.0,0.0137
1777.0,0.0137
1776.0,0.0137
1775.0,0.0137
1774.0,0.0137
1773.0,0.0137
1772.0,0.0138
1771.0,0.0138
1770.0,0.0137
1769.0,0.0138
1768.0,0.0138
1767.0,0.0138
1766.0,0.0137
1765.0,0.0138
1764.0,0.0138
1763.0,0.0139
1762.0,0.014
1761.0,0.014
1760.0,0.0141
1759.0,0.0142
1758.0,0.0143
1757.0,0.0144
1756.0,0.0146
1755.0,0.0147
1754.0,0.0148
1753.0,0.0149
1752.0,0.0151
1751.0,0.0154
1750.0,0.0157
1749.0,0.016
1748.0,0.0162
1747.0,0.0163
1746.0,0.0164
1745.0,0.0165
1744.0,0.0166
1743.0,0.0167
1742.0,0.0167
1741.0,0.0168
1740.0,0.0167
1739.0,0.0167
1738.0,0.0166
1737.0,0.0165
1736.0,0.0165
1735.0,0.0164
1734.0,0.0163
1733.0,0.0163
1732.0,0.0163
1731.0,0.0163
1730.0,0.0163
1729.0,0.0161
1728.0,0.016
1727.0,0.016
1726.0,0.016
1725.0,0.0161
1724.0,0.0161
1723.0,0.0161
1722.0,0.016
1721.0,0.016
1720.0,0.016
1719.0,0.016
1718.0,0.0159
1717.0,0.016
1716.0,0.0161
1715.0,0.0161
1714.0,0.0161
1713.0,0.0161
1712.0,0.0161
1711.0,0.016
1710.0,0.0159
1709.0,0.0159
1708.0,0.016
1707.0,0.016
1706.0,0.016
1705.0,0.0161
1704.0,0.0161
1703.0,0.0161
1702.0,0.016
1701.0,0.0159
1700.0,0.0159
1699.0,0.0159
1698.0,0.016
1697.0,0.0161
1696.0,0.0163
1695.0,0.0163
1694.0,0.0163
1693.0,0.0164
1692.0,0.0165
1691.0,0.0165
1690.0,0.0165
1689.0,0.0166
1688.0,0.0167
1687.0,0.0167
1686.0,0.0167
1685.0,0.0167
1684.0,0.0169
1683.0,0.017
1682.0,0.0171
1681.0,0.0172
1680.0,0.0173
1679.0,0.0173
1678.0,0.0172
1677.0,0.0172
1676.0,0.0172
1675.0,0.0174
1674.0,0.0175
1673.0,0.0175
1672.0,0.0176
1671.0,0.0176
1670.0,0.0177
1669.0,0.0177
1668.0,0.0178
1667.0,0.0178
1666.0,0.0178
1665.0,0.0178
1664.0,0.0178
1663.0,0.0179
1662.0,0.018
1661.0,0.018
1660.0,0.0181
1659.0,0.0181
1658.0,0.0182
1657.0,0.0182
1656.0,0.0183
1655.0,0.0183
1654.0,0.0183
1653.0,0.0185
1652.0,0.0185
1651.0,0.0185
1650.0,0.0186
1649.0,0.0188
1648.0,0.0189
1647.0,0.019
1646.0,0.0191
1645.0,0.019
1644.0,0.019
1643.0,0.019
1642.0,0.0191
1641.0,0.0191
1640.0,0.0191
1639.0,0.0191
1638.0,0.019
1637.0,0.0189
1636.0,0.0189
1635.0,0.0187
1634.0,0.0186
1633.0,0.0186
1632.0,0.0185
1631.0,0.0185
1630.0,0.0183
1629.0,0.0183
1628.0,0.0182
1627.0,0.0182
1626.0,0.0182
1625.0,0.0182
1624.0,0.0182
1623.0,0.0183
1622.0,0.0182
1621.0,0.0182
1620.0,0.0181
1619.0,0.0181
1618.0,0.0181
1617.0,0.018
1616.0,0.018
1615.0,0.0179
1614.0,0.0179
1613.0,0.0179
1612.0,0.0179
1611.0,0.0178
1610.0,0.0179
1609.0,0.018
1608.0,0.018
1607.0,0.0181
1606.0,0.0182
1605.0,0.0183
1604.0,0.0184
1603.0,0.0184
1602.0,0.0184
1601.0,0.0184
1600.0,0.0183
1599.0,0.0182
1598.0,0.0181
1597.0,0.0181
1596.0,0.0181
1595.0,0.0181
1594.0,0.0181
1593.0,0.018
1592.0,0.018
1591.0,0.018
1590.0,0.0179
1589.0,0.0179
1588.0,0.0179
1587.0,0.018
1586.0,0.018
1585.0,0.0181
1584.0,0.0182
1583.0,0.0182
1582.0,0.0183
1581.0,0.0183
1580.0,0.0182
1579.0,0.0182
1578.0,0.0182
1577.0,0.0182
1576.0,0.0182
1575.0,0.0181
1574.0,0.018
1573.0,0.018
1572.0,0.0181
1571.0,0.0181
1570.0,0.0181
1569.0,0.0181
1568.0,0.018
1567.0,0.0178
1566.0,0.0177
1565.0,0.0176
1564.0,0.0176
1563.0,0.0176
1562.0,0.0176
1561.0,0.0175
1560.0,0.0174
1559.0,0.0174
1558.0,0.0173
1557.0,0.0172
1556.0,0.0172
1555.0,0.0173
1554.0,0.0172
1553.0,0.0171
1552.0,0.0171
1551.0,0.017
1550.0,0.0169
1549.0,0.0168
1548.0,0.0167
1547.0,0.0167
1546.0,0.0166
1545.0,0.0165
1544.0,0.0165
1543.0,0.0164
1542.0,0.0163
1541.0,0.0164
1540.0,0.0165
1539.0,0.0163
1538.0,0.016
1537.0,0.0158
1536.0,0.0158
1535.0,0.0157
1534.0,0.0156
1533.0,0.0155
1532.0,0.0154
1531.0,0.0153
1530.0,0.0152
1529.0,0.0152
1528.0,0.0152
1527.0,0.0151
1526.0,0.0149
1525.0,0.0147
1524.0,0.0147
1523.0,0.0147
1522.0,0.0148
1521.0,0.0149
1520.0,0.0149
1519.0,0.0149
1518.0,0.0148
1517.0,0.0148
1516.0,0.0148
1515.0,0.0146
1514.0,0.0144
1513.0,0.0143
1512.0,0.0143
1511.0,0.0144
1510.0,0.0144
1509.0,0.0145
1508.0,0.0146
1507.0,0.0148
1506.0,0.0147
1505.0,0.0146
1504.0,0.0146
1503.0,0.0145
1502.0,0.0145
1501.0,0.0145
1500.0,0.0146
1499.0,0.0147
1498.0,0.0149
1497.0,0.0155
1496.0,0.0161
1495.0,0.0165
1494.0,0.0166
1493.0,0.0167
1492.0,0.0168
1491.0,0.0166
1490.0,0.0164
1489.0,0.0164
1488.0,0.0165
1487.0,0.0165
1486.0,0.0165
1485.0,0.0167
1484.0,0.017
1483.0,0.0173
1482.0,0.0177
1481.0,0.0184
1480.0,0.0191
1479.0,0.0199
1478.0,0.0209
1477.0,0.0225
1476.0,0.0248
1475.0,0.0274
1474.0,0.031
1473.0,0.036
1472.0,0.0412
1471.0,0.0453
1470.0,0.049
1469.0,0.053
1468.0,0.0576
1467.0,0.0629
1466.0,0.0695
1465.0,0.0774
1464.0,0.0842
1463.0,0.0884
1462.0,0.0908
1461.0,0.0924
1460.0,0.0934
1459.0,0.0943
1458.0,0.096
1457.0,0.0988
1456.0,0.1005
1455.0,0.101
1454.0,0.1011
1453.0,0.1008
1452.0,0.1
1451.0,0.0983
1450.0,0.0957
1449.0,0.0916
1448.0,0.086
1447.0,0.0798
1446.0,0.0742
1445.0,0.0693
1444.0,0.0648
1443.0,0.0609
1442.0,0.0578
1441.0,0.0555
1440.0,0.0539
1439.0,0.053
1438.0,0.0528
1437.0,0.0529
1436.0,0.0525
1435.0,0.051
1434.0,0.0486
1433.0,0.0456
1432.0,0.0424
1431.0,0.0394
1430.0,0.0369
1429.0,0.035
1428.0,0.0336
1427.0,0.0326
1426.0,0.0319
1425.0,0.0311
1424.0,0.0303
1423.0,0.0298
1422.0,0.0294
1421.0,0.029
1420.0,0.0285
1419.0,0.0281
1418.0,0.0279
1417.0,0.0275
1416.0,0.0271
1415.0,0.0268
1414.0,0.0266
1413.0,0.0262
1412.0,0.0259
1411.0,0.0256
1410.0,0.0254
1409.0,0.0251
1408.0,0.0248
1407.0,0.0246
1406.0,0.0244
1405.0,0.0241
1404.0,0.0238
1403.0,0.0236
1402.0,0.0235
1401.0,0.0233
1400.0,0.0231
1399.0,0.023
1398.0,0.023
1397.0,0.0228
1396.0,0.0226
1395.0,0.0224
1394.0,0.0224
1393.0,0.0223
1392.0,0.0223
1391.0,0.0224
1390.0,0.0227
1389.0,0.0231
1388.0,0.0239
1387.0,0.0255
1386.0,0.028
1385.0,0.0315
1384.0,0.0365
1383.0,0.0438
1382.0,0.0539
1381.0,0.0669
1380.0,0.0831
1379.0,0.1017
1378.0,0.1197
1377.0,0.1333
1376.0,0.139
1375.0,0.1346
1374.0,0.1217
1373.0,0.106
1372.0,0.0919
1371.0,0.08
1370.0,0.0697
1369.0,0.0614
1368.0,0.0553
1367.0,0.0513
1366.0,0.049
1365.0,0.0478
1364.0,0.0476
1363.0,0.0483
1362.0,0.0498
1361.0,0.0513
1360.0,0.0525
1359.0,0.0529
1358.0,0.0522
1357.0,0.0506
1356.0,0.0483
1355.0,0.0455
1354.0,0.0428
1353.0,0.0405
1352.0,0.0386
1351.0,0.0369
1350.0,0.0355
1349.0,0.0344
1348.0,0.0334
1347.0,0.0325
1346.0,0.0317
1345.0,0.031
1344.0,0.0304
1343.0,0.0299
1342.0,0.0295
1341.0,0.0292
1340.0,0.0289
1339.0,0.0287
1338.0,0.0285
1337.0,0.0284
1336.0,0.0284
1335.0,0.0284
1334.0,0.0285
1333.0,0.0287
1332.0,0.029
1331.0,0.0292
1330.0,0.0294
1329.0,0.0293
1328.0,0.0291
1327.0,0.0288
1326.0,0.0284
1325.0,0.0279
1324.0,0.0275
1323.0,0.0272
1322.0,0.0268
1321.0,0.0265
1320.0,0.0263
1319.0,0.0261
1318.0,0.026
1317.0,0.0259
1316.0,0.0257
1315.0,0.0256
1314.0,0.0255
1313.0,0.0254
1312.0,0.0254
1311.0,0.0254
1310.0,0.0255
1309.0,0.0259
1308.0,0.0265
1307.0,0.0274
1306.0,0.0282
1305.0,0.0289
1304.0,0.0291
1303.0,0.029
1302.0,0.0286
1301.0,0.0283
1300.0,0.028
1299.0,0.0279
1298.0,0.0279
1297.0,0.0279
1296.0,0.0279
1295.0,0.0277
1294.0,0.0274
1293.0,0.0271
1292.0,0.0267
1291.0,0.0264
1290.0,0.0261
1289.0,0.0259
1288.0,0.0256
1287.0,0.0254
1286.0,0.0253
1285.0,0.0251
1284.0,0.0249
1283.0,0.0247
1282.0,0.0246
1281.0,0.0244
1280.0,0.0244
1279.0,0.0243
1278.0,0.0242
1277.0,0.0242
1276.0,0.0241
1275.0,0.0241
1274.0,0.0241
1273.0,0.024
1272.0,0.024
1271.0,0.024
1270.0,0.024
1269.0,0.024
1268.0,0.024
1267.0,0.0241
1266.0,0.0242
1265.0,0.0243
1264.0,0.0245
1263.0,0.0247
1262.0,0.0249
1261.0,0.0252
1260.0,0.0256
1259.0,0.0261
1258.0,0.0267
1257.0,0.0273
1256.0,0.0276
1255.0,0.0276
1254.0,0.0272
1253.0,0.0267
1252.0,0.0261
1251.0,0.0255
1250.0,0.0251
1249.0,0.0248
1248.0,0.0246
1247.0,0.0244
1246.0,0.0243
1245.0,0.0242
1244.0,0.0241
1243.0,0.0239
1242.0,0.0238
1241.0,0.0237
1240.0,0.0237
1239.0,0.0237
1238.0,0.0237
1237.0,0.0236
1236.0,0.0235
1235.0,0.0234
1234.0,0.0233
1233.0,0.0232
1232.0,0.0232
1231.0,0.0231
1230.0,0.0231
1229.0,0.0231
1228.0,0.0232
1227.0,0.0233
1226.0,0.0234
1225.0,0.0236
1224.0,0.0238
1223.0,0.0241
1222.0,0.0243
1221.0,0.0245
1220.0,0.0246
1219.0,0.0246
1218.0,0.0246
1217.0,0.0245
1216.0,0.0244
1215.0,0.0242
1214.0,0.0241
1213.0,0.024
1212.0,0.0238
1211.0,0.0237
1210.0,0.0236
1209.0,0.0235
1208.0,0.0234
1207.0,0.0233
1206.0,0.0233
1205.0,0.0233
1204.0,0.0233
1203.0,0.0234
1202.0,0.0234
1201.0,0.0235
1200.0,0.0235
1199.0,0.0235
1198.0,0.0236
1197.0,0.0236
1196.0,0.0235
1195.0,0.0235
1194.0,0.0235
1193.0,0.0234
1192.0,0.0233
1191.0,0.0233
1190.0,0.0233
1189.0,0.0235
1188.0,0.0236
1187.0,0.0237
1186.0,0.0238
1185.0,0.024
1184.0,0.0242
1183.0,0.0243
1182.0,0.0245
1181.0,0.0247
1180.0,0.0249
1179.0,0.0252
1178.0,0.0256
1177.0,0.0261
1176.0,0.0268
1175.0,0.0279
1174.0,0.0294
1173.0,0.0314
1172.0,0.0338
1171.0,0.0366
1170.0,0.0394
1169.0,0.0418
1168.0,0.0433
1167.0,0.0438
1166.0,0.0433
1165.0,0.0423
1164.0,0.0411
1163.0,0.0399
1162.0,0.0387
1161.0,0.0377
1160.0,0.0369
1159.0,0.0362
1158.0,0.0357
1157.0,0.0354
1156.0,0.0352
1155.0,0.0351
1154.0,0.035
1153.0,0.0348
1152.0,0.0345
1151.0,0.034
1150.0,0.0335
1149.0,0.0328
1148.0,0.0321
1147.0,0.0313
1146.0,0.0306
1145.0,0.03
1144.0,0.0295
1143.0,0.029
1142.0,0.0285
1141.0,0.028
1140.0,0.0277
1139.0,0.0274
1138.0,0.0272
1137.0,0.0269
1136.0,0.0266
1135.0,0.0263
1134.0,0.026
1133.0,0.0258
1132.0,0.0257
1131.0,0.0257
1130.0,0.0257
1129.0,0.0257
1128.0,0.0257
1127.0,0.0257
1126.0,0.0257
1125.0,0.0256
1124.0,0.0256
1123.0,0.0255
1122.0,0.0255
1121.0,0.0255
1120.0,0.0255
1119.0,0.0255
1118.0,0.0256
1117.0,0.0256
1116.0,0.0257
1115.0,0.0257
1114.0,0.0257
1113.0,0.0257
1112.0,0.0257
1111.0,0.0258
1110.0,0.026
1109.0,0.0262
1108.0,0.0264
1107.0,0.0268
1106.0,0.0273
1105.0,0.0278
1104.0,0.0283
1103.0,0.0285
1102.0,0.0285
1101.0,0.0282
1100.0,0.0278
1099.0,0.0274
1098.0,0.027
1097.0,0.0266
1096.0,0.0263
1095.0,0.026
1094.0,0.0257
1093.0,0.0254
1092.0,0.025
1091.0,0.0247
1090.0,0.0245
1089.0,0.0242
1088.0,0.024
1087.0,0.0239
1086.0,0.0237
1085.0,0.0236
1084.0,0.0235
1083.0,0.0234
1082.0,0.0232
1081.0,0.0231
1080.0,0.0229
1079.0,0.0228
1078.0,0.0227
1077.0,0.0227
1076.0,0.0226
1075.0,0.0226
1074.0,0.0227
1073.0,0.0227
1072.0,0.0228
1071.0,0.0227
1070.0,0.0227
1069.0,0.0225
1068.0,0.0223
1067.0,0.0221
1066.0,0.0221
1065.0,0.0222
1064.0,0.0223
1063.0,0.0224
1062.0,0.0224
1061.0,0.0223
1060.0,0.0222
1059.0,0.0221
1058.0,0.022
1057.0,0.022
1056.0,0.0221
1055.0,0.0221
1054.0,0.0222
1053.0,0.0223
1052.0,0.0225
1051.0,0.0227
1050.0,0.0229
1049.0,0.0232
1048.0,0.0235
1047.0,0.0238
1046.0,0.0242
1045.0,0.0244
1044.0,0.0246
1043.0,0.0245
1042.0,0.0244
1041.0,0.0241
1040.0,0.0239
1039.0,0.0238
1038.0,0.0237
1037.0,0.0238
1036.0,0.0239
1035.0,0.0241
1034.0,0.0241
1033.0,0.0242
1032.0,0.0242
1031.0,0.0241
1030.0,0.0241
1029.0,0.024
1028.0,0.0239
1027.0,0.0239
1026.0,0.0241
1025.0,0.0242
1024.0,0.0243
1023.0,0.0244
1022.0,0.0244
1021.0,0.0244
1020.0,0.0244
1019.0,0.0245
1018.0,0.0245
1017.0,0.0246
1016.0,0.0246
1015.0,0.0245
1014.0,0.0245
1013.0,0.0244
1012.0,0.0245
1011.0,0.0246
1010.0,0.0248
1009.0,0.0252
1008.0,0.0256
1007.0,0.026
1006.0,0.0265
1005.0,0.0273
1004.0,0.0284
1003.0,0.0301
1002.0,0.0325
1001.0,0.0357
1000.0,0.0392
999.0,0.0423
998.0,0.0443
997.0,0.0445
996.0,0.0429
995.0,0.0403
994.0,0.0374
993.0,0.0346
992.0,0.0324
991.0,0.0307
990.0,0.0295
989.0,0.0287
988.0,0.028
987.0,0.0276
986.0,0.0272
985.0,0.0271
984.0,0.0272
983.0,0.0276
982.0,0.0283
981.0,0.0294
980.0,0.031
979.0,0.0331
978.0,0.036
977.0,0.0394
976.0,0.0432
975.0,0.047
974.0,0.05
973.0,0.0515
972.0,0.0511
971.0,0.0488
970.0,0.0453
969.0,0.0416
968.0,0.0384
967.0,0.0358
966.0,0.0339
965.0,0.0324
964.0,0.0312
963.0,0.0303
962.0,0.0296
961.0,0.029
960.0,0.0285
959.0,0.028
958.0,0.0277
957.0,0.0275
956.0,0.0274
955.0,0.0273
954.0,0.0271
953.0,0.0269
952.0,0.0267
951.0,0.0266
950.0,0.0265
949.0,0.0265
948.0,0.0264
947.0,0.0264
946.0,0.0264
945.0,0.0264
944.0,0.0266
943.0,0.0268
942.0,0.027
941.0,0.0272
940.0,0.0273
939.0,0.0272
938.0,0.0269
937.0,0.0266
936.0,0.0262
935.0,0.0259
934.0,0.0257
933.0,0.0256
932.0,0.0255
931.0,0.0253
930.0,0.0252
929.0,0.0251
928.0,0.025
927.0,0.0249
926.0,0.0248
925.0,0.0247
924.0,0.0246
923.0,0.0246
922.0,0.0246
921.0,0.0246
920.0,0.0246
919.0,0.0246
918.0,0.0245
917.0,0.0244
916.0,0.0244
915.0,0.0245
914.0,0.0247
913.0,0.0247
912.0,0.0248
911.0,0.0248
910.0,0.0249
909.0,0.0252
908.0,0.0255
907.0,0.0259
906.0,0.0264
905.0,0.0271
904.0,0.028
903.0,0.0292
902.0,0.0307
901.0,0.0323
900.0,0.0336
899.0,0.0342
898.0,0.034
897.0,0.0331
896.0,0.0318
895.0,0.0304
894.0,0.0293
893.0,0.0284
892.0,0.0276
891.0,0.027
890.0,0.0266
889.0,0.0264
888.0,0.0263
887.0,0.0263
886.0,0.0264
885.0,0.0264
884.0,0.0264
883.0,0.0263
882.0,0.0263
881.0,0.0264
880.0,0.0265
879.0,0.0266
878.0,0.0268
877.0,0.027
876.0,0.0271
875.0,0.0272
874.0,0.0272
873.0,0.0272
872.0,0.0269
871.0,0.0267
870.0,0.0264
869.0,0.0263
868.0,0.0263
867.0,0.0263
866.0,0.0263
865.0,0.0264
864.0,0.0264
863.0,0.0264
862.0,0.0264
861.0,0.0264
860.0,0.0265
859.0,0.0266
858.0,0.0266
857.0,0.0267
856.0,0.0268
855.0,0.0268
854.0,0.0269
853.0,0.027
852.0,0.0271
851.0,0.0273
850.0,0.0275
849.0,0.0279
848.0,0.0285
847.0,0.0294
846.0,0.0308
845.0,0.033
844.0,0.0365
843.0,0.0407
842.0,0.0444
841.0,0.0462
840.0,0.0452
839.0,0.0423
838.0,0.0387
837.0,0.0357
836.0,0.0337
835.0,0.0323
834.0,0.0313
833.0,0.0307
832.0,0.0302
831.0,0.0299
830.0,0.0296
829.0,0.0294
828.0,0.0291
827.0,0.029
826.0,0.0288
825.0,0.0288
824.0,0.0288
823.0,0.0289
822.0,0.0289
821.0,0.0289
820.0,0.0289
819.0,0.0289
818.0,0.029
817.0,0.0294
816.0,0.0299
815.0,0.0306
814.0,0.0316
813.0,0.033
812.0,0.0346
811.0,0.0361
810.0,0.0373
809.0,0.038
808.0,0.038
807.0,0.0374
806.0,0.0364
805.0,0.0352
804.0,0.0341
803.0,0.0331
802.0,0.0324
801.0,0.0318
800.0,0.0314
799.0,0.031
798.0,0.0307
797.0,0.0304
796.0,0.0301
795.0,0.0298
794.0,0.0295
793.0,0.0293
792.0,0.0292
791.0,0.029
790.0,0.0289
789.0,0.0288
788.0,0.0287
787.0,0.0286
786.0,0.0286
785.0,0.0285
784.0,0.0284
783.0,0.0284
782.0,0.0283
781.0,0.0283
780.0,0.0281
779.0,0.028
778.0,0.028
777.0,0.0281
776.0,0.0283
775.0,0.0285
774.0,0.0286
773.0,0.0288
772.0,0.029
771.0,0.0292
770.0,0.0295
769.0,0.0297
768.0,0.0299
767.0,0.0301
766.0,0.0302
765.0,0.0303
764.0,0.0305
763.0,0.0306
762.0,0.0307
761.0,0.0309
760.0,0.0311
759.0,0.0314
758.0,0.0316
757.0,0.0316
756.0,0.0316
755.0,0.0317
754.0,0.0318
753.0,0.0318
752.0,0.0317
751.0,0.0316
750.0,0.0317
749.0,0.0319
748.0,0.0322
747.0,0.0323
746.0,0.0323
745.0,0.0324
744.0,0.0324
743.0,0.0323
742.0,0.0323
741.0,0.0323
740.0,0.0324
739.0,0.0325
738.0,0.0326
737.0,0.0327
736.0,0.033
735.0,0.0336
734.0,0.0348
733.0,0.0365
732.0,0.0384
731.0,0.0399
730.0,0.0403
729.0,0.0397
728.0,0.0386
727.0,0.0377
726.0,0.0372
725.0,0.0372
724.0,0.0376
723.0,0.0383
722.0,0.0393
721.0,0.0404
720.0,0.0412
719.0,0.0413
718.0,0.0406
717.0,0.0396
716.0,0.0387
715.0,0.0381
714.0,0.0377
713.0,0.0375
712.0,0.0374
711.0,0.0372
710.0,0.0371
709.0,0.037
708.0,0.0372
707.0,0.0378
706.0,0.0388
705.0,0.0399
704.0,0.0413
703.0,0.0429
702.0,0.0444
701.0,0.0457
700.0,0.0466
699.0,0.0469
698.0,0.0468
697.0,0.0462
696.0,0.0449
695.0,0.0431
694.0,0.0413
693.0,0.0397
692.0,0.0384
691.0,0.0373
690.0,0.0364
689.0,0.0361
688.0,0.0362
687.0,0.0365
686.0,0.0366
685.0,0.0365
684.0,0.0363
683.0,0.0361
682.0,0.036
681.0,0.0361
680.0,0.0365
679.0,0.037
678.0,0.0372
677.0,0.037
676.0,0.0367
675.0,0.0367
674.0,0.0369
673.0,0.0368
672.0,0.0368
671.0,0.038
670.0,0.0408
669.0,0.0443
668.0,0.0459
667.0,0.0441
666.0,0.0409
665.0,0.0385
664.0,0.0373
663.0,0.0365
662.0,0.0359
661.0,0.0355
660.0,0.0351
659.0,0.0346
658.0,0.0345
657.0,0.0348
656.0,0.0352
655.0,0.0355
654.0,0.0356
653.0,0.0358
652.0,0.0359
651.0,0.036
650.0,0.0361
649.0,0.036
648.0,0.0356
647.0,0.0348
646.0,0.0344
645.0,0.0345
644.0,0.0348
643.0,0.0351
642.0,0.0355
641.0,0.0362
640.0,0.037
639.0,0.0375
638.0,0.0379
637.0,0.0385
636.0,0.0393
635.0,0.0399
634.0,0.0399
633.0,0.0395
632.0,0.0388
631.0,0.038
630.0,0.0375
629.0,0.0375
628.0,0.0377
627.0,0.0376
626.0,0.0372
625.0,0.0368
624.0,0.0367
623.0,0.0367
622.0,0.0367
621.0,0.0367
620.0,0.0369
619.0,0.0373
618.0,0.0376
617.0,0.0378
616.0,0.0374
615.0,0.0368
614.0,0.0366
613.0,0.0368
612.0,0.0374
611.0,0.0377
610.0,0.0375
609.0,0.0373
608.0,0.0375
607.0,0.0379
606.0,0.0383
605.0,0.0386
604.0,0.0389
603.0,0.0393
602.0,0.0396
601.0,0.0395
600.0,0.0385
