cm-1,A
4000.0,-0.0058
3999.0,-0.0058
3998.0,-0.0058
3997.0,-0.0058
3996.0,-0.0058
3995.0,-0.0058
3994.0,-0.0058
3993.0,-0.0059
3992.0,-0.006
3991.0,-0.006
3990.0,-0.006
3989.0,-0.006
3988.0,-0.0059
3987.0,-0.0059
3986.0,-0.0058
3985.0,-0.0058
3984.0,-0.0057
3983.0,-0.0057
3982.0,-0.0057
3981.0,-0.0057
3980.0,-0.0056
3979.0,-0.0055
3978.0,-0.0055
3977.0,-0.0055
3976.0,-0.0055
3975.0,-0.0055
3974.0,-0.0055
3973.0,-0.0055
3972.0,-0.0055
3971.0,-0.0055
3970.0,-0.0056
3969.0,-0.0057
3968.0,-0.0058
3967.0,-0.0059
3966.0,-0.006
3965.0,-0.006
3964.0,-0.006
3963.0,-0.006
3962.0,-0.006
3961.0,-0.006
3960.0,-0.006
3959.0,-0.0059
3958.0,-0.0058
3957.0,-0.0057
3956.0,-0.0057
3955.0,-0.0058
3954.0,-0.0059
3953.0,-0.0059
3952.0,-0.0058
3951.0,-0.0056
3950.0,-0.0055
3949.0,-0.0056
3948.0,-0.0057
3947.0,-0.0058
3946.0,-0.0059
3945.0,-0.006
3944.0,-0.006
3943.0,-0.0061
3942.0,-0.0061
3941.0,-0.0061
3940.0,-0.006
3939.0,-0.0059
3938.0,-0.0059
3937.0,-0.0059
3936.0,-0.0059
3935.0,-0.006
3934.0,-0.006
3933.0,-0.0059
3932.0,-0.0059
3931.0,-0.0058
3930.0,-0.0058
3929.0,-0.0057
3928.0,-0.0056
3927.0,-0.0056
3926.0,-0.0056
3925.0,-0.0056
3924.0,-0.0057
3923.0,-0.0058
3922.0,-0.0058
3921.0,-0.0059
3920.0,-0.0059
3919.0,-0.0058
3918.0,-0.0058
3917.0,-0.0059
3916.0,-0.0059
3915.0,-0.006
3914.0,-0.006
3913.0,-0.0059
3912.0,-0.0059
3911.0,-0.0058
3910.0,-0.0058
3909.0,-0.0057
3908.0,-0.0057
3907.0,-0.0057
3906.0,-0.0058
3905.0,-0.006
3904.0,-0.0063
3903.0,-0.0065
3902.0,-0.0065
3901.0,-0.0064
3900.0,-0.0063
3899.0,-0.0061
3898.0,-0.006
3897.0,-0.006
3896.0,-0.006
3895.0,-0.0061
3894.0,-0.0061
3893.0,-0.0061
3892.0,-0.0061
3891.0,-0.0062
3890.0,-0.0062
3889.0,-0.0063
3888.0,-0.0063
3887.0,-0.0062
3886.0,-0.0062
3885.0,-0.0062
3884.0,-0.0061
3883.0,-0.0061
3882.0,-0.0061
3881.0,-0.0061
3880.0,-0.0062
3879.0,-0.0062
3878.0,-0.0061
3877.0,-0.006
3876.0,-0.0059
3875.0,-0.0058
3874.0,-0.0058
3873.0,-0.0058
3872.0,-0.0059
3871.0,-0.0061
3870.0,-0.0062
3869.0,-0.0062
3868.0,-0.0061
3867.0,-0.0061
3866.0,-0.0061
3865.0,-0.0062
3864.0,-0.0064
3863.0,-0.0065
3862.0,-0.0065
3861.0,-0.0065
3860.0,-0.0064
3859.0,-0.0063
3858.0,-0.0062
3857.0,-0.0061
3856.0,-0.0061
3855.0,-0.0061
3854.0,-0.0061
3853.0,-0.0061
3852.0,-0.0062
3851.0,-0.0063
3850.0,-0.0064
3849.0,-0.0065
3848.0,-0.0066
3847.0,-0.0066
3846.0,-0.0066
3845.0,-0.0065
3844.0,-0.0065
3843.0,-0.0064
3842.0,-0.0063
3841.0,-0.0062
3840.0,-0.0062
3839.0,-0.0061
3838.0,-0.0061
3837.0,-0.0062
3836.0,-0.0063
3835.0,-0.0064
3834.0,-0.0064
3833.0,-0.0065
3832.0,-0.0066
3831.0,-0.0066
3830.0,-0.0066
3829.0,-0.0066
3828.0,-0.0066
3827.0,-0.0066
3826.0,-0.0066
3825.0,-0.0066
3824.0,-0.0065
3823.0,-0.0065
3822.0,-0.0066
3821.0,-0.0067
3820.0,-0.0068
3819.0,-0.0068
3818.0,-0.0067
3817.0,-0.0068
3816.0,-0.0068
3815.0,-0.0067
3814.0,-0.0067
3813.0,-0.0067
3812.0,-0.0067
3811.0,-0.0067
3810.0,-0.0067
3809.0,-0.0067
3808.0,-0.0068
3807.0,-0.0069
3806.0,-0.0069
3805.0,-0.0068
3804.0,-0.0067
3803.0,-0.0067
3802.0,-0.0067
3801.0,-0.0066
3800.0,-0.0066
3799.0,-0.0067
3798.0,-0.0068
3797.0,-0.007
3796.0,-0.0071
3795.0,-0.0071
3794.0,-0.0071
3793.0,-0.007
3792.0,-0.007
3791.0,-0.007
3790.0,-0.0071
3789.0,-0.0071
3788.0,-0.0071
3787.0,-0.0071
3786.0,-0.007
3785.0,-0.0069
3784.0,-0.0069
3783.0,-0.0069
3782.0,-0.0068
3781.0,-0.0069
3780.0,-0.0069
3779.0,-0.0069
3778.0,-0.0069
3777.0,-0.007
3776.0,-0.0071
3775.0,-0.0072
3774.0,-0.0072
3773.0,-0.0072
3772.0,-0.0071
3771.0,-0.0071
3770.0,-0.0071
3769.0,-0.0071
3768.0,-0.0072
3767.0,-0.0072
3766.0,-0.0072
3765.0,-0.0071
3764.0,-0.0071
3763.0,-0.007
3762.0,-0.007
3761.0,-0.007
3760.0,-0.007
3759.0,-0.007
3758.0,-0.0069
3757.0,-0.0068
3756.0,-0.0067
3755.0,-0.0066
3754.0,-0.0067
3753.0,-0.0069
3752.0,-0.0071
3751.0,-0.0072
3750.0,-0.0072
3749.0,-0.0072
3748.0,-0.0072
3747.0,-0.0073
3746.0,-0.0073
3745.0,-0.0072
3744.0,-0.0072
3743.0,-0.0071
3742.0,-0.0071
3741.0,-0.0071
3740.0,-0.007
3739.0,-0.0068
3738.0,-0.0067
3737.0,-0.0068
3736.0,-0.0071
3735.0,-0.0074
3734.0,-0.0074
3733.0,-0.0074
3732.0,-0.0073
3731.0,-0.0073
3730.0,-0.0073
3729.0,-0.0073
3728.0,-0.0073
3727.0,-0.0074
3726.0,-0.0075
3725.0,-0.0075
3724.0,-0.0074
3723.0,-0.0074
3722.0,-0.0073
3721.0,-0.0072
3720.0,-0.0072
3719.0,-0.0072
3718.0,-0.0072
3717.0,-0.0073
3716.0,-0.0073
3715.0,-0.0073
3714.0,-0.0074
3713.0,-0.0075
3712.0,-0.0075
3711.0,-0.0075
3710.0,-0.0075
3709.0,-0.0075
3708.0,-0.0075
3707.0,-0.0075
3706.0,-0.0075
3705.0,-0.0075
3704.0,-0.0074
3703.0,-0.0073
3702.0,-0.0073
3701.0,-0.0073
3700.0,-0.0073
3699.0,-0.0073
3698.0,-0.0072
3697.0,-0.0071
3696.0,-0.007
3695.0,-0.007
3694.0,-0.007
3693.0,-0.0069
3692.0,-0.0068
3691.0,-0.0066
3690.0,-0.0066
3689.0,-0.0067
3688.0,-0.0068
3687.0,-0.0068
3686.0,-0.0067
3685.0,-0.0065
3684.0,-0.0064
3683.0,-0.0063
3682.0,-0.0062
3681.0,-0.0062
3680.0,-0.0061
3679.0,-0.0059
3678.0,-0.0057
3677.0,-0.0055
3676.0,-0.0055
3675.0,-0.0056
3674.0,-0.0056
3673.0,-0.0056
3672.0,-0.0056
3671.0,-0.0056
3670.0,-0.0056
3669.0,-0.0056
3668.0,-0.0055
3667.0,-0.0054
3666.0,-0.0053
3665.0,-0.0052
3664.0,-0.0051
3663.0,-0.0051
3662.0,-0.0051
3661.0,-0.005
3660.0,-0.0049
3659.0,-0.0048
3658.0,-0.0047
3657.0,-0.0046
3656.0,-0.0045
3655.0,-0.0044
3654.0,-0.0043
3653.0,-0.0041
3652.0,-0.0039
3651.0,-0.0038
3650.0,-0.0038
3649.0,-0.0037
3648.0,-0.0035
3647.0,-0.0033
3646.0,-0.0032
3645.0,-0.003
3644.0,-0.0028
3643.0,-0.0027
3642.0,-0.0025
3641.0,-0.0024
3640.0,-0.0022
3639.0,-0.0019
3638.0,-0.0016
3637.0,-0.0013
3636.0,-0.0011
3635.0,-0.001
3634.0,-0.001
3633.0,-0.0009
3632.0,-0.0008
3631.0,-0.0005
3630.0,-0.0001
3629.0,0.0005
3628.0,0.0009
3627.0,0.0012
3626.0,0.0014
3625.0,0.0017
3624.0,0.0019
3623.0,0.0022
3622.0,0.0026
3621.0,0.0029
3620.0,0.0032
3619.0,0.0035
3618.0,0.0037
3617.0,0.0039
3616.0,0.0041
3615.0,0.0044
3614.0,0.0047
3613.0,0.005
3612.0,0.0055
3611.0,0.0059
3610.0,0.0064
3609.0,0.0069
3608.0,0.0073
3607.0,0.0076
3606.0,0.0079
3605.0,0.0081
3604.0,0.0084
3603.0,0.0087
3602.0,0.009
3601.0,0.0092
3600.0,0.0096
3599.0,0.0099
3598.0,0.0103
3597.0,0.0106
3596.0,0.0109
3595.0,0.0112
3594.0,0.0116
3593.0,0.012
3592.0,0.0124
3591.0,0.0128
3590.0,0.0132
3589.0,0.0137
3588.0,0.0143
3587.0,0.0149
3586.0,0.0154
3585.0,0.0158
3584.0,0.0163
3583.0,0.0168
3582.0,0.0173
3581.0,0.0178
3580.0,0.0183
3579.0,0.0189
3578.0,0.0194
3577.0,0.0201
3576.0,0.0208
3575.0,0.0215
3574.0,0.0222
3573.0,0.0229
3572.0,0.0236
3571.0,0.0243
3570.0,0.025
3569.0,0.0259
3568.0,0.0269
3567.0,0.028
3566.0,0.0291
3565.0,0.0299
3564.0,0.0307
3563.0,0.0314
3562.0,0.0323
3561.0,0.0332
3560.0,0.0341
3559.0,0.035
3558.0,0.036
3557.0,0.037
3556.0,0.038
3555.0,0.0391
3554.0,0.0401
3553.0,0.0411
3552.0,0.0421
3551.0,0.043
3550.0,0.0439
3549.0,0.0449
3548.0,0.0459
3547.0,0.047
3546.0,0.0482
3545.0,0.0491
3544.0,0.05
3543.0,0.0508
3542.0,0.0516
3541.0,0.0525
3540.0,0.0533
3539.0,0.0541
3538.0,0.0549
3537.0,0.0557
3536.0,0.0565
3535.0,0.0572
3534.0,0.0579
3533.0,0.0586
3532.0,0.0593
3531.0,0.06
3530.0,0.0606
3529.0,0.0614
3528.0,0.0621
3527.0,0.0628
3526.0,0.0633
3525.0,0.0638
3524.0,0.0643
3523.0,0.0649
3522.0,0.0655
3521.0,0.0661
3520.0,0.0667
3519.0,0.0673
3518.0,0.0678
3517.0,0.0683
3516.0,0.0688
3515.0,0.0693
3514.0,0.0696
3513.0,0.07
3512.0,0.0703
3511.0,0.0706
3510.0,0.0711
3509.0,0.0714
3508.0,0.0717
3507.0,0.0719
3506.0,0.072
3505.0,0.0722
3504.0,0.0725
3503.0,0.0729
3502.0,0.0735
3501.0,0.0739
3500.0,0.0743
3499.0,0.0745
3498.0,0.0747
3497.0,0.0748
3496.0,0.0749
3495.0,0.0751
3494.0,0.0753
3493.0,0.0755
3492.0,0.0757
3491.0,0.0759
3490.0,0.0759
3489.0,0.0759
3488.0,0.0758
3487.0,0.0757
3486.0,0.0756
3485.0,0.0755
3484.0,0.0754
3483.0,0.0752
3482.0,0.0751
3481.0,0.0749
3480.0,0.0747
3479.0,0.0744
3478.0,0.0741
3477.0,0.0738
3476.0,0.0736
3475.0,0.0734
3474.0,0.0732
3473.0,0.0728
3472.0,0.0724
3471.0,0.072
3470.0,0.0716
3469.0,0.0712
3468.0,0.071
3467.0,0.0708
3466.0,0.0705
3465.0,0.0702
3464.0,0.0698
3463.0,0.0695
3462.0,0.0692
3461.0,0.069
3460.0,0.0689
3459.0,0.0688
3458.0,0.0687
3457.0,0.0686
3456.0,0.0686
3455.0,0.0685
3454.0,0.0683
3453.0,0.0682
3452.0,0.0682
3451.0,0.0681
3450.0,0.0682
3449.0,0.0682
3448.0,0.0684
3447.0,0.0687
3446.0,0.0691
3445.0,0.0694
3444.0,0.0697
3443.0,0.0701
3442.0,0.0705
3441.0,0.071
3440.0,0.0715
3439.0,0.072
3438.0,0.0726
3437.0,0.0733
3436.0,0.074
3435.0,0.0747
3434.0,0.0754
3433.0,0.0762
3432.0,0.0771
3431.0,0.0781
3430.0,0.0791
3429.0,0.0802
3428.0,0.0812
3427.0,0.0822
3426.0,0.0834
3425.0,0.0846
3424.0,0.086
3423.0,0.0874
3422.0,0.0889
3421.0,0.0904
3420.0,0.0919
3419.0,0.0933
3418.0,0.0946
3417.0,0.096
3416.0,0.0974
3415.0,0.0989
3414.0,0.1003
3413.0,0.1016
3412.0,0.1029
3411.0,0.1042
3410.0,0.1054
3409.0,0.1066
3408.0,0.1077
3407.0,0.1087
3406.0,0.1095
3405.0,0.1102
3404.0,0.1108
3403.0,0.1113
3402.0,0.1118
3401.0,0.1122
3400.0,0.1124
3399.0,0.1123
3398.0,0.1121
3397.0,0.1118
3396.0,0.1114
3395.0,0.111
3394.0,0.1104
3393.0,0.1097
3392.0,0.1087
3391.0,0.1078
3390.0,0.1068
3389.0,0.1057
3388.0,0.1046
3387.0,0.1033
3386.0,0.1019
3385.0,0.1006
3384.0,0.0993
3383.0,0.098
3382.0,0.0968
3381.0,0.0955
3380.0,0.0942
3379.0,0.093
3378.0,0.0918
3377.0,0.0906
3376.0,0.0894
3375.0,0.0883
3374.0,0.087
3373.0,0.0858
3372.0,0.0845
3371.0,0.0833
3370.0,0.0821
3369.0,0.081
3368.0,0.08
3367.0,0.0789
3366.0,0.0779
3365.0,0.0769
3364.0,0.0759
3363.0,0.075
3362.0,0.0741
3361.0,0.0733
3360.0,0.0726
3359.0,0.0721
3358.0,0.0716
3357.0,0.0711
3356.0,0.0705
3355.0,0.07
3354.0,0.0695
3353.0,0.0691
3352.0,0.0686
3351.0,0.0681
3350.0,0.0676
3349.0,0.067
3348.0,0.0666
3347.0,0.0661
3346.0,0.0657
3345.0,0.0652
3344.0,0.0648
3343.0,0.0643
3342.0,0.0639
3341.0,0.0634
3340.0,0.063
3339.0,0.0626
3338.0,0.0623
3337.0,0.062
3336.0,0.0617
3335.0,0.0615
3334.0,0.0611
3333.0,0.0607
3332.0,0.0602
3331.0,0.0596
3330.0,0.0592
3329.0,0.0589
3328.0,0.0586
3327.0,0.0583
3326.0,0.058
3325.0,0.0577
3324.0,0.0574
3323.0,0.0572
3322.0,0.0569
3321.0,0.0566
3320.0,0.0563
3319.0,0.056
3318.0,0.0557
3317.0,0.0554
3316.0,0.0551
3315.0,0.0547
3314.0,0.0542
3313.0,0.0538
3312.0,0.0534
3311.0,0.0531
3310.0,0.0527
3309.0,0.0524
3308.0,0.052
3307.0,0.0516
3306.0,0.0513
3305.0,0.0509
3304.0,0.0505
3303.0,0.0503
3302.0,0.0501
3301.0,0.0498
3300.0,0.0496
3299.0,0.0492
3298.0,0.0489
3297.0,0.0486
3296.0,0.0483
3295.0,0.048
3294.0,0.0478
3293.0,0.0475
3292.0,0.0472
3291.0,0.0468
3290.0,0.0464
3289.0,0.046
3288.0,0.0458
3287.0,0.0457
3286.0,0.0456
3285.0,0.0454
3284.0,0.0452
3283.0,0.045
3282.0,0.0447
3281.0,0.0444
3280.0,0.0442
3279.0,0.044
3278.0,0.0438
3277.0,0.0436
3276.0,0.0435
3275.0,0.0434
3274.0,0.0433
3273.0,0.0431
3272.0,0.043
3271.0,0.0428
3270.0,0.0426
3269.0,0.0424
3268.0,0.0421
3267.0,0.0418
3266.0,0.0414
3265.0,0.0411
3264.0,0.0409
3263.0,0.0407
3262.0,0.0406
3261.0,0.0404
3260.0,0.0402
3259.0,0.0401
3258.0,0.04
3257.0,0.0401
3256.0,0.0401
3255.0,0.0402
3254.0,0.0402
3253.0,0.0402
3252.0,0.0401
3251.0,0.0401
3250.0,0.0401
3249.0,0.0403
3248.0,0.0405
3247.0,0.0408
3246.0,0.041
3245.0,0.0411
3244.0,0.0412
3243.0,0.0412
3242.0,0.0412
3241.0,0.041
3240.0,0.0408
3239.0,0.0405
3238.0,0.0401
3237.0,0.0397
3236.0,0.0392
3235.0,0.0387
3234.0,0.0383
3233.0,0.0379
3232.0,0.0376
3231.0,0.0372
3230.0,0.0368
3229.0,0.0364
3228.0,0.036
3227.0,0.0357
3226.0,0.0355
3225.0,0.0352
3224.0,0.0348
3223.0,0.0344
3222.0,0.034
3221.0,0.0336
3220.0,0.0333
3219.0,0.033
3218.0,0.0328
3217.0,0.0325
3216.0,0.0323
3215.0,0.032
3214.0,0.0318
3213.0,0.0315
3212.0,0.0313
3211.0,0.031
3210.0,0.0306
3209.0,0.0303
3208.0,0.0299
3207.0,0.0297
3206.0,0.0295
3205.0,0.0295
3204.0,0.0295
3203.0,0.0295
3202.0,0.0295
3201.0,0.0293
3200.0,0.0291
3199.0,0.0288
3198.0,0.0285
3197.0,0.0283
3196.0,0.028
3195.0,0.0278
3194.0,0.0277
3193.0,0.0275
3192.0,0.0273
3191.0,0.0271
3190.0,0.0269
3189.0,0.0266
3188.0,0.0265
3187.0,0.0264
3186.0,0.0263
3185.0,0.0261
3184.0,0.0259
3183.0,0.0258
3182.0,0.0256
3181.0,0.0255
3180.0,0.0253
3179.0,0.0252
3178.0,0.0249
3177.0,0.0246
3176.0,0.0242
3175.0,0.0239
3174.0,0.0237
3173.0,0.0235
3172.0,0.0233
3171.0,0.0232
3170.0,0.023
3169.0,0.0229
3168.0,0.0227
3167.0,0.0226
3166.0,0.0225
3165.0,0.0224
3164.0,0.0223
3163.0,0.0222
3162.0,0.022
3161.0,0.0218
3160.0,0.0215
3159.0,0.0212
3158.0,0.0209
3157.0,0.0207
3156.0,0.0206
3155.0,0.0206
3154.0,0.0206
3153.0,0.0205
3152.0,0.0203
3151.0,0.0202
3150.0,0.02
3149.0,0.0199
3148.0,0.0198
3147.0,0.0197
3146.0,0.0197
3145.0,0.0195
3144.0,0.0193
3143.0,0.0191
3142.0,0.0189
3141.0,0.0188
3140.0,0.0186
3139.0,0.0184
3138.0,0.0182
3137.0,0.0181
3136.0,0.018
3135.0,0.018
3134.0,0.0181
3133.0,0.0182
3132.0,0.0182
3131.0,0.0181
3130.0,0.0179
3129.0,0.0177
3128.0,0.0176
3127.0,0.0174
3126.0,0.0173
3125.0,0.0172
3124.0,0.0172
3123.0,0.0171
3122.0,0.017
3121.0,0.0169
3120.0,0.0168
3119.0,0.0168
3118.0,0.0167
3117.0,0.0166
3116.0,0.0165
3115.0,0.0163
3114.0,0.0162
3113.0,0.016
3112.0,0.016
3111.0,0.0159
3110.0,0.016
3109.0,0.016
3108.0,0.016
3107.0,0.016
3106.0,0.0159
3105.0,0.0157
3104.0,0.0156
3103.0,0.0155
3102.0,0.0155
3101.0,0.0154
3100.0,0.0154
3099.0,0.0153
3098.0,0.0152
3097.0,0.0151
3096.0,0.0151
3095.0,0.015
3094.0,0.0149
3093.0,0.0148
3092.0,0.0147
3091.0,0.0146
3090.0,0.0146
3089.0,0.0147
3088.0,0.0148
3087.0,0.0148
3086.0,0.0149
3085.0,0.0149
3084.0,0.0148
3083.0,0.0147
3082.0,0.0146
3081.0,0.0146
3080.0,0.0145
3079.0,0.0144
3078.0,0.0144
3077.0,0.0144
3076.0,0.0144
3075.0,0.0143
3074.0,0.0143
3073.0,0.0142
3072.0,0.0141
3071.0,0.014
3070.0,0.0139
3069.0,0.0138
3068.0,0.0138
3067.0,0.0138
3066.0,0.0138
3065.0,0.0138
3064.0,0.0138
3063.0,0.0139
3062.0,0.0139
3061.0,0.0138
3060.0,0.0138
3059.0,0.0138
3058.0,0.0137
3057.0,0.0137
3056.0,0.0137
3055.0,0.0136
3054.0,0.0136
3053.0,0.0135
3052.0,0.0134
3051.0,0.0133
3050.0,0.0131
3049.0,0.013
3048.0,0.0129
3047.0,0.0128
3046.0,0.0128
3045.0,0.0127
3044.0,0.0127
3043.0,0.0126
3042.0,0.0125
3041.0,0.0125
3040.0,0.0125
3039.0,0.0125
3038.0,0.0124
3037.0,0.0123
3036.0,0.0123
3035.0,0.0123
3034.0,0.0124
3033.0,0.0125
3032.0,0.0126
3031.0,0.0127
3030.0,0.0128
3029.0,0.0129
3028.0,0.0131
3027.0,0.0133
3026.0,0.0135
3025.0,0.0136
3024.0,0.0136
3023.0,0.0136
3022.0,0.0136
3021.0,0.0134
3020.0,0.0132
3019.0,0.0129
3018.0,0.0126
3017.0,0.0124
3016.0,0.0123
3015.0,0.0122
3014.0,0.0121
3013.0,0.012
3012.0,0.0119
3011.0,0.0119
3010.0,0.0119
3009.0,0.0118
3008.0,0.0118
3007.0,0.0117
3006.0,0.0116
3005.0,0.0116
3004.0,0.0116
3003.0,0.0117
3002.0,0.0117
3001.0,0.0116
3000.0,0.0115
2999.0,0.0115
2998.0,0.0114
2997.0,0.0113
2996.0,0.0112
2995.0,0.0111
2994.0,0.0111
2993.0,0.011
2992.0,0.0109
2991.0,0.0108
2990.0,0.0108
2989.0,0.0108
2988.0,0.0108
2987.0,0.0108
2986.0,0.0108
2985.0,0.0108
2984.0,0.0108
2983.0,0.0108
2982.0,0.0107
2981.0,0.0106
2980.0,0.0105
2979.0,0.0104
2978.0,0.0104
2977.0,0.0103
2976.0,0.0102
2975.0,0.0102
2974.0,0.0101
2973.0,0.0101
2972.0,0.01
2971.0,0.0099
2970.0,0.0099
2969.0,0.0099
2968.0,0.0099
2967.0,0.01
2966.0,0.01
2965.0,0.0101
2964.0,0.0101
2963.0,0.0101
2962.0,0.0101
2961.0,0.01
2960.0,0.0099
2959.0,0.0099
2958.0,0.0099
2957.0,0.0099
2956.0,0.0099
2955.0,0.0099
2954.0,0.0099
2953.0,0.0099
2952.0,0.0099
2951.0,0.0098
2950.0,0.0098
2949.0,0.0098
2948.0,0.0099
2947.0,0.0099
2946.0,0.0099
2945.0,0.0099
2944.0,0.0099
2943.0,0.01
2942.0,0.01
2941.0,0.0101
2940.0,0.0101
2939.0,0.0101
2938.0,0.0102
2937.0,0.0102
2936.0,0.0104
2935.0,0.0105
2934.0,0.0107
2933.0,0.0109
2932.0,0.0111
2931.0,0.0113
2930.0,0.0114
2929.0,0.0114
2928.0,0.0114
2927.0,0.0114
2926.0,0.0113
2925.0,0.0114
2924.0,0.0114
2923.0,0.0115
2922.0,0.0116
2921.0,0.0117
2920.0,0.0117
2919.0,0.0117
2918.0,0.0117
2917.0,0.0118
2916.0,0.0119
2915.0,0.012
2914.0,0.012
2913.0,0.012
2912.0,0.0119
2911.0,0.0118
2910.0,0.0117
2909.0,0.0115
2908.0,0.0114
2907.0,0.0114
2906.0,0.0114
2905.0,0.0114
2904.0,0.0114
2903.0,0.0114
2902.0,0.0113
2901.0,0.0112
2900.0,0.011
2899.0,0.011
2898.0,0.0109
2897.0,0.0109
2896.0,0.0108
2895.0,0.0108
2894.0,0.0107
2893.0,0.0107
2892.0,0.0106
2891.0,0.0105
2890.0,0.0105
2889.0,0.0104
2888.0,0.0104
2887.0,0.0104
2886.0,0.0103
2885.0,0.0103
2884.0,0.0102
2883.0,0.0102
2882.0,0.0101
2881.0,0.0101
2880.0,0.0101
2879.0,0.0101
2878.0,0.0101
2877.0,0.01
2876.0,0.01
2875.0,0.01
2874.0,0.01
2873.0,0.01
2872.0,0.0099
2871.0,0.0099
2870.0,0.0099
2869.0,0.0099
2868.0,0.01
2867.0,0.01
2866.0,0.0099
2865.0,0.0098
2864.0,0.0098
2863.0,0.0098
2862.0,0.0098
2861.0,0.0099
2860.0,0.01
2859.0,0.0101
2858.0,0.0102
2857.0,0.0102
2856.0,0.0102
2855.0,0.0102
2854.0,0.0102
2853.0,0.0102
2852.0,0.0103
2851.0,0.0103
2850.0,0.0104
2849.0,0.0104
2848.0,0.0104
2847.0,0.0104
2846.0,0.0104
2845.0,0.0104
2844.0,0.0104
2843.0,0.0103
2842.0,0.0102
2841.0,0.0101
2840.0,0.01
2839.0,0.0099
2838.0,0.0099
2837.0,0.0099
2836.0,0.0098
2835.0,0.0098
2834.0,0.0098
2833.0,0.0097
2832.0,0.0097
2831.0,0.0096
2830.0,0.0096
2829.0,0.0095
2828.0,0.0095
2827.0,0.0095
2826.0,0.0095
2825.0,0.0095
2824.0,0.0095
2823.0,0.0094
2822.0,0.0093
2821.0,0.0092
2820.0,0.0092
2819.0,0.0092
2818.0,0.0092
2817.0,0.0093
2816.0,0.0093
2815.0,0.0092
2814.0,0.0092
2813.0,0.0092
2812.0,0.0091
2811.0,0.0091
2810.0,0.0091
2809.0,0.0091
2808.0,0.0091
2807.0,0.009
2806.0,0.009
2805.0,0.009
2804.0,0.009
2803.0,0.009
2802.0,0.009
2801.0,0.009
2800.0,0.009
2799.0,0.0089
2798.0,0.0089
2797.0,0.0088
2796.0,0.0088
2795.0,0.0088
2794.0,0.0088
2793.0,0.0088
2792.0,0.0088
2791.0,0.0088
2790.0,0.0088
2789.0,0.0088
2788.0,0.0088
2787.0,0.0087
2786.0,0.0087
2785.0,0.0087
2784.0,0.0087
2783.0,0.0088
2782.0,0.0088
2781.0,0.0088
2780.0,0.0087
2779.0,0.0087
2778.0,0.0087
2777.0,0.0087
2776.0,0.0087
2775.0,0.0087
2774.0,0.0087
2773.0,0.0087
2772.0,0.0086
2771.0,0.0086
2770.0,0.0086
2769.0,0.0086
2768.0,0.0087
2767.0,0.0087
2766.0,0.0087
2765.0,0.0086
2764.0,0.0086
2763.0,0.0086
2762.0,0.0086
2761.0,0.0085
2760.0,0.0085
2759.0,0.0084
2758.0,0.0084
2757.0,0.0084
2756.0,0.0084
2755.0,0.0084
2754.0,0.0084
2753.0,0.0084
2752.0,0.0084
2751.0,0.0084
2750.0,0.0084
2749.0,0.0083
2748.0,0.0083
2747.0,0.0083
2746.0,0.0084
2745.0,0.0084
2744.0,0.0084
2743.0,0.0084
2742.0,0.0083
2741.0,0.0082
2740.0,0.0082
2739.0,0.0083
2738.0,0.0083
2737.0,0.0082
2736.0,0.0082
2735.0,0.0082
2734.0,0.0082
2733.0,0.0082
2732.0,0.0082
2731.0,0.0082
2730.0,0.0081
2729.0,0.0081
2728.0,0.0081
2727.0,0.0081
2726.0,0.0081
2725.0,0.008
2724.0,0.008
2723.0,0.008
2722.0,0.008
2721.0,0.008
2720.0,0.0081
2719.0,0.008
2718.0,0.008
2717.0,0.008
2716.0,0.008
2715.0,0.0081
2714.0,0.0081
2713.0,0.0081
2712.0,0.0081
2711.0,0.0081
2710.0,0.008
2709.0,0.008
2708.0,0.008
2707.0,0.0079
2706.0,0.0079
2705.0,0.0079
2704.0,0.0079
2703.0,0.008
2702.0,0.008
2701.0,0.008
2700.0,0.0081
2699.0,0.0081
2698.0,0.0081
2697.0,0.008
2696.0,0.008
2695.0,0.008
2694.0,0.008
2693.0,0.008
2692.0,0.0079
2691.0,0.0078
2690.0,0.0078
2689.0,0.0078
2688.0,0.0078
2687.0,0.0079
2686.0,0.0079
2685.0,0.008
2684.0,0.008
2683.0,0.008
2682.0,0.008
2681.0,0.008
2680.0,0.008
2679.0,0.0079
2678.0,0.0079
2677.0,0.0078
2676.0,0.0078
2675.0,0.0077
2674.0,0.0076
2673.0,0.0076
2672.0,0.0076
2671.0,0.0076
2670.0,0.0077
2669.0,0.0077
2668.0,0.0077
2667.0,0.0077
2666.0,0.0077
2665.0,0.0077
2664.0,0.0077
2663.0,0.0077
2662.0,0.0077
2661.0,0.0077
2660.0,0.0078
2659.0,0.0078
2658.0,0.0079
2657.0,0.0078
2656.0,0.0078
2655.0,0.0077
2654.0,0.0076
2653.0,0.0076
2652.0,0.0075
2651.0,0.0075
2650.0,0.0075
2649.0,0.0075
2648.0,0.0075
2647.0,0.0075
2646.0,0.0075
2645.0,0.0075
2644.0,0.0075
2643.0,0.0075
2642.0,0.0074
2641.0,0.0074
2640.0,0.0074
2639.0,0.0074
2638.0,0.0075
2637.0,0.0076
2636.0,0.0076
2635.0,0.0076
2634.0,0.0076
2633.0,0.0076
2632.0,0.0076
2631.0,0.0076
2630.0,0.0076
2629.0,0.0076
2628.0,0.0076
2627.0,0.0076
2626.0,0.0076
2625.0,0.0076
2624.0,0.0076
2623.0,0.0075
2622.0,0.0075
2621.0,0.0075
2620.0,0.0074
2619.0,0.0074
2618.0,0.0074
2617.0,0.0074
2616.0,0.0074
2615.0,0.0074
2614.0,0.0074
2613.0,0.0074
2612.0,0.0074
2611.0,0.0074
2610.0,0.0074
2609.0,0.0073
2608.0,0.0073
2607.0,0.0073
2606.0,0.0074
2605.0,0.0074
2604.0,0.0075
2603.0,0.0075
2602.0,0.0074
2601.0,0.0074
2600.0,0.0074
2599.0,0.0074
2598.0,0.0074
2597.0,0.0074
2596.0,0.0075
2595.0,0.0075
2594.0,0.0074
2593.0,0.0073
2592.0,0.0072
2591.0,0.0072
2590.0,0.0072
2589.0,0.0072
2588.0,0.0073
2587.0,0.0073
2586.0,0.0074
2585.0,0.0074
2584.0,0.0074
2583.0,0.0073
2582.0,0.0073
2581.0,0.0073
2580.0,0.0073
2579.0,0.0073
2578.0,0.0073
2577.0,0.0073
2576.0,0.0074
2575.0,0.0074
2574.0,0.0073
2573.0,0.0073
2572.0,0.0072
2571.0,0.0072
2570.0,0.0072
2569.0,0.0072
2568.0,0.0073
2567.0,0.0074
2566.0,0.0074
2565.0,0.0074
2564.0,0.0074
2563.0,0.0074
2562.0,0.0074
2561.0,0.0073
2560.0,0.0073
2559.0,0.0072
2558.0,0.0072
2557.0,0.0071
2556.0,0.0071
2555.0,0.0071
2554.0,0.0071
2553.0,0.0071
2552.0,0.0071
2551.0,0.0071
2550.0,0.0071
2549.0,0.0072
2548.0,0.0072
2547.0,0.0072
2546.0,0.0072
2545.0,0.0072
2544.0,0.0072
2543.0,0.0072
2542.0,0.0073
2541.0,0.0073
2540.0,0.0072
2539.0,0.0072
2538.0,0.0071
2537.0,0.0071
2536.0,0.0071
2535.0,0.0071
2534.0,0.0071
2533.0,0.0071
2532.0,0.0071
2531.0,0.0071
2530.0,0.0071
2529.0,0.0071
2528.0,0.007
2527.0,0.007
2526.0,0.0069
2525.0,0.0069
2524.0,0.0069
2523.0,0.0069
2522.0,0.0069
2521.0,0.0069
2520.0,0.0069
2519.0,0.007
2518.0,0.007
2517.0,0.0071
2516.0,0.0071
2515.0,0.0071
2514.0,0.0071
2513.0,0.0071
2512.0,0.0071
2511.0,0.0071
2510.0,0.0071
2509.0,0.0071
2508.0,0.007
2507.0,0.007
2506.0,0.007
2505.0,0.0069
2504.0,0.0069
2503.0,0.0069
2502.0,0.007
2501.0,0.007
2500.0,0.007
2499.0,0.007
2498.0,0.007
2497.0,0.007
2496.0,0.007
2495.0,0.0071
2494.0,0.0071
2493.0,0.007
2492.0,0.007
2491.0,0.007
2490.0,0.007
2489.0,0.007
2488.0,0.007
2487.0,0.0069
2486.0,0.0069
2485.0,0.0069
2484.0,0.007
2483.0,0.007
2482.0,0.007
2481.0,0.007
2480.0,0.007
2479.0,0.007
2478.0,0.007
2477.0,0.007
2476.0,0.007
2475.0,0.007
2474.0,0.0068
2473.0,0.0068
2472.0,0.0067
2471.0,0.0068
2470.0,0.0068
2469.0,0.0069
2468.0,0.007
2467.0,0.007
2466.0,0.007
2465.0,0.007
2464.0,0.007
2463.0,0.007
2462.0,0.007
2461.0,0.0069
2460.0,0.0069
2459.0,0.0068
2458.0,0.0068
2457.0,0.0068
2456.0,0.0069
2455.0,0.0069
2454.0,0.007
2453.0,0.007
2452.0,0.0069
2451.0,0.0069
2450.0,0.0069
2449.0,0.0068
2448.0,0.0069
2447.0,0.0069
2446.0,0.007
2445.0,0.007
2444.0,0.007
2443.0,0.0069
2442.0,0.0069
2441.0,0.0068
2440.0,0.0068
2439.0,0.0068
2438.0,0.0068
2437.0,0.0068
2436.0,0.0068
2435.0,0.0069
2434.0,0.0069
2433.0,0.0069
2432.0,0.0069
2431.0,0.007
2430.0,0.007
2429.0,0.007
2428.0,0.0069
2427.0,0.007
2426.0,0.007
2425.0,0.007
2424.0,0.007
2423.0,0.007
2422.0,0.0069
2421.0,0.0069
2420.0,0.0069
2419.0,0.0069
2418.0,0.0069
2417.0,0.007
2416.0,0.007
2415.0,0.007
2414.0,0.007
2413.0,0.007
2412.0,0.007
2411.0,0.007
2410.0,0.0069
2409.0,0.0069
2408.0,0.0069
2407.0,0.007
2406.0,0.007
2405.0,0.0071
2404.0,0.0071
2403.0,0.0071
2402.0,0.007
2401.0,0.007
2400.0,0.0071
2399.0,0.0071
2398.0,0.0071
2397.0,0.0071
2396.0,0.0072
2395.0,0.0072
2394.0,0.0072
2393.0,0.0072
2392.0,0.0072
2391.0,0.0072
2390.0,0.0071
2389.0,0.0072
2388.0,0.0072
2387.0,0.0073
2386.0,0.0073
2385.0,0.0074
2384.0,0.0074
2383.0,0.0075
2382.0,0.0075
2381.0,0.0074
2380.0,0.0074
2379.0,0.0074
2378.0,0.0074
2377.0,0.0074
2376.0,0.0073
2375.0,0.0073
2374.0,0.0073
2373.0,0.0073
2372.0,0.0075
2371.0,0.0076
2370.0,0.0076
2369.0,0.0077
2368.0,0.0078
2367.0,0.008
2366.0,0.008
2365.0,0.0079
2364.0,0.0076
2363.0,0.0075
2362.0,0.008
2361.0,0.009
2360.0,0.01
2359.0,0.0104
2358.0,0.0102
2357.0,0.0097
2356.0,0.009
2355.0,0.0083
2354.0,0.008
2353.0,0.008
2352.0,0.0083
2351.0,0.0083
2350.0,0.0081
2349.0,0.0076
2348.0,0.007
2347.0,0.0065
2346.0,0.0064
2345.0,0.0064
2344.0,0.0065
2343.0,0.0068
2342.0,0.0074
2341.0,0.0082
2340.0,0.0091
2339.0,0.0095
2338.0,0.0092
2337.0,0.0087
2336.0,0.0083
2335.0,0.0083
2334.0,0.0084
2333.0,0.0086
2332.0,0.0087
2331.0,0.0089
2330.0,0.0091
2329.0,0.0091
2328.0,0.009
2327.0,0.0089
2326.0,0.009
2325.0,0.0094
2324.0,0.0098
2323.0,0.0102
2322.0,0.0102
2321.0,0.0101
2320.0,0.0099
2319.0,0.0097
2318.0,0.0097
2317.0,0.0098
2316.0,0.0099
2315.0,0.0099
2314.0,0.0098
2313.0,0.0098
2312.0,0.0098
2311.0,0.0099
2310.0,0.0099
2309.0,0.01
2308.0,0.01
2307.0,0.01
2306.0,0.0101
2305.0,0.0102
2304.0,0.0103
2303.0,0.0103
2302.0,0.0104
2301.0,0.0104
2300.0,0.0104
2299.0,0.0104
2298.0,0.0105
2297.0,0.0105
2296.0,0.0106
2295.0,0.0107
2294.0,0.0107
2293.0,0.0107
2292.0,0.0108
2291.0,0.0109
2290.0,0.011
2289.0,0.0111
2288.0,0.0111
2287.0,0.0112
2286.0,0.0113
2285.0,0.0113
2284.0,0.0114
2283.0,0.0114
2282.0,0.0114
2281.0,0.0115
2280.0,0.0116
2279.0,0.0117
2278.0,0.0117
2277.0,0.0118
2276.0,0.0118
2275.0,0.0119
2274.0,0.012
2273.0,0.0121
2272.0,0.0122
2271.0,0.0123
2270.0,0.0124
2269.0,0.0125
2268.0,0.0126
2267.0,0.0127
2266.0,0.0127
2265.0,0.0128
2264.0,0.0129
2263.0,0.013
2262.0,0.0131
2261.0,0.0133
2260.0,0.0134
2259.0,0.0135
2258.0,0.0136
2257.0,0.0136
2256.0,0.0138
2255.0,0.0139
2254.0,0.0139
2253.0,0.014
2252.0,0.0141
2251.0,0.0141
2250.0,0.0142
2249.0,0.0142
2248.0,0.0143
2247.0,0.0144
2246.0,0.0145
2245.0,0.0145
2244.0,0.0146
2243.0,0.0146
2242.0,0.0147
2241.0,0.0148
2240.0,0.0148
2239.0,0.0148
2238.0,0.0148
2237.0,0.0148
2236.0,0.0147
2235.0,0.0147
2234.0,0.0148
2233.0,0.0148
2232.0,0.0148
2231.0,0.0149
2230.0,0.0149
2229.0,0.0149
2228.0,0.0149
2227.0,0.0149
2226.0,0.015
2225.0,0.0149
2224.0,0.0149
2223.0,0.0149
2222.0,0.0149
2221.0,0.015
2220.0,0.015
2219.0,0.015
2218.0,0.015
2217.0,0.0149
2216.0,0.0149
2215.0,0.0149
2214.0,0.0149
2213.0,0.015
2212.0,0.015
2211.0,0.015
2210.0,0.015
2209.0,0.015
2208.0,0.0151
2207.0,0.0151
2206.0,0.0151
2205.0,0.0151
2204.0,0.0151
2203.0,0.0151
2202.0,0.0151
2201.0,0.0151
2200.0,0.015
2199.0,0.015
2198.0,0.0149
2197.0,0.0149
2196.0,0.0148
2195.0,0.0148
2194.0,0.0148
2193.0,0.0147
2192.0,0.0146
2191.0,0.0145
2190.0,0.0144
2189.0,0.0143
2188.0,0.0142
2187.0,0.014
2186.0,0.0139
2185.0,0.0138
2184.0,0.0137
2183.0,0.0136
2182.0,0.0136
2181.0,0.0135
2180.0,0.0134
2179.0,0.0132
2178.0,0.0131
2177.0,0.013
2176.0,0.013
2175.0,0.0129
2174.0,0.0129
2173.0,0.0128
2172.0,0.0127
2171.0,0.0125
2170.0,0.0124
2169.0,0.0123
2168.0,0.0122
2167.0,0.0121
2166.0,0.0121
2165.0,0.012
2164.0,0.0119
2163.0,0.0119
2162.0,0.0118
2161.0,0.0118
2160.0,0.0118
2159.0,0.0118
2158.0,0.0118
2157.0,0.0117
2156.0,0.0117
2155.0,0.0116
2154.0,0.0116
2153.0,0.0115
2152.0,0.0115
2151.0,0.0114
2150.0,0.0114
2149.0,0.0114
2148.0,0.0114
2147.0,0.0114
2146.0,0.0114
2145.0,0.0114
2144.0,0.0115
2143.0,0.0115
2142.0,0.0115
2141.0,0.0114
2140.0,0.0114
2139.0,0.0114
2138.0,0.0115
2137.0,0.0115
2136.0,0.0115
2135.0,0.0115
2134.0,0.0115
2133.0,0.0115
2132.0,0.0115
2131.0,0.0115
2130.0,0.0115
2129.0,0.0115
2128.0,0.0115
2127.0,0.0116
2126.0,0.0116
2125.0,0.0116
2124.0,0.0117
2123.0,0.0117
2122.0,0.0117
2121.0,0.0117
2120.0,0.0118
2119.0,0.0118
2118.0,0.0119
2117.0,0.0119
2116.0,0.0119
2115.0,0.012
2114.0,0.012
2113.0,0.0119
2112.0,0.0119
2111.0,0.0119
2110.0,0.0118
2109.0,0.0117
2108.0,0.0116
2107.0,0.0115
2106.0,0.0113
2105.0,0.0111
2104.0,0.011
2103.0,0.0108
2102.0,0.0106
2101.0,0.0104
2100.0,0.0103
2099.0,0.0102
2098.0,0.0101
2097.0,0.01
2096.0,0.0098
2095.0,0.0097
2094.0,0.0096
2093.0,0.0095
2092.0,0.0094
2091.0,0.0093
2090.0,0.0092
2089.0,0.0091
2088.0,0.009
2087.0,0.0089
2086.0,0.0089
2085.0,0.0088
2084.0,0.0088
2083.0,0.0087
2082.0,0.0087
2081.0,0.0086
2080.0,0.0085
2079.0,0.0085
2078.0,0.0085
2077.0,0.0084
2076.0,0.0084
2075.0,0.0084
2074.0,0.0084
2073.0,0.0084
2072.0,0.0084
2071.0,0.0084
2070.0,0.0085
2069.0,0.0084
2068.0,0.0084
2067.0,0.0083
2066.0,0.0082
2065.0,0.0081
2064.0,0.008
2063.0,0.008
2062.0,0.0081
2061.0,0.0081
2060.0,0.0081
2059.0,0.008
2058.0,0.008
2057.0,0.0079
2056.0,0.0079
2055.0,0.008
2054.0,0.008
2053.0,0.0079
2052.0,0.0079
2051.0,0.0079
2050.0,0.0079
2049.0,0.0078
2048.0,0.0078
2047.0,0.0078
2046.0,0.0078
2045.0,0.0078
2044.0,0.0078
2043.0,0.0077
2042.0,0.0077
2041.0,0.0076
2040.0,0.0076
2039.0,0.0076
2038.0,0.0076
2037.0,0.0075
2036.0,0.0075
2035.0,0.0075
2034.0,0.0075
2033.0,0.0075
2032.0,0.0075
2031.0,0.0075
2030.0,0.0074
2029.0,0.0074
2028.0,0.0074
2027.0,0.0074
2026.0,0.0074
2025.0,0.0074
2024.0,0.0074
2023.0,0.0074
2022.0,0.0074
2021.0,0.0074
2020.0,0.0074
2019.0,0.0074
2018.0,0.0074
2017.0,0.0074
2016.0,0.0074
2015.0,0.0073
2014.0,0.0073
2013.0,0.0073
2012.0,0.0073
2011.0,0.0073
2010.0,0.0073
2009.0,0.0073
2008.0,0.0073
2007.0,0.0073
2006.0,0.0073
2005.0,0.0072
2004.0,0.0072
2003.0,0.0072
2002.0,0.0072
2001.0,0.0072
2000.0,0.0071
1999.0,0.0071
1998.0,0.0071
1997.0,0.0072
1996.0,0.0072
1995.0,0.0072
1994.0,0.0071
1993.0,0.0071
1992.0,0.007
1991.0,0.007
1990.0,0.007
1989.0,0.007
1988.0,0.007
1987.0,0.007
1986.0,0.007
1985.0,0.007
1984.0,0.007
1983.0,0.0069
1982.0,0.0069
1981.0,0.0069
1980.0,0.0069
1979.0,0.007
1978.0,0.007
1977.0,0.007
1976.0,0.007
1975.0,0.0069
1974.0,0.0069
1973.0,0.0069
1972.0,0.0069
1971.0,0.0069
1970.0,0.0069
1969.0,0.0069
1968.0,0.0069
1967.0,0.0068
1966.0,0.0069
1965.0,0.0069
1964.0,0.0069
1963.0,0.007
1962.0,0.0069
1961.0,0.0069
1960.0,0.0068
1959.0,0.0068
1958.0,0.0068
1957.0,0.0068
1956.0,0.0069
1955.0,0.007
1954.0,0.007
1953.0,0.0069
1952.0,0.0069
1951.0,0.0069
1950.0,0.0069
1949.0,0.0069
1948.0,0.0069
1947.0,0.007
1946.0,0.007
1945.0,0.0071
1944.0,0.0071
1943.0,0.0071
1942.0,0.007
1941.0,0.007
1940.0,0.007
1939.0,0.0071
1938.0,0.0071
1937.0,0.007
1936.0,0.007
1935.0,0.007
1934.0,0.0069
1933.0,0.0069
1932.0,0.0069
1931.0,0.0069
1930.0,0.0069
1929.0,0.0069
1928.0,0.0068
1927.0,0.0068
1926.0,0.0068
1925.0,0.0068
1924.0,0.0068
1923.0,0.0067
1922.0,0.0066
1921.0,0.0066
1920.0,0.0066
1919.0,0.0065
1918.0,0.0064
1917.0,0.0064
1916.0,0.0064
1915.0,0.0065
1914.0,0.0065
1913.0,0.0065
1912.0,0.0065
1911.0,0.0065
1910.0,0.0065
1909.0,0.0065
1908.0,0.0065
1907.0,0.0065
1906.0,0.0064
1905.0,0.0064
1904.0,0.0064
1903.0,0.0064
1902.0,0.0063
1901.0,0.0063
1900.0,0.0063
1899.0,0.0063
1898.0,0.0063
1897.0,0.0063
1896.0,0.0063
1895.0,0.0063
1894.0,0.0063
1893.0,0.0063
1892.0,0.0063
1891.0,0.0063
1890.0,0.0062
1889.0,0.0063
1888.0,0.0063
1887.0,0.0063
1886.0,0.0063
1885.0,0.0063
1884.0,0.0063
1883.0,0.0063
1882.0,0.0063
1881.0,0.0063
1880.0,0.0063
1879.0,0.0063
1878.0,0.0063
1877.0,0.0063
1876.0,0.0063
1875.0,0.0064
1874.0,0.0064
1873.0,0.0064
1872.0,0.0065
1871.0,0.0065
1870.0,0.0065
1869.0,0.0065
1868.0,0.0065
1867.0,0.0064
1866.0,0.0064
1865.0,0.0064
1864.0,0.0064
1863.0,0.0064
1862.0,0.0064
1861.0,0.0064
1860.0,0.0063
1859.0,0.0063
1858.0,0.0063
1857.0,0.0062
1856.0,0.0062
1855.0,0.0062
1854.0,0.0062
1853.0,0.0062
1852.0,0.0063
1851.0,0.0063
1850.0,0.0063
1849.0,0.0062
1848.0,0.0062
1847.0,0.0061
1846.0,0.0061
1845.0,0.0061
1844.0,0.006
1843.0,0.006
1842.0,0.006
1841.0,0.006
1840.0,0.006
1839.0,0.0059
1838.0,0.0059
1837.0,0.0058
1836.0,0.0059
1835.0,0.0059
1834.0,0.0059
1833.0,0.006
1832.0,0.006
1831.0,0.006
1830.0,0.0059
1829.0,0.0059
1828.0,0.006
1827.0,0.006
1826.0,0.0059
1825.0,0.0059
1824.0,0.0058
1823.0,0.0058
1822.0,0.0058
1821.0,0.0058
1820.0,0.0059
1819.0,0.0059
1818.0,0.0059
1817.0,0.0058
1816.0,0.0058
1815.0,0.0059
1814.0,0.0059
1813.0,0.0059
1812.0,0.006
1811.0,0.006
1810.0,0.006
1809.0,0.006
1808.0,0.006
1807.0,0.0061
1806.0,0.0061
1805.0,0.0061
1804.0,0.0061
1803.0,0.0062
1802.0,0.0061
1801.0,0.0061
1800.0,0.0061
1799.0,0.0061
1798.0,0.0061
1797.0,0.0061
1796.0,0.0061
1795.0,0.0061
1794.0,0.0061
1793.0,0.006
1792.0,0.006
1791.0,0.006
1790.0,0.0059
1789.0,0.0059
1788.0,0.0059
1787.0,0.0059
1786.0,0.0058
1785.0,0.0058
1784.0,0.0058
1783.0,0.0058
1782.0,0.0057
1781.0,0.0057
1780.0,0.0058
1779.0,0.0058
1778.0,0.0058
1777.0,0.0058
1776.0,0.0058
1775.0,0.0057
1774.0,0.0057
1773.0,0.0056
1772.0,0.0057
1771.0,0.0057
1770.0,0.0057
1769.0,0.0056
1768.0,0.0056
1767.0,0.0055
1766.0,0.0056
1765.0,0.0056
1764.0,0.0057
1763.0,0.0056
1762.0,0.0056
1761.0,0.0055
1760.0,0.0055
1759.0,0.0055
1758.0,0.0055
1757.0,0.0055
1756.0,0.0056
1755.0,0.0056
1754.0,0.0056
1753.0,0.0056
1752.0,0.0056
1751.0,0.0057
1750.0,0.0057
1749.0,0.0058
1748.0,0.0058
1747.0,0.0059
1746.0,0.0059
1745.0,0.0059
1744.0,0.0059
1743.0,0.0059
1742.0,0.0059
1741.0,0.0059
1740.0,0.0059
1739.0,0.0059
1738.0,0.0059
1737.0,0.006
1736.0,0.006
1735.0,0.0061
1734.0,0.006
1733.0,0.006
1732.0,0.006
1731.0,0.006
1730.0,0.006
1729.0,0.006
1728.0,0.0061
1727.0,0.0061
1726.0,0.0061
1725.0,0.0061
1724.0,0.0062
1723.0,0.0062
1722.0,0.0063
1721.0,0.0064
1720.0,0.0065
1719.0,0.0065
1718.0,0.0063
1717.0,0.0062
1716.0,0.0064
1715.0,0.0065
1714.0,0.0067
1713.0,0.0068
1712.0,0.007
1711.0,0.0071
1710.0,0.0071
1709.0,0.0073
1708.0,0.0076
1707.0,0.0079
1706.0,0.0081
1705.0,0.0083
1704.0,0.0087
1703.0,0.0089
1702.0,0.0092
1701.0,0.0098
1700.0,0.0109
1699.0,0.0116
1698.0,0.0122
1697.0,0.0132
1696.0,0.015
1695.0,0.0167
1694.0,0.018
1693.0,0.0194
1692.0,0.0213
1691.0,0.0237
1690.0,0.0266
1689.0,0.0298
1688.0,0.0328
1687.0,0.0352
1686.0,0.0377
1685.0,0.0415
1684.0,0.0459
1683.0,0.048
1682.0,0.0481
1681.0,0.0475
1680.0,0.0463
1679.0,0.0448
1678.0,0.0431
1677.0,0.041
1676.0,0.0382
1675.0,0.0352
1674.0,0.0329
1673.0,0.0312
1672.0,0.0297
1671.0,0.0279
1670.0,0.026
1669.0,0.0242
1668.0,0.0229
1667.0,0.022
1666.0,0.0213
1665.0,0.0207
1664.0,0.0199
1663.0,0.0191
1662.0,0.0185
1661.0,0.018
1660.0,0.0176
1659.0,0.0172
1658.0,0.0169
1657.0,0.0166
1656.0,0.0163
1655.0,0.016
1654.0,0.0156
1653.0,0.0154
1652.0,0.0154
1651.0,0.0153
1650.0,0.0153
1649.0,0.0153
1648.0,0.0152
1647.0,0.0152
1646.0,0.0154
1645.0,0.0155
1644.0,0.0156
1643.0,0.0158
1642.0,0.016
1641.0,0.0164
1640.0,0.0168
1639.0,0.0172
1638.0,0.0177
1637.0,0.0185
1636.0,0.0199
1635.0,0.0213
1634.0,0.0225
1633.0,0.0237
1632.0,0.0251
1631.0,0.0268
1630.0,0.029
1629.0,0.0321
1628.0,0.0361
1627.0,0.0403
1626.0,0.0443
1625.0,0.049
1624.0,0.0555
1623.0,0.0628
1622.0,0.0684
1621.0,0.0719
1620.0,0.0741
1619.0,0.0752
1618.0,0.0743
1617.0,0.0713
1616.0,0.0674
1615.0,0.0638
1614.0,0.0603
1613.0,0.0565
1612.0,0.0526
1611.0,0.0487
1610.0,0.045
1609.0,0.0414
1608.0,0.0384
1607.0,0.0359
1606.0,0.0339
1605.0,0.0323
1604.0,0.031
1603.0,0.0299
1602.0,0.0289
1601.0,0.0279
1600.0,0.0268
1599.0,0.0257
1598.0,0.0245
1597.0,0.0233
1596.0,0.0221
1595.0,0.0211
1594.0,0.0202
1593.0,0.0193
1592.0,0.0185
1591.0,0.0178
1590.0,0.0172
1589.0,0.0166
1588.0,0.0161
1587.0,0.0157
1586.0,0.0155
1585.0,0.0154
1584.0,0.0153
1583.0,0.0151
1582.0,0.0149
1581.0,0.0145
1580.0,0.0141
1579.0,0.0138
1578.0,0.0134
1577.0,0.0129
1576.0,0.0125
1575.0,0.0122
1574.0,0.0121
1573.0,0.012
1572.0,0.0119
1571.0,0.0117
1570.0,0.0115
1569.0,0.0113
1568.0,0.0111
1567.0,0.011
1566.0,0.0109
1565.0,0.0107
1564.0,0.0105
1563.0,0.0104
1562.0,0.0104
1561.0,0.0104
1560.0,0.0101
1559.0,0.0098
1558.0,0.0097
1557.0,0.0096
1556.0,0.0095
1555.0,0.0095
1554.0,0.0095
1553.0,0.0094
1552.0,0.0093
1551.0,0.0093
1550.0,0.0092
1549.0,0.0091
1548.0,0.009
1547.0,0.009
1546.0,0.009
1545.0,0.0089
1544.0,0.0089
1543.0,0.0089
1542.0,0.0088
1541.0,0.0087
1540.0,0.0087
1539.0,0.0087
1538.0,0.0086
1537.0,0.0085
1536.0,0.0085
1535.0,0.0084
1534.0,0.0084
1533.0,0.0083
1532.0,0.0081
1531.0,0.008
1530.0,0.0079
1529.0,0.0078
1528.0,0.0077
1527.0,0.0076
1526.0,0.0075
1525.0,0.0074
1524.0,0.0072
1523.0,0.0071
1522.0,0.0069
1521.0,0.0068
1520.0,0.0067
1519.0,0.0067
1518.0,0.0067
1517.0,0.0066
1516.0,0.0064
1515.0,0.0062
1514.0,0.006
1513.0,0.0059
1512.0,0.0057
1511.0,0.0056
1510.0,0.0056
1509.0,0.0056
1508.0,0.0054
1507.0,0.0052
1506.0,0.0049
1505.0,0.0046
1504.0,0.0043
1503.0,0.0041
1502.0,0.0039
1501.0,0.0038
1500.0,0.0038
1499.0,0.0041
1498.0,0.005
1497.0,0.0068
1496.0,0.0093
1495.0,0.0119
1494.0,0.014
1493.0,0.0155
1492.0,0.0162
1491.0,0.0158
1490.0,0.0145
1489.0,0.013
1488.0,0.0118
1487.0,0.0109
1486.0,0.0103
1485.0,0.0097
1484.0,0.0092
1483.0,0.0087
1482.0,0.0082
1481.0,0.0078
1480.0,0.0075
1479.0,0.0073
1478.0,0.0071
1477.0,0.0069
1476.0,0.0067
1475.0,0.0065
1474.0,0.0062
1473.0,0.006
1472.0,0.0059
1471.0,0.0057
1470.0,0.0056
1469.0,0.0055
1468.0,0.0055
1467.0,0.0053
1466.0,0.0052
1465.0,0.005
1464.0,0.0049
1463.0,0.0047
1462.0,0.0046
1461.0,0.0044
1460.0,0.0043
1459.0,0.0043
1458.0,0.0048
1457.0,0.0065
1456.0,0.0088
1455.0,0.0109
1454.0,0.0128
1453.0,0.0146
1452.0,0.0157
1451.0,0.0161
1450.0,0.0159
1449.0,0.0154
1448.0,0.0148
1447.0,0.0143
1446.0,0.0139
1445.0,0.0136
1444.0,0.0132
1443.0,0.0127
1442.0,0.0123
1441.0,0.0119
1440.0,0.0116
1439.0,0.0112
1438.0,0.0108
1437.0,0.0104
1436.0,0.01
1435.0,0.0097
1434.0,0.0094
1433.0,0.0092
1432.0,0.0089
1431.0,0.0087
1430.0,0.0085
1429.0,0.0083
1428.0,0.0081
1427.0,0.0079
1426.0,0.0078
1425.0,0.0076
1424.0,0.0075
1423.0,0.0074
1422.0,0.0073
1421.0,0.0072
1420.0,0.007
1419.0,0.0068
1418.0,0.0067
1417.0,0.0066
1416.0,0.0065
1415.0,0.0064
1414.0,0.0064
1413.0,0.0063
1412.0,0.0061
1411.0,0.006
1410.0,0.0059
1409.0,0.0059
1408.0,0.0058
1407.0,0.0058
1406.0,0.0057
1405.0,0.0057
1404.0,0.0056
1403.0,0.0055
1402.0,0.0054
1401.0,0.0054
1400.0,0.0054
1399.0,0.0054
1398.0,0.0053
1397.0,0.0053
1396.0,0.0052
1395.0,0.0051
1394.0,0.005
1393.0,0.005
1392.0,0.0049
1391.0,0.005
1390.0,0.005
1389.0,0.0051
1388.0,0.0052
1387.0,0.0053
1386.0,0.0053
1385.0,0.0053
1384.0,0.0053
1383.0,0.0054
1382.0,0.0055
1381.0,0.0055
1380.0,0.0056
1379.0,0.0057
1378.0,0.0058
1377.0,0.0059
1376.0,0.006
1375.0,0.006
1374.0,0.0061
1373.0,0.0062
1372.0,0.0061
1371.0,0.0061
1370.0,0.0061
1369.0,0.0061
1368.0,0.0061
1367.0,0.0061
1366.0,0.0062
1365.0,0.0062
1364.0,0.0062
1363.0,0.0063
1362.0,0.0063
1361.0,0.0062
1360.0,0.0062
1359.0,0.0061
1358.0,0.006
1357.0,0.006
1356.0,0.006
1355.0,0.006
1354.0,0.006
1353.0,0.006
1352.0,0.006
1351.0,0.006
1350.0,0.006
1349.0,0.006
1348.0,0.006
1347.0,0.006
1346.0,0.006
1345.0,0.006
1344.0,0.0059
1343.0,0.0059
1342.0,0.0059
1341.0,0.0058
1340.0,0.0057
1339.0,0.0057
1338.0,0.0058
1337.0,0.0058
1336.0,0.0058
1335.0,0.0058
1334.0,0.0058
1333.0,0.0059
1332.0,0.006
1331.0,0.006
1330.0,0.0061
1329.0,0.0061
1328.0,0.0061
1327.0,0.0061
1326.0,0.0061
1325.0,0.0061
1324.0,0.0061
1323.0,0.0062
1322.0,0.0062
1321.0,0.0061
1320.0,0.0061
1319.0,0.0061
1318.0,0.006
1317.0,0.006
1316.0,0.006
1315.0,0.006
1314.0,0.006
1313.0,0.006
1312.0,0.0061
1311.0,0.0061
1310.0,0.0061
1309.0,0.0061
1308.0,0.0061
1307.0,0.0061
1306.0,0.0061
1305.0,0.0062
1304.0,0.0062
1303.0,0.0061
1302.0,0.0061
1301.0,0.006
1300.0,0.006
1299.0,0.0059
1298.0,0.0059
1297.0,0.0059
1296.0,0.0059
1295.0,0.006
1294.0,0.006
1293.0,0.006
1292.0,0.006
1291.0,0.006
1290.0,0.006
1289.0,0.006
1288.0,0.006
1287.0,0.006
1286.0,0.006
1285.0,0.0059
1284.0,0.0059
1283.0,0.006
1282.0,0.006
1281.0,0.006
1280.0,0.006
1279.0,0.006
1278.0,0.006
1277.0,0.006
1276.0,0.0059
1275.0,0.0059
1274.0,0.0059
1273.0,0.0059
1272.0,0.0059
1271.0,0.0059
1270.0,0.0058
1269.0,0.0058
1268.0,0.0058
1267.0,0.0058
1266.0,0.0058
1265.0,0.0059
1264.0,0.0059
1263.0,0.006
1262.0,0.006
1261.0,0.0061
1260.0,0.0062
1259.0,0.0062
1258.0,0.0062
1257.0,0.0063
1256.0,0.0064
1255.0,0.0065
1254.0,0.0066
1253.0,0.0067
1252.0,0.0068
1251.0,0.0068
1250.0,0.007
1249.0,0.0072
1248.0,0.0073
1247.0,0.0075
1246.0,0.0076
1245.0,0.0078
1244.0,0.0079
1243.0,0.008
1242.0,0.0082
1241.0,0.0083
1240.0,0.0084
1239.0,0.0086
1238.0,0.0087
1237.0,0.0089
1236.0,0.009
1235.0,0.0093
1234.0,0.0095
1233.0,0.0097
1232.0,0.0099
1231.0,0.0101
1230.0,0.0103
1229.0,0.0105
1228.0,0.0107
1227.0,0.0108
1226.0,0.011
1225.0,0.0112
1224.0,0.0114
1223.0,0.0116
1222.0,0.0119
1221.0,0.0121
1220.0,0.0123
1219.0,0.0125
1218.0,0.0127
1217.0,0.013
1216.0,0.0133
1215.0,0.0136
1214.0,0.0139
1213.0,0.0143
1212.0,0.0146
1211.0,0.015
1210.0,0.0155
1209.0,0.016
1208.0,0.0165
1207.0,0.0172
1206.0,0.0179
1205.0,0.0186
1204.0,0.0194
1203.0,0.0202
1202.0,0.021
1201.0,0.0219
1200.0,0.0228
1199.0,0.0237
1198.0,0.0247
1197.0,0.0256
1196.0,0.0266
1195.0,0.0274
1194.0,0.0283
1193.0,0.029
1192.0,0.0296
1191.0,0.03
1190.0,0.0303
1189.0,0.0305
1188.0,0.0307
1187.0,0.0309
1186.0,0.0312
1185.0,0.0315
1184.0,0.0319
1183.0,0.0324
1182.0,0.033
1181.0,0.0337
1180.0,0.0345
1179.0,0.0353
1178.0,0.0361
1177.0,0.037
1176.0,0.038
1175.0,0.0391
1174.0,0.0403
1173.0,0.0416
1172.0,0.0431
1171.0,0.0447
1170.0,0.0464
1169.0,0.0481
1168.0,0.05
1167.0,0.0519
1166.0,0.0539
1165.0,0.056
1164.0,0.0582
1163.0,0.0606
1162.0,0.063
1161.0,0.0655
1160.0,0.0681
1159.0,0.0707
1158.0,0.0734
1157.0,0.0764
1156.0,0.0795
1155.0,0.0828
1154.0,0.0861
1153.0,0.0896
1152.0,0.0934
1151.0,0.0973
1150.0,0.1014
1149.0,0.1058
1148.0,0.1104
1147.0,0.1153
1146.0,0.1205
1145.0,0.126
1144.0,0.132
1143.0,0.1382
1142.0,0.1447
1141.0,0.1515
1140.0,0.1584
1139.0,0.1655
1138.0,0.1726
1137.0,0.1796
1136.0,0.1866
1135.0,0.1934
1134.0,0.1998
1133.0,0.206
1132.0,0.2121
1131.0,0.2178
1130.0,0.2231
1129.0,0.2284
1128.0,0.2335
1127.0,0.2385
1126.0,0.2433
1125.0,0.2484
1124.0,0.2537
1123.0,0.259
1122.0,0.2645
1121.0,0.2704
1120.0,0.2765
1119.0,0.2828
1118.0,0.2892
1117.0,0.2959
1116.0,0.3029
1115.0,0.31
1114.0,0.317
1113.0,0.324
1112.0,0.3308
1111.0,0.3369
1110.0,0.342
1109.0,0.3463
1108.0,0.3499
1107.0,0.3524
1106.0,0.3538
1105.0,0.3546
1104.0,0.3548
1103.0,0.3542
1102.0,0.3529
1101.0,0.3514
1100.0,0.3498
1099.0,0.3477
1098.0,0.3451
1097.0,0.3426
1096.0,0.34
1095.0,0.337
1094.0,0.3337
1093.0,0.3301
1092.0,0.3266
1091.0,0.3228
1090.0,0.3187
1089.0,0.3148
1088.0,0.3109
1087.0,0.307
1086.0,0.3029
1085.0,0.2991
1084.0,0.2955
1083.0,0.2919
1082.0,0.2883
1081.0,0.2849
1080.0,0.2817
1079.0,0.2785
1078.0,0.2752
1077.0,0.2722
1076.0,0.2694
1075.0,0.2666
1074.0,0.2637
1073.0,0.261
1072.0,0.2585
1071.0,0.2558
1070.0,0.2529
1069.0,0.25
1068.0,0.2472
1067.0,0.2442
1066.0,0.241
1065.0,0.2379
1064.0,0.2349
1063.0,0.2317
1062.0,0.2284
1061.0,0.2253
1060.0,0.2223
1059.0,0.2194
1058.0,0.2164
1057.0,0.2135
1056.0,0.2108
1055.0,0.2079
1054.0,0.2051
1053.0,0.2024
1052.0,0.1998
1051.0,0.1973
1050.0,0.1948
1049.0,0.1924
1048.0,0.1902
1047.0,0.1878
1046.0,0.1854
1045.0,0.1831
1044.0,0.1809
1043.0,0.1787
1042.0,0.1765
1041.0,0.1743
1040.0,0.1723
1039.0,0.1704
1038.0,0.1686
1037.0,0.1669
1036.0,0.1656
1035.0,0.1645
1034.0,0.1636
1033.0,0.1631
1032.0,0.1629
1031.0,0.1627
1030.0,0.1624
1029.0,0.1618
1028.0,0.1609
1027.0,0.1597
1026.0,0.1581
1025.0,0.1564
1024.0,0.1546
1023.0,0.1527
1022.0,0.1509
1021.0,0.1492
1020.0,0.1476
1019.0,0.1461
1018.0,0.1445
1017.0,0.143
1016.0,0.1416
1015.0,0.1403
1014.0,0.139
1013.0,0.1379
1012.0,0.1369
1011.0,0.1361
1010.0,0.1358
1009.0,0.1365
1008.0,0.1384
1007.0,0.1413
1006.0,0.1445
1005.0,0.1467
1004.0,0.1469
1003.0,0.145
1002.0,0.1419
1001.0,0.1385
1000.0,0.1354
999.0,0.1328
998.0,0.1307
997.0,0.1288
996.0,0.1273
995.0,0.126
994.0,0.1248
993.0,0.1238
992.0,0.123
991.0,0.1221
990.0,0.1213
989.0,0.1205
988.0,0.1198
987.0,0.119
986.0,0.1182
985.0,0.1174
984.0,0.1167
983.0,0.1161
982.0,0.1154
981.0,0.1149
980.0,0.1143
979.0,0.1136
978.0,0.1129
977.0,0.1121
976.0,0.1114
975.0,0.1107
974.0,0.1099
973.0,0.1093
972.0,0.1088
971.0,0.1082
970.0,0.1077
969.0,0.1072
968.0,0.1068
967.0,0.1064
966.0,0.106
965.0,0.1057
964.0,0.1055
963.0,0.1052
962.0,0.1048
961.0,0.1042
960.0,0.1035
959.0,0.1028
958.0,0.1021
957.0,0.1016
956.0,0.1011
955.0,0.1006
954.0,0.1
953.0,0.0994
952.0,0.099
951.0,0.0986
950.0,0.0982
949.0,0.098
948.0,0.0978
947.0,0.0975
946.0,0.0971
945.0,0.0967
944.0,0.0963
943.0,0.096
942.0,0.0956
941.0,0.0953
940.0,0.0949
939.0,0.0944
938.0,0.0939
937.0,0.0935
936.0,0.0931
935.0,0.0927
934.0,0.0923
933.0,0.0918
932.0,0.0914
931.0,0.0909
930.0,0.0905
929.0,0.09
928.0,0.0896
927.0,0.0891
926.0,0.0887
925.0,0.0883
924.0,0.088
923.0,0.0876
922.0,0.0872
921.0,0.0868
920.0,0.0865
919.0,0.0862
918.0,0.0858
917.0,0.0856
916.0,0.0856
915.0,0.0856
914.0,0.0858
913.0,0.086
912.0,0.0863
911.0,0.0866
910.0,0.0869
909.0,0.0872
908.0,0.0876
907.0,0.0878
906.0,0.0879
905.0,0.0879
904.0,0.0877
903.0,0.0874
902.0,0.0868
901.0,0.0861
900.0,0.0854
899.0,0.0847
898.0,0.084
897.0,0.0833
896.0,0.0828
895.0,0.0824
894.0,0.0819
893.0,0.0814
892.0,0.0809
891.0,0.0804
890.0,0.0798
889.0,0.0794
888.0,0.0792
887.0,0.079
886.0,0.0787
885.0,0.0785
884.0,0.0782
883.0,0.0778
882.0,0.0775
881.0,0.0773
880.0,0.077
879.0,0.0767
878.0,0.0764
877.0,0.076
876.0,0.0757
875.0,0.0754
874.0,0.0751
873.0,0.0748
872.0,0.0745
871.0,0.0741
870.0,0.0736
869.0,0.0732
868.0,0.0729
867.0,0.0726
866.0,0.0723
865.0,0.0719
864.0,0.0715
863.0,0.0711
862.0,0.0708
861.0,0.0705
860.0,0.0703
859.0,0.0701
858.0,0.0698
857.0,0.0695
856.0,0.0693
855.0,0.0689
854.0,0.0685
853.0,0.0681
852.0,0.0678
851.0,0.0675
850.0,0.0673
849.0,0.0672
848.0,0.0672
847.0,0.0672
846.0,0.0672
845.0,0.0672
844.0,0.0672
843.0,0.0671
842.0,0.067
841.0,0.0668
840.0,0.0666
839.0,0.0663
838.0,0.066
837.0,0.0656
836.0,0.0653
835.0,0.0648
834.0,0.0643
833.0,0.0637
832.0,0.0633
831.0,0.0631
830.0,0.0628
829.0,0.0624
828.0,0.062
827.0,0.0616
826.0,0.0612
825.0,0.0609
824.0,0.0607
823.0,0.0604
822.0,0.0601
821.0,0.0598
820.0,0.0595
819.0,0.0592
818.0,0.0588
817.0,0.0584
816.0,0.058
815.0,0.0576
814.0,0.0573
813.0,0.0572
812.0,0.0571
811.0,0.0569
810.0,0.0566
809.0,0.0563
808.0,0.0559
807.0,0.0555
806.0,0.0551
805.0,0.0547
804.0,0.0544
803.0,0.0541
802.0,0.0538
801.0,0.0535
800.0,0.0531
799.0,0.0528
798.0,0.0525
797.0,0.0522
796.0,0.0519
795.0,0.0516
794.0,0.0513
793.0,0.051
792.0,0.0508
791.0,0.0506
790.0,0.0504
789.0,0.0501
788.0,0.0499
787.0,0.0497
786.0,0.0496
785.0,0.0495
784.0,0.0493
783.0,0.0492
782.0,0.0491
781.0,0.0491
780.0,0.0493
779.0,0.0496
778.0,0.05
777.0,0.0505
776.0,0.0511
775.0,0.0518
774.0,0.0526
773.0,0.0536
772.0,0.0547
771.0,0.0561
770.0,0.0576
769.0,0.0593
768.0,0.061
767.0,0.0628
766.0,0.0646
765.0,0.0667
764.0,0.0688
763.0,0.0709
762.0,0.0729
761.0,0.075
760.0,0.0771
759.0,0.0791
758.0,0.0808
757.0,0.0824
756.0,0.0836
755.0,0.0844
754.0,0.0848
753.0,0.0849
752.0,0.085
751.0,0.0851
750.0,0.0852
749.0,0.0855
748.0,0.0859
747.0,0.086
746.0,0.0855
745.0,0.0846
744.0,0.0832
743.0,0.0814
742.0,0.0792
741.0,0.0768
740.0,0.0743
739.0,0.072
738.0,0.0698
737.0,0.0678
736.0,0.0658
735.0,0.0636
734.0,0.0614
733.0,0.0593
732.0,0.0574
731.0,0.0557
730.0,0.0541
729.0,0.0526
728.0,0.0513
727.0,0.0499
726.0,0.0486
725.0,0.0473
724.0,0.0462
723.0,0.0451
722.0,0.044
721.0,0.0428
720.0,0.0416
719.0,0.0404
718.0,0.0391
717.0,0.0377
716.0,0.0363
715.0,0.0351
714.0,0.0341
713.0,0.0338
712.0,0.034
711.0,0.0349
710.0,0.0366
709.0,0.0394
708.0,0.0438
707.0,0.0498
706.0,0.0574
705.0,0.0667
704.0,0.0775
703.0,0.0892
702.0,0.1017
701.0,0.115
700.0,0.1293
699.0,0.1438
698.0,0.1575
697.0,0.1691
696.0,0.1771
695.0,0.1795
694.0,0.1757
693.0,0.1671
692.0,0.156
691.0,0.1446
690.0,0.1347
689.0,0.1271
688.0,0.121
687.0,0.1157
686.0,0.1111
685.0,0.1081
684.0,0.107
683.0,0.1073
682.0,0.1091
681.0,0.1134
680.0,0.1198
679.0,0.1263
678.0,0.1314
677.0,0.1363
676.0,0.1426
675.0,0.1503
674.0,0.1583
673.0,0.1656
672.0,0.1717
671.0,0.1764
670.0,0.1809
669.0,0.1895
668.0,0.2013
667.0,0.2068
666.0,0.2054
665.0,0.2014
664.0,0.1952
663.0,0.186
662.0,0.1741
661.0,0.1617
660.0,0.1504
659.0,0.1407
658.0,0.1324
657.0,0.125
656.0,0.1185
655.0,0.113
654.0,0.1089
653.0,0.1062
652.0,0.1045
651.0,0.1036
650.0,0.1028
649.0,0.1017
648.0,0.1006
647.0,0.0997
646.0,0.099
645.0,0.0983
644.0,0.0978
643.0,0.0977
642.0,0.0982
641.0,0.0993
640.0,0.1008
639.0,0.1023
638.0,0.104
637.0,0.1061
636.0,0.1085
635.0,0.1106
634.0,0.112
633.0,0.1129
632.0,0.1137
631.0,0.1144
630.0,0.1146
629.0,0.1146
628.0,0.1147
627.0,0.115
626.0,0.1157
625.0,0.1168
624.0,0.1182
623.0,0.1195
622.0,0.1208
621.0,0.1225
620.0,0.1246
619.0,0.1267
618.0,0.1291
617.0,0.1321
616.0,0.1362
615.0,0.1406
614.0,0.1448
613.0,0.1486
612.0,0.1525
611.0,0.1563
610.0,0.1604
609.0,0.1661
608.0,0.1747
607.0,0.1855
606.0,0.197
605.0,0.2088
604.0,0.2206
603.0,0.232
602.0,0.2425
601.0,0.2531
600.0,0.2631
