cm-1,A
4000.0,0.0087
3999.0,0.0087
3998.0,0.0088
3997.0,0.0088
3996.0,0.0089
3995.0,0.0089
3994.0,0.0089
3993.0,0.009
3992.0,0.009
3991.0,0.009
3990.0,0.009
3989.0,0.009
3988.0,0.009
3987.0,0.0091
3986.0,0.0091
3985.0,0.0091
3984.0,0.0091
3983.0,0.0091
3982.0,0.0091
3981.0,0.0091
3980.0,0.0091
3979.0,0.009
3978.0,0.0089
3977.0,0.0088
3976.0,0.0088
3975.0,0.0088
3974.0,0.0089
3973.0,0.009
3972.0,0.0091
3971.0,0.0091
3970.0,0.0091
3969.0,0.009
3968.0,0.009
3967.0,0.009
3966.0,0.009
3965.0,0.009
3964.0,0.009
3963.0,0.009
3962.0,0.009
3961.0,0.009
3960.0,0.009
3959.0,0.009
3958.0,0.009
3957.0,0.009
3956.0,0.009
3955.0,0.009
3954.0,0.0089
3953.0,0.0089
3952.0,0.0089
3951.0,0.009
3950.0,0.009
3949.0,0.0091
3948.0,0.0091
3947.0,0.009
3946.0,0.009
3945.0,0.009
3944.0,0.009
3943.0,0.009
3942.0,0.0091
3941.0,0.0091
3940.0,0.0092
3939.0,0.0093
3938.0,0.0093
3937.0,0.0093
3936.0,0.0093
3935.0,0.0092
3934.0,0.0091
3933.0,0.0091
3932.0,0.009
3931.0,0.0091
3930.0,0.0091
3929.0,0.0091
3928.0,0.0091
3927.0,0.0091
3926.0,0.009
3925.0,0.009
3924.0,0.009
3923.0,0.0091
3922.0,0.0091
3921.0,0.009
3920.0,0.009
3919.0,0.009
3918.0,0.009
3917.0,0.009
3916.0,0.0091
3915.0,0.0091
3914.0,0.0091
3913.0,0.0091
3912.0,0.0091
3911.0,0.0092
3910.0,0.0092
3909.0,0.0093
3908.0,0.0092
3907.0,0.0091
3906.0,0.009
3905.0,0.009
3904.0,0.0091
3903.0,0.0092
3902.0,0.0092
3901.0,0.0091
3900.0,0.009
3899.0,0.009
3898.0,0.009
3897.0,0.009
3896.0,0.009
3895.0,0.009
3894.0,0.0089
3893.0,0.0089
3892.0,0.0089
3891.0,0.009
3890.0,0.0091
3889.0,0.0092
3888.0,0.0093
3887.0,0.0093
3886.0,0.0093
3885.0,0.0093
3884.0,0.0093
3883.0,0.0093
3882.0,0.0093
3881.0,0.0093
3880.0,0.0093
3879.0,0.0093
3878.0,0.0094
3877.0,0.0094
3876.0,0.0094
3875.0,0.0094
3874.0,0.0094
3873.0,0.0094
3872.0,0.0095
3871.0,0.0096
3870.0,0.0096
3869.0,0.0096
3868.0,0.0095
3867.0,0.0094
3866.0,0.0093
3865.0,0.0092
3864.0,0.0091
3863.0,0.0091
3862.0,0.009
3861.0,0.009
3860.0,0.009
3859.0,0.0092
3858.0,0.0093
3857.0,0.0094
3856.0,0.0093
3855.0,0.0089
3854.0,0.0085
3853.0,0.0083
3852.0,0.0084
3851.0,0.0087
3850.0,0.0089
3849.0,0.0091
3848.0,0.0092
3847.0,0.0093
3846.0,0.0094
3845.0,0.0094
3844.0,0.0093
3843.0,0.0093
3842.0,0.0093
3841.0,0.0093
3840.0,0.0094
3839.0,0.0095
3838.0,0.0095
3837.0,0.0095
3836.0,0.0094
3835.0,0.0094
3834.0,0.0094
3833.0,0.0094
3832.0,0.0094
3831.0,0.0094
3830.0,0.0094
3829.0,0.0094
3828.0,0.0095
3827.0,0.0095
3826.0,0.0094
3825.0,0.0094
3824.0,0.0095
3823.0,0.0097
3822.0,0.0098
3821.0,0.0098
3820.0,0.0098
3819.0,0.0096
3818.0,0.0095
3817.0,0.0094
3816.0,0.0093
3815.0,0.0093
3814.0,0.0093
3813.0,0.0093
3812.0,0.0094
3811.0,0.0095
3810.0,0.0095
3809.0,0.0095
3808.0,0.0096
3807.0,0.0096
3806.0,0.0097
3805.0,0.0098
3804.0,0.0098
3803.0,0.0097
3802.0,0.0097
3801.0,0.0097
3800.0,0.0097
3799.0,0.0097
3798.0,0.0097
3797.0,0.0097
3796.0,0.0096
3795.0,0.0096
3794.0,0.0095
3793.0,0.0094
3792.0,0.0094
3791.0,0.0093
3790.0,0.0093
3789.0,0.0094
3788.0,0.0094
3787.0,0.0095
3786.0,0.0095
3785.0,0.0096
3784.0,0.0096
3783.0,0.0096
3782.0,0.0096
3781.0,0.0095
3780.0,0.0094
3779.0,0.0093
3778.0,0.0093
3777.0,0.0094
3776.0,0.0095
3775.0,0.0096
3774.0,0.0096
3773.0,0.0097
3772.0,0.0097
3771.0,0.0098
3770.0,0.0099
3769.0,0.0099
3768.0,0.0099
3767.0,0.0098
3766.0,0.0098
3765.0,0.0098
3764.0,0.0098
3763.0,0.0098
3762.0,0.0099
3761.0,0.0098
3760.0,0.0098
3759.0,0.0098
3758.0,0.0098
3757.0,0.0098
3756.0,0.0097
3755.0,0.0096
3754.0,0.0095
3753.0,0.0094
3752.0,0.0093
3751.0,0.0093
3750.0,0.0092
3749.0,0.0091
3748.0,0.009
3747.0,0.009
3746.0,0.009
3745.0,0.0091
3744.0,0.0091
3743.0,0.0091
3742.0,0.0091
3741.0,0.0092
3740.0,0.0093
3739.0,0.0093
3738.0,0.0092
3737.0,0.0091
3736.0,0.0091
3735.0,0.009
3734.0,0.0088
3733.0,0.0086
3732.0,0.0085
3731.0,0.0084
3730.0,0.0083
3729.0,0.0083
3728.0,0.0083
3727.0,0.0083
3726.0,0.0084
3725.0,0.0086
3724.0,0.0088
3723.0,0.009
3722.0,0.0092
3721.0,0.0094
3720.0,0.0096
3719.0,0.0097
3718.0,0.0098
3717.0,0.0098
3716.0,0.0097
3715.0,0.0096
3714.0,0.0095
3713.0,0.0093
3712.0,0.0093
3711.0,0.0093
3710.0,0.0093
3709.0,0.0092
3708.0,0.009
3707.0,0.009
3706.0,0.009
3705.0,0.0091
3704.0,0.0091
3703.0,0.0091
3702.0,0.0091
3701.0,0.0091
3700.0,0.0091
3699.0,0.0092
3698.0,0.0093
3697.0,0.0093
3696.0,0.0093
3695.0,0.0093
3694.0,0.0092
3693.0,0.0092
3692.0,0.0091
3691.0,0.009
3690.0,0.0091
3689.0,0.0092
3688.0,0.0092
3687.0,0.0093
3686.0,0.0093
3685.0,0.0094
3684.0,0.0095
3683.0,0.0096
3682.0,0.0097
3681.0,0.0097
3680.0,0.0098
3679.0,0.0098
3678.0,0.0099
3677.0,0.0099
3676.0,0.01
3675.0,0.01
3674.0,0.0099
3673.0,0.0099
3672.0,0.0099
3671.0,0.0098
3670.0,0.0098
3669.0,0.0097
3668.0,0.0096
3667.0,0.0096
3666.0,0.0095
3665.0,0.0096
3664.0,0.0096
3663.0,0.0096
3662.0,0.0096
3661.0,0.0096
3660.0,0.0097
3659.0,0.0097
3658.0,0.0097
3657.0,0.0097
3656.0,0.0097
3655.0,0.0098
3654.0,0.0099
3653.0,0.01
3652.0,0.01
3651.0,0.01
3650.0,0.01
3649.0,0.0101
3648.0,0.0101
3647.0,0.0099
3646.0,0.0098
3645.0,0.0097
3644.0,0.0096
3643.0,0.0097
3642.0,0.0097
3641.0,0.0097
3640.0,0.0097
3639.0,0.0096
3638.0,0.0095
3637.0,0.0094
3636.0,0.0093
3635.0,0.0093
3634.0,0.0092
3633.0,0.0092
3632.0,0.0092
3631.0,0.0091
3630.0,0.0091
3629.0,0.0091
3628.0,0.0091
3627.0,0.0091
3626.0,0.0092
3625.0,0.0092
3624.0,0.0093
3623.0,0.0094
3622.0,0.0095
3621.0,0.0095
3620.0,0.0096
3619.0,0.0097
3618.0,0.0098
3617.0,0.0098
3616.0,0.0098
3615.0,0.0097
3614.0,0.0097
3613.0,0.0097
3612.0,0.0097
3611.0,0.0097
3610.0,0.0097
3609.0,0.0097
3608.0,0.0097
3607.0,0.0097
3606.0,0.0097
3605.0,0.0096
3604.0,0.0096
3603.0,0.0096
3602.0,0.0097
3601.0,0.0099
3600.0,0.0101
3599.0,0.0102
3598.0,0.0102
3597.0,0.0102
3596.0,0.0101
3595.0,0.0101
3594.0,0.0101
3593.0,0.01
3592.0,0.0099
3591.0,0.0099
3590.0,0.0099
3589.0,0.0099
3588.0,0.01
3587.0,0.0101
3586.0,0.0102
3585.0,0.0103
3584.0,0.0104
3583.0,0.0104
3582.0,0.0104
3581.0,0.0104
3580.0,0.0103
3579.0,0.0103
3578.0,0.0103
3577.0,0.0103
3576.0,0.0103
3575.0,0.0104
3574.0,0.0105
3573.0,0.0106
3572.0,0.0107
3571.0,0.0107
3570.0,0.0107
3569.0,0.0107
3568.0,0.0108
3567.0,0.0108
3566.0,0.0108
3565.0,0.0106
3564.0,0.0105
3563.0,0.0103
3562.0,0.0103
3561.0,0.0103
3560.0,0.0103
3559.0,0.0103
3558.0,0.0103
3557.0,0.0103
3556.0,0.0103
3555.0,0.0103
3554.0,0.0103
3553.0,0.0103
3552.0,0.0104
3551.0,0.0103
3550.0,0.0103
3549.0,0.0102
3548.0,0.0102
3547.0,0.0102
3546.0,0.0103
3545.0,0.0104
3544.0,0.0104
3543.0,0.0104
3542.0,0.0104
3541.0,0.0104
3540.0,0.0104
3539.0,0.0105
3538.0,0.0106
3537.0,0.0107
3536.0,0.0109
3535.0,0.0109
3534.0,0.0109
3533.0,0.0109
3532.0,0.0108
3531.0,0.0107
3530.0,0.0107
3529.0,0.0107
3528.0,0.0108
3527.0,0.0107
3526.0,0.0107
3525.0,0.0105
3524.0,0.0104
3523.0,0.0103
3522.0,0.0103
3521.0,0.0104
3520.0,0.0105
3519.0,0.0107
3518.0,0.0107
3517.0,0.0107
3516.0,0.0107
3515.0,0.0107
3514.0,0.0106
3513.0,0.0106
3512.0,0.0106
3511.0,0.0106
3510.0,0.0106
3509.0,0.0107
3508.0,0.0107
3507.0,0.0107
3506.0,0.0107
3505.0,0.0107
3504.0,0.0108
3503.0,0.0109
3502.0,0.011
3501.0,0.0111
3500.0,0.0112
3499.0,0.0112
3498.0,0.0111
3497.0,0.0111
3496.0,0.0111
3495.0,0.0111
3494.0,0.011
3493.0,0.011
3492.0,0.0109
3491.0,0.0109
3490.0,0.0109
3489.0,0.0108
3488.0,0.0109
3487.0,0.011
3486.0,0.0111
3485.0,0.0112
3484.0,0.0113
3483.0,0.0113
3482.0,0.0112
3481.0,0.0111
3480.0,0.0111
3479.0,0.011
3478.0,0.011
3477.0,0.011
3476.0,0.011
3475.0,0.0111
3474.0,0.0111
3473.0,0.0111
3472.0,0.0111
3471.0,0.011
3470.0,0.011
3469.0,0.011
3468.0,0.0109
3467.0,0.0109
3466.0,0.0109
3465.0,0.011
3464.0,0.011
3463.0,0.0109
3462.0,0.0108
3461.0,0.0108
3460.0,0.0108
3459.0,0.0108
3458.0,0.0107
3457.0,0.0108
3456.0,0.0109
3455.0,0.011
3454.0,0.0111
3453.0,0.0111
3452.0,0.011
3451.0,0.0109
3450.0,0.0109
3449.0,0.0109
3448.0,0.011
3447.0,0.0111
3446.0,0.0111
3445.0,0.0111
3444.0,0.0111
3443.0,0.0112
3442.0,0.0112
3441.0,0.0112
3440.0,0.0112
3439.0,0.0111
3438.0,0.011
3437.0,0.011
3436.0,0.011
3435.0,0.011
3434.0,0.011
3433.0,0.011
3432.0,0.011
3431.0,0.0111
3430.0,0.0111
3429.0,0.0111
3428.0,0.0111
3427.0,0.0111
3426.0,0.0111
3425.0,0.0111
3424.0,0.0111
3423.0,0.0111
3422.0,0.0112
3421.0,0.0113
3420.0,0.0113
3419.0,0.0114
3418.0,0.0113
3417.0,0.0113
3416.0,0.0112
3415.0,0.0111
3414.0,0.0111
3413.0,0.0111
3412.0,0.0111
3411.0,0.0111
3410.0,0.0112
3409.0,0.0112
3408.0,0.0112
3407.0,0.0112
3406.0,0.0113
3405.0,0.0113
3404.0,0.0113
3403.0,0.0113
3402.0,0.0113
3401.0,0.0113
3400.0,0.0113
3399.0,0.0112
3398.0,0.0111
3397.0,0.011
3396.0,0.011
3395.0,0.011
3394.0,0.0111
3393.0,0.0111
3392.0,0.0112
3391.0,0.0112
3390.0,0.0112
3389.0,0.0111
3388.0,0.0111
3387.0,0.011
3386.0,0.0109
3385.0,0.0109
3384.0,0.0109
3383.0,0.0109
3382.0,0.0109
3381.0,0.0109
3380.0,0.0109
3379.0,0.011
3378.0,0.011
3377.0,0.0111
3376.0,0.0112
3375.0,0.0112
3374.0,0.0112
3373.0,0.0111
3372.0,0.011
3371.0,0.011
3370.0,0.011
3369.0,0.011
3368.0,0.011
3367.0,0.011
3366.0,0.011
3365.0,0.011
3364.0,0.011
3363.0,0.011
3362.0,0.011
3361.0,0.0111
3360.0,0.0111
3359.0,0.0111
3358.0,0.011
3357.0,0.0109
3356.0,0.0109
3355.0,0.0109
3354.0,0.011
3353.0,0.0111
3352.0,0.0112
3351.0,0.0112
3350.0,0.0113
3349.0,0.0112
3348.0,0.0111
3347.0,0.0111
3346.0,0.011
3345.0,0.011
3344.0,0.0111
3343.0,0.0111
3342.0,0.011
3341.0,0.0109
3340.0,0.0109
3339.0,0.0108
3338.0,0.0109
3337.0,0.0109
3336.0,0.011
3335.0,0.0111
3334.0,0.0111
3333.0,0.011
3332.0,0.011
3331.0,0.0109
3330.0,0.0109
3329.0,0.0109
3328.0,0.0108
3327.0,0.0107
3326.0,0.0107
3325.0,0.0106
3324.0,0.0105
3323.0,0.0105
3322.0,0.0105
3321.0,0.0106
3320.0,0.0107
3319.0,0.0108
3318.0,0.0109
3317.0,0.0109
3316.0,0.0109
3315.0,0.0109
3314.0,0.0109
3313.0,0.0109
3312.0,0.0109
3311.0,0.0109
3310.0,0.0109
3309.0,0.0109
3308.0,0.0109
3307.0,0.0109
3306.0,0.0109
3305.0,0.011
3304.0,0.011
3303.0,0.011
3302.0,0.011
3301.0,0.0109
3300.0,0.0109
3299.0,0.0108
3298.0,0.0108
3297.0,0.0108
3296.0,0.0108
3295.0,0.0108
3294.0,0.0108
3293.0,0.0108
3292.0,0.0108
3291.0,0.0107
3290.0,0.0107
3289.0,0.0107
3288.0,0.0106
3287.0,0.0106
3286.0,0.0106
3285.0,0.0107
3284.0,0.0108
3283.0,0.0108
3282.0,0.0108
3281.0,0.0107
3280.0,0.0107
3279.0,0.0107
3278.0,0.0107
3277.0,0.0106
3276.0,0.0106
3275.0,0.0107
3274.0,0.0107
3273.0,0.0107
3272.0,0.0106
3271.0,0.0105
3270.0,0.0105
3269.0,0.0104
3268.0,0.0104
3267.0,0.0105
3266.0,0.0105
3265.0,0.0106
3264.0,0.0106
3263.0,0.0105
3262.0,0.0105
3261.0,0.0104
3260.0,0.0104
3259.0,0.0105
3258.0,0.0105
3257.0,0.0105
3256.0,0.0104
3255.0,0.0104
3254.0,0.0103
3253.0,0.0103
3252.0,0.0104
3251.0,0.0105
3250.0,0.0106
3249.0,0.0106
3248.0,0.0106
3247.0,0.0105
3246.0,0.0104
3245.0,0.0104
3244.0,0.0105
3243.0,0.0106
3242.0,0.0106
3241.0,0.0106
3240.0,0.0105
3239.0,0.0105
3238.0,0.0105
3237.0,0.0106
3236.0,0.0107
3235.0,0.0107
3234.0,0.0107
3233.0,0.0107
3232.0,0.0106
3231.0,0.0104
3230.0,0.0103
3229.0,0.0103
3228.0,0.0103
3227.0,0.0102
3226.0,0.0102
3225.0,0.0101
3224.0,0.0101
3223.0,0.0102
3222.0,0.0103
3221.0,0.0104
3220.0,0.0104
3219.0,0.0104
3218.0,0.0104
3217.0,0.0104
3216.0,0.0103
3215.0,0.0103
3214.0,0.0103
3213.0,0.0103
3212.0,0.0103
3211.0,0.0102
3210.0,0.0101
3209.0,0.0101
3208.0,0.0102
3207.0,0.0103
3206.0,0.0104
3205.0,0.0104
3204.0,0.0103
3203.0,0.0102
3202.0,0.0102
3201.0,0.0101
3200.0,0.0101
3199.0,0.01
3198.0,0.0099
3197.0,0.0099
3196.0,0.01
3195.0,0.0101
3194.0,0.0102
3193.0,0.0102
3192.0,0.0102
3191.0,0.0102
3190.0,0.0101
3189.0,0.0099
3188.0,0.0099
3187.0,0.0099
3186.0,0.01
3185.0,0.01
3184.0,0.0101
3183.0,0.0101
3182.0,0.0101
3181.0,0.01
3180.0,0.01
3179.0,0.01
3178.0,0.01
3177.0,0.01
3176.0,0.01
3175.0,0.0099
3174.0,0.0099
3173.0,0.0098
3172.0,0.0098
3171.0,0.0097
3170.0,0.0096
3169.0,0.0096
3168.0,0.0096
3167.0,0.0096
3166.0,0.0096
3165.0,0.0097
3164.0,0.0099
3163.0,0.0099
3162.0,0.01
3161.0,0.01
3160.0,0.0099
3159.0,0.0099
3158.0,0.0098
3157.0,0.0098
3156.0,0.0097
3155.0,0.0097
3154.0,0.0096
3153.0,0.0096
3152.0,0.0097
3151.0,0.0097
3150.0,0.0097
3149.0,0.0096
3148.0,0.0095
3147.0,0.0094
3146.0,0.0094
3145.0,0.0094
3144.0,0.0094
3143.0,0.0093
3142.0,0.0093
3141.0,0.0093
3140.0,0.0093
3139.0,0.0092
3138.0,0.0091
3137.0,0.0091
3136.0,0.009
3135.0,0.009
3134.0,0.009
3133.0,0.009
3132.0,0.009
3131.0,0.0091
3130.0,0.0091
3129.0,0.0091
3128.0,0.0092
3127.0,0.0092
3126.0,0.0092
3125.0,0.0091
3124.0,0.009
3123.0,0.0089
3122.0,0.0089
3121.0,0.0089
3120.0,0.009
3119.0,0.0091
3118.0,0.009
3117.0,0.0089
3116.0,0.0088
3115.0,0.0088
3114.0,0.0087
3113.0,0.0087
3112.0,0.0087
3111.0,0.0086
3110.0,0.0086
3109.0,0.0086
3108.0,0.0087
3107.0,0.0087
3106.0,0.0087
3105.0,0.0087
3104.0,0.0087
3103.0,0.0086
3102.0,0.0085
3101.0,0.0084
3100.0,0.0083
3099.0,0.0082
3098.0,0.0081
3097.0,0.0081
3096.0,0.0081
3095.0,0.0082
3094.0,0.0082
3093.0,0.0082
3092.0,0.0082
3091.0,0.0083
3090.0,0.0083
3089.0,0.0083
3088.0,0.0083
3087.0,0.0082
3086.0,0.0082
3085.0,0.0081
3084.0,0.0081
3083.0,0.0081
3082.0,0.008
3081.0,0.008
3080.0,0.008
3079.0,0.0079
3078.0,0.0078
3077.0,0.0076
3076.0,0.0076
3075.0,0.0075
3074.0,0.0075
3073.0,0.0076
3072.0,0.0076
3071.0,0.0076
3070.0,0.0076
3069.0,0.0076
3068.0,0.0076
3067.0,0.0075
3066.0,0.0074
3065.0,0.0074
3064.0,0.0074
3063.0,0.0074
3062.0,0.0074
3061.0,0.0074
3060.0,0.0073
3059.0,0.0072
3058.0,0.0071
3057.0,0.0071
3056.0,0.0072
3055.0,0.0071
3054.0,0.0071
3053.0,0.007
3052.0,0.007
3051.0,0.0069
3050.0,0.0069
3049.0,0.0069
3048.0,0.0068
3047.0,0.0068
3046.0,0.0067
3045.0,0.0066
3044.0,0.0066
3043.0,0.0066
3042.0,0.0066
3041.0,0.0066
3040.0,0.0065
3039.0,0.0064
3038.0,0.0062
3037.0,0.0061
3036.0,0.006
3035.0,0.006
3034.0,0.006
3033.0,0.0061
3032.0,0.006
3031.0,0.006
3030.0,0.006
3029.0,0.0059
3028.0,0.0059
3027.0,0.0059
3026.0,0.0059
3025.0,0.0058
3024.0,0.0058
3023.0,0.0057
3022.0,0.0057
3021.0,0.0057
3020.0,0.0056
3019.0,0.0055
3018.0,0.0055
3017.0,0.0054
3016.0,0.0053
3015.0,0.0052
3014.0,0.0051
3013.0,0.005
3012.0,0.0049
3011.0,0.0049
3010.0,0.0049
3009.0,0.0049
3008.0,0.0049
3007.0,0.0048
3006.0,0.0047
3005.0,0.0047
3004.0,0.0047
3003.0,0.0047
3002.0,0.0047
3001.0,0.0046
3000.0,0.0046
2999.0,0.0045
2998.0,0.0044
2997.0,0.0043
2996.0,0.0044
2995.0,0.0044
2994.0,0.0045
2993.0,0.0045
2992.0,0.0044
2991.0,0.0044
2990.0,0.0044
2989.0,0.0045
2988.0,0.0046
2987.0,0.0047
2986.0,0.0049
2985.0,0.0051
2984.0,0.0054
2983.0,0.0057
2982.0,0.0061
2981.0,0.0066
2980.0,0.0072
2979.0,0.0078
2978.0,0.0086
2977.0,0.0095
2976.0,0.0105
2975.0,0.0117
2974.0,0.0131
2973.0,0.0148
2972.0,0.0166
2971.0,0.0187
2970.0,0.0209
2969.0,0.0233
2968.0,0.0259
2967.0,0.0286
2966.0,0.0315
2965.0,0.0342
2964.0,0.0368
2963.0,0.039
2962.0,0.0408
2961.0,0.042
2960.0,0.0428
2959.0,0.0435
2958.0,0.0443
2957.0,0.0455
2956.0,0.0473
2955.0,0.0498
2954.0,0.0528
2953.0,0.0561
2952.0,0.0592
2951.0,0.0617
2950.0,0.063
2949.0,0.0628
2948.0,0.0612
2947.0,0.0584
2946.0,0.0549
2945.0,0.0509
2944.0,0.0469
2943.0,0.0433
2942.0,0.0403
2941.0,0.0379
2940.0,0.0363
2939.0,0.0354
2938.0,0.0351
2937.0,0.0354
2936.0,0.0361
2935.0,0.0374
2934.0,0.0392
2933.0,0.0416
2932.0,0.0443
2931.0,0.0474
2930.0,0.0507
2929.0,0.0541
2928.0,0.0577
2927.0,0.0612
2926.0,0.0647
2925.0,0.0681
2924.0,0.0716
2923.0,0.0752
2922.0,0.0788
2921.0,0.0824
2920.0,0.0857
2919.0,0.0883
2918.0,0.09
2917.0,0.0904
2916.0,0.0896
2915.0,0.0877
2914.0,0.0851
2913.0,0.0823
2912.0,0.0796
2911.0,0.0771
2910.0,0.0748
2909.0,0.0728
2908.0,0.071
2907.0,0.0694
2906.0,0.0678
2905.0,0.0662
2904.0,0.0645
2903.0,0.0628
2902.0,0.0611
2901.0,0.0594
2900.0,0.0577
2899.0,0.0562
2898.0,0.0547
2897.0,0.0533
2896.0,0.052
2895.0,0.0509
2894.0,0.0499
2893.0,0.049
2892.0,0.0484
2891.0,0.0479
2890.0,0.0475
2889.0,0.0473
2888.0,0.0471
2887.0,0.0471
2886.0,0.0471
2885.0,0.0473
2884.0,0.0476
2883.0,0.048
2882.0,0.0485
2881.0,0.049
2880.0,0.0495
2879.0,0.0499
2878.0,0.05
2877.0,0.0499
2876.0,0.0497
2875.0,0.0493
2874.0,0.0491
2873.0,0.049
2872.0,0.0494
2871.0,0.05
2870.0,0.0509
2869.0,0.0518
2868.0,0.0526
2867.0,0.0529
2866.0,0.0527
2865.0,0.0517
2864.0,0.05
2863.0,0.0478
2862.0,0.0455
2861.0,0.0433
2860.0,0.0414
2859.0,0.0398
2858.0,0.0387
2857.0,0.038
2856.0,0.0378
2855.0,0.038
2854.0,0.0387
2853.0,0.0397
2852.0,0.0409
2851.0,0.0422
2850.0,0.0432
2849.0,0.0439
2848.0,0.0442
2847.0,0.0444
2846.0,0.0449
2845.0,0.0457
2844.0,0.047
2843.0,0.0485
2842.0,0.0502
2841.0,0.0518
2840.0,0.0531
2839.0,0.054
2838.0,0.0541
2837.0,0.0535
2836.0,0.0522
2835.0,0.0503
2834.0,0.048
2833.0,0.0455
2832.0,0.0432
2831.0,0.041
2830.0,0.0391
2829.0,0.0375
2828.0,0.0361
2827.0,0.0349
2826.0,0.0339
2825.0,0.033
2824.0,0.0322
2823.0,0.0315
2822.0,0.0309
2821.0,0.0303
2820.0,0.0298
2819.0,0.0293
2818.0,0.0289
2817.0,0.0286
2816.0,0.0283
2815.0,0.0281
2814.0,0.0277
2813.0,0.0274
2812.0,0.0271
2811.0,0.0268
2810.0,0.0266
2809.0,0.0263
2808.0,0.0261
2807.0,0.0258
2806.0,0.0256
2805.0,0.0253
2804.0,0.025
2803.0,0.0247
2802.0,0.0245
2801.0,0.0243
2800.0,0.0241
2799.0,0.0239
2798.0,0.0238
2797.0,0.0237
2796.0,0.0235
2795.0,0.0234
2794.0,0.0232
2793.0,0.023
2792.0,0.0229
2791.0,0.0227
2790.0,0.0225
2789.0,0.0224
2788.0,0.0222
2787.0,0.0221
2786.0,0.0219
2785.0,0.0217
2784.0,0.0216
2783.0,0.0214
2782.0,0.0213
2781.0,0.0211
2780.0,0.021
2779.0,0.0208
2778.0,0.0207
2777.0,0.0206
2776.0,0.0205
2775.0,0.0205
2774.0,0.0204
2773.0,0.0203
2772.0,0.0203
2771.0,0.0203
2770.0,0.0202
2769.0,0.0201
2768.0,0.02
2767.0,0.02
2766.0,0.0199
2765.0,0.0199
2764.0,0.0198
2763.0,0.0197
2762.0,0.0196
2761.0,0.0195
2760.0,0.0194
2759.0,0.0193
2758.0,0.0193
2757.0,0.0193
2756.0,0.0192
2755.0,0.0192
2754.0,0.0191
2753.0,0.019
2752.0,0.0189
2751.0,0.0188
2750.0,0.0187
2749.0,0.0187
2748.0,0.0187
2747.0,0.0187
2746.0,0.0187
2745.0,0.0188
2744.0,0.0188
2743.0,0.0188
2742.0,0.0187
2741.0,0.0187
2740.0,0.0187
2739.0,0.0187
2738.0,0.0187
2737.0,0.0187
2736.0,0.0187
2735.0,0.0187
2734.0,0.0187
2733.0,0.0188
2732.0,0.0188
2731.0,0.0188
2730.0,0.0188
2729.0,0.0189
2728.0,0.019
2727.0,0.0191
2726.0,0.0192
2725.0,0.0193
2724.0,0.0193
2723.0,0.0193
2722.0,0.0193
2721.0,0.0192
2720.0,0.0192
2719.0,0.0191
2718.0,0.0191
2717.0,0.0191
2716.0,0.019
2715.0,0.0189
2714.0,0.0186
2713.0,0.0184
2712.0,0.0183
2711.0,0.0182
2710.0,0.0182
2709.0,0.0183
2708.0,0.0183
2707.0,0.0183
2706.0,0.0183
2705.0,0.0181
2704.0,0.018
2703.0,0.0179
2702.0,0.0179
2701.0,0.0179
2700.0,0.0178
2699.0,0.0178
2698.0,0.0177
2697.0,0.0177
2696.0,0.0177
2695.0,0.0177
2694.0,0.0177
2693.0,0.0176
2692.0,0.0175
2691.0,0.0174
2690.0,0.0174
2689.0,0.0174
2688.0,0.0174
2687.0,0.0174
2686.0,0.0173
2685.0,0.0173
2684.0,0.0173
2683.0,0.0173
2682.0,0.0172
2681.0,0.0173
2680.0,0.0173
2679.0,0.0173
2678.0,0.0172
2677.0,0.0171
2676.0,0.0171
2675.0,0.0171
2674.0,0.0171
2673.0,0.0172
2672.0,0.0172
2671.0,0.0172
2670.0,0.0171
2669.0,0.0171
2668.0,0.0171
2667.0,0.0171
2666.0,0.0171
2665.0,0.0171
2664.0,0.0172
2663.0,0.0172
2662.0,0.0172
2661.0,0.0172
2660.0,0.0171
2659.0,0.017
2658.0,0.0169
2657.0,0.0169
2656.0,0.0168
2655.0,0.0168
2654.0,0.0168
2653.0,0.0168
2652.0,0.0168
2651.0,0.0168
2650.0,0.0168
2649.0,0.0167
2648.0,0.0167
2647.0,0.0167
2646.0,0.0167
2645.0,0.0166
2644.0,0.0166
2643.0,0.0165
2642.0,0.0165
2641.0,0.0164
2640.0,0.0164
2639.0,0.0164
2638.0,0.0164
2637.0,0.0164
2636.0,0.0164
2635.0,0.0164
2634.0,0.0164
2633.0,0.0164
2632.0,0.0164
2631.0,0.0164
2630.0,0.0164
2629.0,0.0164
2628.0,0.0164
2627.0,0.0165
2626.0,0.0165
2625.0,0.0164
2624.0,0.0164
2623.0,0.0165
2622.0,0.0165
2621.0,0.0165
2620.0,0.0165
2619.0,0.0164
2618.0,0.0164
2617.0,0.0164
2616.0,0.0164
2615.0,0.0165
2614.0,0.0165
2613.0,0.0165
2612.0,0.0165
2611.0,0.0165
2610.0,0.0164
2609.0,0.0164
2608.0,0.0164
2607.0,0.0163
2606.0,0.0163
2605.0,0.0163
2604.0,0.0162
2603.0,0.0162
2602.0,0.0161
2601.0,0.0161
2600.0,0.016
2599.0,0.0161
2598.0,0.0161
2597.0,0.0161
2596.0,0.0161
2595.0,0.0161
2594.0,0.0161
2593.0,0.0161
2592.0,0.0161
2591.0,0.0161
2590.0,0.0162
2589.0,0.0162
2588.0,0.0162
2587.0,0.0161
2586.0,0.0161
2585.0,0.0162
2584.0,0.0162
2583.0,0.0163
2582.0,0.0163
2581.0,0.0162
2580.0,0.0163
2579.0,0.0163
2578.0,0.0163
2577.0,0.0162
2576.0,0.0162
2575.0,0.0162
2574.0,0.0162
2573.0,0.0161
2572.0,0.016
2571.0,0.0159
2570.0,0.0158
2569.0,0.0158
2568.0,0.0158
2567.0,0.0157
2566.0,0.0157
2565.0,0.0157
2564.0,0.0157
2563.0,0.0157
2562.0,0.0156
2561.0,0.0156
2560.0,0.0156
2559.0,0.0156
2558.0,0.0156
2557.0,0.0156
2556.0,0.0156
2555.0,0.0156
2554.0,0.0155
2553.0,0.0155
2552.0,0.0155
2551.0,0.0155
2550.0,0.0155
2549.0,0.0155
2548.0,0.0154
2547.0,0.0154
2546.0,0.0154
2545.0,0.0154
2544.0,0.0154
2543.0,0.0153
2542.0,0.0153
2541.0,0.0153
2540.0,0.0153
2539.0,0.0153
2538.0,0.0153
2537.0,0.0153
2536.0,0.0153
2535.0,0.0152
2534.0,0.0152
2533.0,0.0151
2532.0,0.0151
2531.0,0.015
2530.0,0.015
2529.0,0.0151
2528.0,0.0151
2527.0,0.0152
2526.0,0.0152
2525.0,0.0152
2524.0,0.0152
2523.0,0.0152
2522.0,0.0152
2521.0,0.0151
2520.0,0.0151
2519.0,0.015
2518.0,0.015
2517.0,0.0149
2516.0,0.015
2515.0,0.015
2514.0,0.0151
2513.0,0.0151
2512.0,0.0151
2511.0,0.0151
2510.0,0.0151
2509.0,0.0151
2508.0,0.0151
2507.0,0.0151
2506.0,0.015
2505.0,0.0149
2504.0,0.0148
2503.0,0.0148
2502.0,0.0148
2501.0,0.0148
2500.0,0.0148
2499.0,0.0148
2498.0,0.0148
2497.0,0.0148
2496.0,0.0148
2495.0,0.0148
2494.0,0.0148
2493.0,0.0148
2492.0,0.0148
2491.0,0.0149
2490.0,0.0149
2489.0,0.015
2488.0,0.015
2487.0,0.015
2486.0,0.015
2485.0,0.0149
2484.0,0.0149
2483.0,0.0148
2482.0,0.0147
2481.0,0.0146
2480.0,0.0146
2479.0,0.0146
2478.0,0.0146
2477.0,0.0146
2476.0,0.0147
2475.0,0.0147
2474.0,0.0147
2473.0,0.0147
2472.0,0.0146
2471.0,0.0147
2470.0,0.0147
2469.0,0.0147
2468.0,0.0147
2467.0,0.0147
2466.0,0.0148
2465.0,0.0148
2464.0,0.0147
2463.0,0.0147
2462.0,0.0146
2461.0,0.0146
2460.0,0.0146
2459.0,0.0146
2458.0,0.0146
2457.0,0.0146
2456.0,0.0147
2455.0,0.0147
2454.0,0.0147
2453.0,0.0146
2452.0,0.0146
2451.0,0.0145
2450.0,0.0145
2449.0,0.0145
2448.0,0.0146
2447.0,0.0146
2446.0,0.0147
2445.0,0.0146
2444.0,0.0146
2443.0,0.0146
2442.0,0.0146
2441.0,0.0146
2440.0,0.0145
2439.0,0.0145
2438.0,0.0145
2437.0,0.0145
2436.0,0.0145
2435.0,0.0146
2434.0,0.0147
2433.0,0.0147
2432.0,0.0147
2431.0,0.0147
2430.0,0.0146
2429.0,0.0146
2428.0,0.0145
2427.0,0.0145
2426.0,0.0145
2425.0,0.0145
2424.0,0.0146
2423.0,0.0147
2422.0,0.0147
2421.0,0.0148
2420.0,0.0147
2419.0,0.0147
2418.0,0.0146
2417.0,0.0146
2416.0,0.0146
2415.0,0.0147
2414.0,0.0146
2413.0,0.0146
2412.0,0.0145
2411.0,0.0145
2410.0,0.0145
2409.0,0.0145
2408.0,0.0145
2407.0,0.0145
2406.0,0.0144
2405.0,0.0143
2404.0,0.0144
2403.0,0.0145
2402.0,0.0146
2401.0,0.0146
2400.0,0.0146
2399.0,0.0146
2398.0,0.0146
2397.0,0.0145
2396.0,0.0145
2395.0,0.0145
2394.0,0.0145
2393.0,0.0145
2392.0,0.0144
2391.0,0.0144
2390.0,0.0143
2389.0,0.0142
2388.0,0.0142
2387.0,0.0142
2386.0,0.0142
2385.0,0.014
2384.0,0.0138
2383.0,0.0134
2382.0,0.0129
2381.0,0.0124
2380.0,0.012
2379.0,0.0118
2378.0,0.0116
2377.0,0.0115
2376.0,0.0113
2375.0,0.0111
2374.0,0.0109
2373.0,0.0107
2372.0,0.0107
2371.0,0.011
2370.0,0.0116
2369.0,0.0119
2368.0,0.0116
2367.0,0.0108
2366.0,0.01
2365.0,0.0093
2364.0,0.009
2363.0,0.0095
2362.0,0.0105
2361.0,0.0112
2360.0,0.0113
2359.0,0.0106
2358.0,0.0097
2357.0,0.0088
2356.0,0.0083
2355.0,0.0078
2354.0,0.0076
2353.0,0.0077
2352.0,0.008
2351.0,0.0084
2350.0,0.0088
2349.0,0.0088
2348.0,0.0086
2347.0,0.0083
2346.0,0.0081
2345.0,0.0083
2344.0,0.009
2343.0,0.0095
2342.0,0.0092
2341.0,0.0081
2340.0,0.0071
2339.0,0.0068
2338.0,0.007
2337.0,0.0072
2336.0,0.0073
2335.0,0.0075
2334.0,0.0078
2333.0,0.0079
2332.0,0.0078
2331.0,0.0079
2330.0,0.0082
2329.0,0.0088
2328.0,0.0095
2327.0,0.0099
2326.0,0.01
2325.0,0.01
2324.0,0.01
2323.0,0.0101
2322.0,0.0105
2321.0,0.011
2320.0,0.0116
2319.0,0.0122
2318.0,0.0126
2317.0,0.0127
2316.0,0.0126
2315.0,0.0122
2314.0,0.0119
2313.0,0.0118
2312.0,0.012
2311.0,0.0123
2310.0,0.0125
2309.0,0.0126
2308.0,0.0126
2307.0,0.0125
2306.0,0.0124
2305.0,0.0124
2304.0,0.0124
2303.0,0.0126
2302.0,0.0129
2301.0,0.0132
2300.0,0.0133
2299.0,0.0134
2298.0,0.0134
2297.0,0.0135
2296.0,0.0135
2295.0,0.0136
2294.0,0.0137
2293.0,0.0137
2292.0,0.0138
2291.0,0.0138
2290.0,0.0138
2289.0,0.0138
2288.0,0.0139
2287.0,0.0139
2286.0,0.0139
2285.0,0.0138
2284.0,0.0138
2283.0,0.0138
2282.0,0.0138
2281.0,0.0138
2280.0,0.0137
2279.0,0.0137
2278.0,0.0136
2277.0,0.0136
2276.0,0.0136
2275.0,0.0137
2274.0,0.0137
2273.0,0.0137
2272.0,0.0136
2271.0,0.0137
2270.0,0.0137
2269.0,0.0137
2268.0,0.0138
2267.0,0.0137
2266.0,0.0137
2265.0,0.0137
2264.0,0.0138
2263.0,0.0138
2262.0,0.0139
2261.0,0.0139
2260.0,0.0139
2259.0,0.0139
2258.0,0.0138
2257.0,0.0138
2256.0,0.0138
2255.0,0.0138
2254.0,0.0138
2253.0,0.0138
2252.0,0.0139
2251.0,0.0139
2250.0,0.0139
2249.0,0.014
2248.0,0.0141
2247.0,0.0141
2246.0,0.0142
2245.0,0.0142
2244.0,0.0142
2243.0,0.0141
2242.0,0.014
2241.0,0.0139
2240.0,0.0139
2239.0,0.0139
2238.0,0.0139
2237.0,0.0139
2236.0,0.0139
2235.0,0.0139
2234.0,0.0139
2233.0,0.0139
2232.0,0.014
2231.0,0.014
2230.0,0.014
2229.0,0.014
2228.0,0.014
2227.0,0.014
2226.0,0.014
2225.0,0.0141
2224.0,0.0141
2223.0,0.0141
2222.0,0.0141
2221.0,0.0141
2220.0,0.0141
2219.0,0.0141
2218.0,0.0141
2217.0,0.0141
2216.0,0.014
2215.0,0.014
2214.0,0.014
2213.0,0.014
2212.0,0.014
2211.0,0.014
2210.0,0.014
2209.0,0.014
2208.0,0.014
2207.0,0.014
2206.0,0.014
2205.0,0.0141
2204.0,0.0141
2203.0,0.0141
2202.0,0.0141
2201.0,0.014
2200.0,0.014
2199.0,0.014
2198.0,0.014
2197.0,0.014
2196.0,0.014
2195.0,0.014
2194.0,0.0141
2193.0,0.0141
2192.0,0.0141
2191.0,0.0142
2190.0,0.0141
2189.0,0.0141
2188.0,0.014
2187.0,0.014
2186.0,0.014
2185.0,0.014
2184.0,0.014
2183.0,0.014
2182.0,0.0141
2181.0,0.0141
2180.0,0.0141
2179.0,0.0141
2178.0,0.014
2177.0,0.014
2176.0,0.014
2175.0,0.0141
2174.0,0.0141
2173.0,0.0141
2172.0,0.0141
2171.0,0.0141
2170.0,0.0142
2169.0,0.0142
2168.0,0.0141
2167.0,0.0141
2166.0,0.0141
2165.0,0.0141
2164.0,0.0141
2163.0,0.0142
2162.0,0.0142
2161.0,0.0141
2160.0,0.0141
2159.0,0.014
2158.0,0.0139
2157.0,0.0139
2156.0,0.0139
2155.0,0.0138
2154.0,0.0139
2153.0,0.014
2152.0,0.014
2151.0,0.014
2150.0,0.014
2149.0,0.014
2148.0,0.014
2147.0,0.0139
2146.0,0.0139
2145.0,0.0139
2144.0,0.0139
2143.0,0.014
2142.0,0.0139
2141.0,0.0139
2140.0,0.0139
2139.0,0.0139
2138.0,0.0139
2137.0,0.0139
2136.0,0.014
2135.0,0.0139
2134.0,0.0139
2133.0,0.0138
2132.0,0.0138
2131.0,0.0139
2130.0,0.0139
2129.0,0.014
2128.0,0.014
2127.0,0.014
2126.0,0.014
2125.0,0.014
2124.0,0.014
2123.0,0.014
2122.0,0.014
2121.0,0.014
2120.0,0.014
2119.0,0.0139
2118.0,0.0139
2117.0,0.0138
2116.0,0.0138
2115.0,0.0138
2114.0,0.0138
2113.0,0.0138
2112.0,0.0139
2111.0,0.0139
2110.0,0.0139
2109.0,0.0139
2108.0,0.0138
2107.0,0.0138
2106.0,0.0138
2105.0,0.0138
2104.0,0.0138
2103.0,0.0138
2102.0,0.0138
2101.0,0.0138
2100.0,0.0138
2099.0,0.0138
2098.0,0.0138
2097.0,0.0138
2096.0,0.0138
2095.0,0.0138
2094.0,0.0137
2093.0,0.0137
2092.0,0.0137
2091.0,0.0138
2090.0,0.0138
2089.0,0.0138
2088.0,0.0138
2087.0,0.0138
2086.0,0.0138
2085.0,0.0139
2084.0,0.0139
2083.0,0.0139
2082.0,0.0139
2081.0,0.0139
2080.0,0.0138
2079.0,0.0138
2078.0,0.0138
2077.0,0.0138
2076.0,0.0138
2075.0,0.0138
2074.0,0.0138
2073.0,0.0138
2072.0,0.0138
2071.0,0.0138
2070.0,0.0138
2069.0,0.0138
2068.0,0.0138
2067.0,0.0138
2066.0,0.0138
2065.0,0.0138
2064.0,0.0138
2063.0,0.0139
2062.0,0.0139
2061.0,0.0139
2060.0,0.0139
2059.0,0.0139
2058.0,0.0139
2057.0,0.0139
2056.0,0.0139
2055.0,0.0139
2054.0,0.0138
2053.0,0.0138
2052.0,0.0138
2051.0,0.0137
2050.0,0.0138
2049.0,0.0138
2048.0,0.0138
2047.0,0.0139
2046.0,0.0138
2045.0,0.0138
2044.0,0.0138
2043.0,0.0138
2042.0,0.0138
2041.0,0.0138
2040.0,0.0138
2039.0,0.0138
2038.0,0.0138
2037.0,0.0137
2036.0,0.0137
2035.0,0.0138
2034.0,0.0138
2033.0,0.0138
2032.0,0.0138
2031.0,0.0137
2030.0,0.0137
2029.0,0.0137
2028.0,0.0137
2027.0,0.0138
2026.0,0.0139
2025.0,0.0139
2024.0,0.0139
2023.0,0.0139
2022.0,0.0138
2021.0,0.0138
2020.0,0.0138
2019.0,0.0138
2018.0,0.0138
2017.0,0.0138
2016.0,0.0138
2015.0,0.0138
2014.0,0.0138
2013.0,0.0138
2012.0,0.0139
2011.0,0.0139
2010.0,0.0139
2009.0,0.0139
2008.0,0.0138
2007.0,0.0138
2006.0,0.0138
2005.0,0.0138
2004.0,0.0138
2003.0,0.0138
2002.0,0.0138
2001.0,0.0138
2000.0,0.0138
1999.0,0.0138
1998.0,0.0138
1997.0,0.0138
1996.0,0.0138
1995.0,0.0138
1994.0,0.0138
1993.0,0.0138
1992.0,0.0138
1991.0,0.0138
1990.0,0.0137
1989.0,0.0137
1988.0,0.0137
1987.0,0.0137
1986.0,0.0138
1985.0,0.0138
1984.0,0.0138
1983.0,0.0138
1982.0,0.0138
1981.0,0.0138
1980.0,0.0138
1979.0,0.0138
1978.0,0.0138
1977.0,0.0138
1976.0,0.0138
1975.0,0.0139
1974.0,0.0139
1973.0,0.0139
1972.0,0.0138
1971.0,0.0138
1970.0,0.0138
1969.0,0.0138
1968.0,0.0138
1967.0,0.0138
1966.0,0.0138
1965.0,0.0138
1964.0,0.0138
1963.0,0.0138
1962.0,0.0138
1961.0,0.0138
1960.0,0.0138
1959.0,0.0138
1958.0,0.0138
1957.0,0.0139
1956.0,0.0139
1955.0,0.0139
1954.0,0.0139
1953.0,0.0138
1952.0,0.0138
1951.0,0.0138
1950.0,0.0138
1949.0,0.0138
1948.0,0.0139
1947.0,0.0139
1946.0,0.0138
1945.0,0.0138
1944.0,0.0137
1943.0,0.0137
1942.0,0.0138
1941.0,0.0138
1940.0,0.0137
1939.0,0.0137
1938.0,0.0137
1937.0,0.0137
1936.0,0.0138
1935.0,0.0138
1934.0,0.0138
1933.0,0.0139
1932.0,0.0139
1931.0,0.0139
1930.0,0.0139
1929.0,0.0138
1928.0,0.0138
1927.0,0.0138
1926.0,0.0138
1925.0,0.0138
1924.0,0.0138
1923.0,0.0138
1922.0,0.0138
1921.0,0.0138
1920.0,0.0139
1919.0,0.0139
1918.0,0.0138
1917.0,0.0138
1916.0,0.0138
1915.0,0.0138
1914.0,0.0138
1913.0,0.0139
1912.0,0.0139
1911.0,0.0139
1910.0,0.0139
1909.0,0.014
1908.0,0.014
1907.0,0.0139
1906.0,0.0138
1905.0,0.0138
1904.0,0.0138
1903.0,0.0138
1902.0,0.0138
1901.0,0.0138
1900.0,0.0139
1899.0,0.0139
1898.0,0.014
1897.0,0.014
1896.0,0.0139
1895.0,0.0139
1894.0,0.0139
1893.0,0.0139
1892.0,0.014
1891.0,0.014
1890.0,0.014
1889.0,0.014
1888.0,0.0139
1887.0,0.0139
1886.0,0.0139
1885.0,0.0139
1884.0,0.0139
1883.0,0.0139
1882.0,0.0139
1881.0,0.0139
1880.0,0.0139
1879.0,0.0139
1878.0,0.0139
1877.0,0.0139
1876.0,0.0139
1875.0,0.0139
1874.0,0.0138
1873.0,0.0138
1872.0,0.0137
1871.0,0.0137
1870.0,0.0136
1869.0,0.0136
1868.0,0.0137
1867.0,0.0138
1866.0,0.0138
1865.0,0.0139
1864.0,0.0139
1863.0,0.0139
1862.0,0.0139
1861.0,0.0139
1860.0,0.0138
1859.0,0.0138
1858.0,0.0138
1857.0,0.0138
1856.0,0.0138
1855.0,0.0138
1854.0,0.0138
1853.0,0.0139
1852.0,0.0139
1851.0,0.0139
1850.0,0.0139
1849.0,0.0139
1848.0,0.0139
1847.0,0.0138
1846.0,0.0138
1845.0,0.0138
1844.0,0.0138
1843.0,0.0138
1842.0,0.0138
1841.0,0.0138
1840.0,0.0138
1839.0,0.0138
1838.0,0.0138
1837.0,0.0138
1836.0,0.0138
1835.0,0.0138
1834.0,0.0138
1833.0,0.0138
1832.0,0.0139
1831.0,0.0139
1830.0,0.0138
1829.0,0.0138
1828.0,0.0137
1827.0,0.0138
1826.0,0.0138
1825.0,0.0139
1824.0,0.0139
1823.0,0.0139
1822.0,0.0139
1821.0,0.0138
1820.0,0.0139
1819.0,0.0139
1818.0,0.0139
1817.0,0.0139
1816.0,0.0139
1815.0,0.0139
1814.0,0.0138
1813.0,0.0138
1812.0,0.0138
1811.0,0.0138
1810.0,0.0137
1809.0,0.0137
1808.0,0.0138
1807.0,0.0138
1806.0,0.0139
1805.0,0.0139
1804.0,0.0139
1803.0,0.0139
1802.0,0.0139
1801.0,0.0139
1800.0,0.014
1799.0,0.0139
1798.0,0.0139
1797.0,0.0138
1796.0,0.0138
1795.0,0.0137
1794.0,0.0136
1793.0,0.0135
1792.0,0.0135
1791.0,0.0136
1790.0,0.0138
1789.0,0.0139
1788.0,0.0139
1787.0,0.0139
1786.0,0.0139
1785.0,0.0139
1784.0,0.0139
1783.0,0.014
1782.0,0.014
1781.0,0.014
1780.0,0.0139
1779.0,0.0139
1778.0,0.0139
1777.0,0.0138
1776.0,0.0138
1775.0,0.0138
1774.0,0.0138
1773.0,0.0138
1772.0,0.0138
1771.0,0.0138
1770.0,0.0137
1769.0,0.0137
1768.0,0.0138
1767.0,0.0138
1766.0,0.0139
1765.0,0.0139
1764.0,0.014
1763.0,0.014
1762.0,0.014
1761.0,0.0141
1760.0,0.0141
1759.0,0.014
1758.0,0.014
1757.0,0.014
1756.0,0.0141
1755.0,0.0141
1754.0,0.0142
1753.0,0.0142
1752.0,0.0142
1751.0,0.0142
1750.0,0.0143
1749.0,0.0143
1748.0,0.0144
1747.0,0.0145
1746.0,0.0146
1745.0,0.0146
1744.0,0.0147
1743.0,0.0147
1742.0,0.0147
1741.0,0.0147
1740.0,0.0147
1739.0,0.0147
1738.0,0.0147
1737.0,0.0147
1736.0,0.0146
1735.0,0.0145
1734.0,0.0145
1733.0,0.0146
1732.0,0.0147
1731.0,0.0148
1730.0,0.0148
1729.0,0.0149
1728.0,0.0149
1727.0,0.0148
1726.0,0.0148
1725.0,0.0148
1724.0,0.0147
1723.0,0.0147
1722.0,0.0147
1721.0,0.0148
1720.0,0.0149
1719.0,0.0148
1718.0,0.0145
1717.0,0.0143
1716.0,0.0142
1715.0,0.0143
1714.0,0.0144
1713.0,0.0145
1712.0,0.0146
1711.0,0.0147
1710.0,0.0147
1709.0,0.0147
1708.0,0.0147
1707.0,0.0146
1706.0,0.0146
1705.0,0.0145
1704.0,0.0145
1703.0,0.0145
1702.0,0.0144
1701.0,0.0143
1700.0,0.0141
1699.0,0.0141
1698.0,0.0142
1697.0,0.0144
1696.0,0.0147
1695.0,0.0148
1694.0,0.0147
1693.0,0.0148
1692.0,0.0148
1691.0,0.0149
1690.0,0.0148
1689.0,0.0149
1688.0,0.0149
1687.0,0.0151
1686.0,0.0152
1685.0,0.0152
1684.0,0.0153
1683.0,0.0151
1682.0,0.015
1681.0,0.015
1680.0,0.0151
1679.0,0.0151
1678.0,0.0151
1677.0,0.015
1676.0,0.0149
1675.0,0.0149
1674.0,0.0149
1673.0,0.0149
1672.0,0.0148
1671.0,0.0148
1670.0,0.0148
1669.0,0.015
1668.0,0.0151
1667.0,0.0152
1666.0,0.0152
1665.0,0.0152
1664.0,0.0152
1663.0,0.0153
1662.0,0.0153
1661.0,0.0154
1660.0,0.0154
1659.0,0.0153
1658.0,0.0153
1657.0,0.0153
1656.0,0.0154
1655.0,0.0155
1654.0,0.0158
1653.0,0.0159
1652.0,0.0157
1651.0,0.0155
1650.0,0.0154
1649.0,0.0154
1648.0,0.0154
1647.0,0.0154
1646.0,0.0154
1645.0,0.0154
1644.0,0.0154
1643.0,0.0154
1642.0,0.0154
1641.0,0.0154
1640.0,0.0154
1639.0,0.0154
1638.0,0.0154
1637.0,0.0154
1636.0,0.0156
1635.0,0.0157
1634.0,0.0156
1633.0,0.0156
1632.0,0.0155
1631.0,0.0155
1630.0,0.0154
1629.0,0.0153
1628.0,0.0153
1627.0,0.0153
1626.0,0.0152
1625.0,0.0152
1624.0,0.0151
1623.0,0.0151
1622.0,0.0151
1621.0,0.0151
1620.0,0.0151
1619.0,0.0151
1618.0,0.015
1617.0,0.015
1616.0,0.015
1615.0,0.015
1614.0,0.015
1613.0,0.0151
1612.0,0.0151
1611.0,0.0151
1610.0,0.015
1609.0,0.015
1608.0,0.015
1607.0,0.015
1606.0,0.0151
1605.0,0.0151
1604.0,0.0152
1603.0,0.0152
1602.0,0.0152
1601.0,0.0152
1600.0,0.0152
1599.0,0.0152
1598.0,0.0151
1597.0,0.015
1596.0,0.0149
1595.0,0.0149
1594.0,0.0148
1593.0,0.0148
1592.0,0.0148
1591.0,0.0147
1590.0,0.0147
1589.0,0.0147
1588.0,0.0147
1587.0,0.0147
1586.0,0.0148
1585.0,0.0147
1584.0,0.0147
1583.0,0.0147
1582.0,0.0147
1581.0,0.0148
1580.0,0.0148
1579.0,0.0148
1578.0,0.0147
1577.0,0.0147
1576.0,0.0147
1575.0,0.0147
1574.0,0.0146
1573.0,0.0146
1572.0,0.0146
1571.0,0.0146
1570.0,0.0146
1569.0,0.0146
1568.0,0.0146
1567.0,0.0145
1566.0,0.0145
1565.0,0.0145
1564.0,0.0145
1563.0,0.0144
1562.0,0.0145
1561.0,0.0145
1560.0,0.0146
1559.0,0.0147
1558.0,0.0146
1557.0,0.0143
1556.0,0.0142
1555.0,0.0142
1554.0,0.0142
1553.0,0.0143
1552.0,0.0143
1551.0,0.0144
1550.0,0.0144
1549.0,0.0145
1548.0,0.0144
1547.0,0.0144
1546.0,0.0142
1545.0,0.014
1544.0,0.0139
1543.0,0.0137
1542.0,0.0135
1541.0,0.0135
1540.0,0.0139
1539.0,0.0141
1538.0,0.014
1537.0,0.0139
1536.0,0.0139
1535.0,0.0139
1534.0,0.0138
1533.0,0.0138
1532.0,0.0139
1531.0,0.0138
1530.0,0.0138
1529.0,0.0137
1528.0,0.0137
1527.0,0.0136
1526.0,0.0135
1525.0,0.0135
1524.0,0.0134
1523.0,0.0134
1522.0,0.0133
1521.0,0.0134
1520.0,0.0135
1519.0,0.0135
1518.0,0.0134
1517.0,0.0134
1516.0,0.0134
1515.0,0.0133
1514.0,0.0132
1513.0,0.0131
1512.0,0.0131
1511.0,0.0131
1510.0,0.0131
1509.0,0.0132
1508.0,0.0134
1507.0,0.0135
1506.0,0.0134
1505.0,0.013
1504.0,0.0129
1503.0,0.0128
1502.0,0.0128
1501.0,0.0128
1500.0,0.0128
1499.0,0.0128
1498.0,0.0128
1497.0,0.013
1496.0,0.0133
1495.0,0.0135
1494.0,0.0136
1493.0,0.0137
1492.0,0.0137
1491.0,0.0135
1490.0,0.0131
1489.0,0.013
1488.0,0.013
1487.0,0.0129
1486.0,0.0129
1485.0,0.013
1484.0,0.0131
1483.0,0.0132
1482.0,0.0133
1481.0,0.0135
1480.0,0.0137
1479.0,0.014
1478.0,0.0144
1477.0,0.0151
1476.0,0.0162
1475.0,0.0175
1474.0,0.0193
1473.0,0.022
1472.0,0.0248
1471.0,0.0271
1470.0,0.0293
1469.0,0.0317
1468.0,0.0345
1467.0,0.0378
1466.0,0.0419
1465.0,0.0469
1464.0,0.0513
1463.0,0.0541
1462.0,0.0556
1461.0,0.0565
1460.0,0.0571
1459.0,0.0573
1458.0,0.0578
1457.0,0.059
1456.0,0.0599
1455.0,0.0601
1454.0,0.0602
1453.0,0.0601
1452.0,0.0597
1451.0,0.0588
1450.0,0.0575
1449.0,0.0554
1448.0,0.0525
1447.0,0.0493
1446.0,0.0464
1445.0,0.0438
1444.0,0.0414
1443.0,0.0393
1442.0,0.0376
1441.0,0.0364
1440.0,0.0355
1439.0,0.0349
1438.0,0.0348
1437.0,0.035
1436.0,0.0351
1435.0,0.0345
1434.0,0.0334
1433.0,0.0318
1432.0,0.0299
1431.0,0.0282
1430.0,0.0267
1429.0,0.0256
1428.0,0.0248
1427.0,0.0242
1426.0,0.0237
1425.0,0.0232
1424.0,0.0226
1423.0,0.0222
1422.0,0.0219
1421.0,0.0216
1420.0,0.0213
1419.0,0.0211
1418.0,0.0209
1417.0,0.0207
1416.0,0.0205
1415.0,0.0203
1414.0,0.0201
1413.0,0.0199
1412.0,0.0197
1411.0,0.0196
1410.0,0.0195
1409.0,0.0193
1408.0,0.0191
1407.0,0.0189
1406.0,0.0187
1405.0,0.0184
1404.0,0.0182
1403.0,0.0181
1402.0,0.0179
1401.0,0.0177
1400.0,0.0175
1399.0,0.0174
1398.0,0.0173
1397.0,0.0172
1396.0,0.017
1395.0,0.0169
1394.0,0.0169
1393.0,0.0168
1392.0,0.0167
1391.0,0.0167
1390.0,0.0167
1389.0,0.0167
1388.0,0.0168
1387.0,0.0175
1386.0,0.0186
1385.0,0.0204
1384.0,0.023
1383.0,0.027
1382.0,0.0326
1381.0,0.04
1380.0,0.0497
1379.0,0.0613
1378.0,0.0731
1377.0,0.0825
1376.0,0.0876
1375.0,0.0868
1374.0,0.0806
1373.0,0.072
1372.0,0.0638
1371.0,0.0564
1370.0,0.0499
1369.0,0.0445
1368.0,0.0406
1367.0,0.038
1366.0,0.0364
1365.0,0.0356
1364.0,0.0353
1363.0,0.0357
1362.0,0.0365
1361.0,0.0375
1360.0,0.0383
1359.0,0.0386
1358.0,0.0384
1357.0,0.0375
1356.0,0.0362
1355.0,0.0345
1354.0,0.0329
1353.0,0.0315
1352.0,0.0304
1351.0,0.0295
1350.0,0.0287
1349.0,0.028
1348.0,0.0274
1347.0,0.0268
1346.0,0.0263
1345.0,0.0258
1344.0,0.0254
1343.0,0.0251
1342.0,0.0247
1341.0,0.0244
1340.0,0.0242
1339.0,0.024
1338.0,0.024
1337.0,0.0239
1336.0,0.0239
1335.0,0.0239
1334.0,0.0239
1333.0,0.024
1332.0,0.0242
1331.0,0.0244
1330.0,0.0244
1329.0,0.0244
1328.0,0.0243
1327.0,0.0241
1326.0,0.0239
1325.0,0.0236
1324.0,0.0233
1323.0,0.0231
1322.0,0.0228
1321.0,0.0226
1320.0,0.0225
1319.0,0.0223
1318.0,0.0222
1317.0,0.0221
1316.0,0.022
1315.0,0.022
1314.0,0.0219
1313.0,0.0218
1312.0,0.0218
1311.0,0.0218
1310.0,0.0218
1309.0,0.022
1308.0,0.0223
1307.0,0.0227
1306.0,0.0232
1305.0,0.0235
1304.0,0.0237
1303.0,0.0236
1302.0,0.0233
1301.0,0.0232
1300.0,0.0231
1299.0,0.0232
1298.0,0.0232
1297.0,0.0233
1296.0,0.0233
1295.0,0.0232
1294.0,0.023
1293.0,0.0229
1292.0,0.0227
1291.0,0.0225
1290.0,0.0224
1289.0,0.0222
1288.0,0.0221
1287.0,0.022
1286.0,0.0219
1285.0,0.0218
1284.0,0.0217
1283.0,0.0216
1282.0,0.0215
1281.0,0.0214
1280.0,0.0213
1279.0,0.0212
1278.0,0.0212
1277.0,0.0211
1276.0,0.0211
1275.0,0.0211
1274.0,0.0211
1273.0,0.0211
1272.0,0.021
1271.0,0.0211
1270.0,0.0211
1269.0,0.0212
1268.0,0.0213
1267.0,0.0213
1266.0,0.0214
1265.0,0.0215
1264.0,0.0216
1263.0,0.0217
1262.0,0.0218
1261.0,0.0219
1260.0,0.022
1259.0,0.0223
1258.0,0.0225
1257.0,0.0228
1256.0,0.023
1255.0,0.023
1254.0,0.0229
1253.0,0.0227
1252.0,0.0224
1251.0,0.0221
1250.0,0.0219
1249.0,0.0217
1248.0,0.0216
1247.0,0.0215
1246.0,0.0214
1245.0,0.0213
1244.0,0.0213
1243.0,0.0212
1242.0,0.0211
1241.0,0.021
1240.0,0.021
1239.0,0.021
1238.0,0.021
1237.0,0.0209
1236.0,0.0209
1235.0,0.0208
1234.0,0.0208
1233.0,0.0207
1232.0,0.0207
1231.0,0.0206
1230.0,0.0206
1229.0,0.0205
1228.0,0.0206
1227.0,0.0206
1226.0,0.0207
1225.0,0.0207
1224.0,0.0208
1223.0,0.021
1222.0,0.0211
1221.0,0.0213
1220.0,0.0213
1219.0,0.0214
1218.0,0.0214
1217.0,0.0213
1216.0,0.0212
1215.0,0.021
1214.0,0.0209
1213.0,0.0208
1212.0,0.0208
1211.0,0.0207
1210.0,0.0206
1209.0,0.0206
1208.0,0.0206
1207.0,0.0206
1206.0,0.0205
1205.0,0.0205
1204.0,0.0204
1203.0,0.0203
1202.0,0.0203
1201.0,0.0204
1200.0,0.0204
1199.0,0.0204
1198.0,0.0203
1197.0,0.0202
1196.0,0.0202
1195.0,0.0201
1194.0,0.02
1193.0,0.02
1192.0,0.02
1191.0,0.02
1190.0,0.02
1189.0,0.0199
1188.0,0.0199
1187.0,0.0199
1186.0,0.0199
1185.0,0.0199
1184.0,0.02
1183.0,0.02
1182.0,0.0201
1181.0,0.0201
1180.0,0.0202
1179.0,0.0202
1178.0,0.0204
1177.0,0.0206
1176.0,0.021
1175.0,0.0215
1174.0,0.0222
1173.0,0.0231
1172.0,0.0243
1171.0,0.0257
1170.0,0.0271
1169.0,0.0284
1168.0,0.0292
1167.0,0.0296
1166.0,0.0295
1165.0,0.0292
1164.0,0.0287
1163.0,0.0282
1162.0,0.0276
1161.0,0.0272
1160.0,0.0269
1159.0,0.0266
1158.0,0.0264
1157.0,0.0263
1156.0,0.0263
1155.0,0.0263
1154.0,0.0263
1153.0,0.0263
1152.0,0.0262
1151.0,0.026
1150.0,0.0257
1149.0,0.0253
1148.0,0.025
1147.0,0.0246
1146.0,0.0242
1145.0,0.0238
1144.0,0.0234
1143.0,0.0231
1142.0,0.0228
1141.0,0.0225
1140.0,0.0222
1139.0,0.0219
1138.0,0.0217
1137.0,0.0215
1136.0,0.0213
1135.0,0.0213
1134.0,0.0212
1133.0,0.0212
1132.0,0.0211
1131.0,0.0211
1130.0,0.021
1129.0,0.0209
1128.0,0.0208
1127.0,0.0208
1126.0,0.0208
1125.0,0.0208
1124.0,0.0208
1123.0,0.0208
1122.0,0.0209
1121.0,0.0209
1120.0,0.0209
1119.0,0.021
1118.0,0.021
1117.0,0.021
1116.0,0.021
1115.0,0.0211
1114.0,0.0212
1113.0,0.0212
1112.0,0.0212
1111.0,0.0213
1110.0,0.0214
1109.0,0.0216
1108.0,0.0218
1107.0,0.022
1106.0,0.0223
1105.0,0.0226
1104.0,0.023
1103.0,0.0233
1102.0,0.0234
1101.0,0.0233
1100.0,0.0231
1099.0,0.023
1098.0,0.0228
1097.0,0.0226
1096.0,0.0224
1095.0,0.0222
1094.0,0.0221
1093.0,0.022
1092.0,0.0219
1091.0,0.0219
1090.0,0.0217
1089.0,0.0216
1088.0,0.0215
1087.0,0.0215
1086.0,0.0214
1085.0,0.0214
1084.0,0.0213
1083.0,0.0212
1082.0,0.0212
1081.0,0.0213
1080.0,0.0213
1079.0,0.0213
1078.0,0.0212
1077.0,0.0212
1076.0,0.0211
1075.0,0.0211
1074.0,0.0211
1073.0,0.0211
1072.0,0.0212
1071.0,0.0213
1070.0,0.0213
1069.0,0.0213
1068.0,0.0213
1067.0,0.0212
1066.0,0.0212
1065.0,0.0212
1064.0,0.0212
1063.0,0.0212
1062.0,0.0212
1061.0,0.0213
1060.0,0.0214
1059.0,0.0214
1058.0,0.0215
1057.0,0.0214
1056.0,0.0214
1055.0,0.0214
1054.0,0.0215
1053.0,0.0217
1052.0,0.0219
1051.0,0.0221
1050.0,0.0223
1049.0,0.0225
1048.0,0.0227
1047.0,0.0229
1046.0,0.0231
1045.0,0.0232
1044.0,0.0232
1043.0,0.0232
1042.0,0.023
1041.0,0.0229
1040.0,0.0228
1039.0,0.0228
1038.0,0.0228
1037.0,0.0228
1036.0,0.0229
1035.0,0.0229
1034.0,0.0229
1033.0,0.023
1032.0,0.023
1031.0,0.0231
1030.0,0.0231
1029.0,0.0232
1028.0,0.0232
1027.0,0.0232
1026.0,0.0232
1025.0,0.0232
1024.0,0.0232
1023.0,0.0232
1022.0,0.0233
1021.0,0.0233
1020.0,0.0234
1019.0,0.0235
1018.0,0.0234
1017.0,0.0234
1016.0,0.0233
1015.0,0.0233
1014.0,0.0233
1013.0,0.0232
1012.0,0.0231
1011.0,0.0231
1010.0,0.023
1009.0,0.023
1008.0,0.023
1007.0,0.023
1006.0,0.0232
1005.0,0.0236
1004.0,0.0242
1003.0,0.0251
1002.0,0.0263
1001.0,0.028
1000.0,0.0299
999.0,0.0316
998.0,0.0328
997.0,0.0329
996.0,0.0321
995.0,0.0306
994.0,0.029
993.0,0.0275
992.0,0.0263
991.0,0.0254
990.0,0.0247
989.0,0.0243
988.0,0.024
987.0,0.0237
986.0,0.0236
985.0,0.0234
984.0,0.0234
983.0,0.0235
982.0,0.0238
981.0,0.0244
980.0,0.0253
979.0,0.0265
978.0,0.028
977.0,0.03
976.0,0.0322
975.0,0.0343
974.0,0.036
973.0,0.037
972.0,0.0369
971.0,0.0357
970.0,0.034
969.0,0.032
968.0,0.0303
967.0,0.0288
966.0,0.0278
965.0,0.0271
964.0,0.0265
963.0,0.0261
962.0,0.0257
961.0,0.0253
960.0,0.025
959.0,0.0247
958.0,0.0246
957.0,0.0245
956.0,0.0244
955.0,0.0243
954.0,0.0241
953.0,0.0239
952.0,0.0238
951.0,0.0236
950.0,0.0235
949.0,0.0235
948.0,0.0234
947.0,0.0234
946.0,0.0234
945.0,0.0235
944.0,0.0236
943.0,0.0237
942.0,0.0238
941.0,0.024
940.0,0.024
939.0,0.0238
938.0,0.0235
937.0,0.0232
936.0,0.023
935.0,0.0228
934.0,0.0227
933.0,0.0225
932.0,0.0224
931.0,0.0222
930.0,0.022
929.0,0.0219
928.0,0.0218
927.0,0.0217
926.0,0.0217
925.0,0.0217
924.0,0.0216
923.0,0.0217
922.0,0.0218
921.0,0.0219
920.0,0.0219
919.0,0.0218
918.0,0.0217
917.0,0.0216
916.0,0.0216
915.0,0.0217
914.0,0.0217
913.0,0.0217
912.0,0.0217
911.0,0.0218
910.0,0.0219
909.0,0.0219
908.0,0.022
907.0,0.0221
906.0,0.0225
905.0,0.0231
904.0,0.0238
903.0,0.0247
902.0,0.0257
901.0,0.0267
900.0,0.0277
899.0,0.0282
898.0,0.0282
897.0,0.0277
896.0,0.0268
895.0,0.0258
894.0,0.025
893.0,0.0243
892.0,0.0238
891.0,0.0235
890.0,0.0233
889.0,0.0232
888.0,0.023
887.0,0.0228
886.0,0.0227
885.0,0.0226
884.0,0.0226
883.0,0.0226
882.0,0.0226
881.0,0.0226
880.0,0.0227
879.0,0.0228
878.0,0.0228
877.0,0.0228
876.0,0.0228
875.0,0.0227
874.0,0.0226
873.0,0.0226
872.0,0.0227
871.0,0.0227
870.0,0.0227
869.0,0.0227
868.0,0.0227
867.0,0.0227
866.0,0.0227
865.0,0.0226
864.0,0.0226
863.0,0.0225
862.0,0.0225
861.0,0.0225
860.0,0.0225
859.0,0.0226
858.0,0.0228
857.0,0.0229
856.0,0.023
855.0,0.0231
854.0,0.0231
853.0,0.0231
852.0,0.0232
851.0,0.0233
850.0,0.0234
849.0,0.0236
848.0,0.0239
847.0,0.0243
846.0,0.025
845.0,0.0263
844.0,0.0282
843.0,0.0306
842.0,0.0327
841.0,0.0337
840.0,0.0331
839.0,0.0315
838.0,0.0297
837.0,0.0281
836.0,0.0271
835.0,0.0264
834.0,0.0259
833.0,0.0255
832.0,0.0251
831.0,0.0248
830.0,0.0245
829.0,0.0244
828.0,0.0243
827.0,0.0243
826.0,0.0243
825.0,0.0243
824.0,0.0242
823.0,0.0241
822.0,0.0241
821.0,0.0242
820.0,0.0243
819.0,0.0244
818.0,0.0245
817.0,0.0246
816.0,0.0249
815.0,0.0253
814.0,0.026
813.0,0.0268
812.0,0.0278
811.0,0.0288
810.0,0.0297
809.0,0.0303
808.0,0.0305
807.0,0.0302
806.0,0.0296
805.0,0.0288
804.0,0.028
803.0,0.0274
802.0,0.0269
801.0,0.0265
800.0,0.0262
799.0,0.0258
798.0,0.0256
797.0,0.0254
796.0,0.0253
795.0,0.0253
794.0,0.0253
793.0,0.0251
792.0,0.0249
791.0,0.0248
790.0,0.0246
789.0,0.0246
788.0,0.0245
787.0,0.0243
786.0,0.024
785.0,0.0237
784.0,0.0235
783.0,0.0235
782.0,0.0236
781.0,0.0237
780.0,0.0237
779.0,0.0236
778.0,0.0235
777.0,0.0235
776.0,0.0235
775.0,0.0235
774.0,0.0235
773.0,0.0236
772.0,0.0237
771.0,0.0238
770.0,0.0239
769.0,0.0239
768.0,0.024
767.0,0.024
766.0,0.0241
765.0,0.0242
764.0,0.0244
763.0,0.0247
762.0,0.0249
761.0,0.025
760.0,0.025
759.0,0.025
758.0,0.025
757.0,0.025
756.0,0.025
755.0,0.0251
754.0,0.0253
753.0,0.0255
752.0,0.0256
751.0,0.0256
750.0,0.0254
749.0,0.0254
748.0,0.0254
747.0,0.0254
746.0,0.0255
745.0,0.0256
744.0,0.0257
743.0,0.0256
742.0,0.0254
741.0,0.0252
740.0,0.0251
739.0,0.025
738.0,0.0251
737.0,0.0254
736.0,0.0259
735.0,0.0265
734.0,0.0272
733.0,0.028
732.0,0.0289
731.0,0.0297
730.0,0.0302
729.0,0.0301
728.0,0.0295
727.0,0.0289
726.0,0.0285
725.0,0.0285
724.0,0.0289
723.0,0.0295
722.0,0.0306
721.0,0.032
720.0,0.0332
719.0,0.0335
718.0,0.0329
717.0,0.0319
716.0,0.0307
715.0,0.0296
714.0,0.0287
713.0,0.0282
712.0,0.0281
711.0,0.0284
710.0,0.0287
709.0,0.0289
708.0,0.0291
707.0,0.0295
706.0,0.0302
705.0,0.0312
704.0,0.032
703.0,0.0328
702.0,0.0336
701.0,0.0346
700.0,0.0355
699.0,0.036
698.0,0.036
697.0,0.0355
696.0,0.0346
695.0,0.0331
694.0,0.0312
693.0,0.0295
692.0,0.0287
691.0,0.0285
690.0,0.0285
689.0,0.0282
688.0,0.0276
687.0,0.0268
686.0,0.0258
685.0,0.0246
684.0,0.0236
683.0,0.0232
682.0,0.0236
681.0,0.0249
680.0,0.0262
679.0,0.0269
678.0,0.0267
677.0,0.0263
676.0,0.0261
675.0,0.0262
674.0,0.0264
673.0,0.0266
672.0,0.027
671.0,0.0278
670.0,0.0295
669.0,0.0314
668.0,0.0323
667.0,0.0327
666.0,0.032
665.0,0.0308
664.0,0.03
663.0,0.0294
662.0,0.0287
661.0,0.028
660.0,0.0278
659.0,0.0281
658.0,0.0284
657.0,0.0284
656.0,0.0281
655.0,0.0275
654.0,0.027
653.0,0.0268
652.0,0.027
651.0,0.0272
650.0,0.0273
649.0,0.0274
648.0,0.0276
647.0,0.0277
646.0,0.0279
645.0,0.028
644.0,0.0282
643.0,0.0283
642.0,0.0284
641.0,0.0285
640.0,0.0286
639.0,0.0288
638.0,0.029
637.0,0.0295
636.0,0.0304
635.0,0.0316
634.0,0.0324
633.0,0.0324
632.0,0.0319
631.0,0.0313
630.0,0.0309
629.0,0.0305
628.0,0.0302
627.0,0.0299
626.0,0.0296
625.0,0.0295
624.0,0.0297
623.0,0.03
622.0,0.0302
621.0,0.0301
620.0,0.0299
619.0,0.0298
618.0,0.0299
617.0,0.0305
616.0,0.0313
615.0,0.0321
614.0,0.0327
613.0,0.0331
612.0,0.0334
611.0,0.0337
610.0,0.0337
609.0,0.0334
608.0,0.0326
607.0,0.0313
606.0,0.0298
605.0,0.0286
604.0,0.0282
603.0,0.0287
602.0,0.0295
601.0,0.0298
600.0,0.0297
