cm-1,A
4000.0,0.0064
3999.0,0.0064
3998.0,0.0064
3997.0,0.0063
3996.0,0.0063
3995.0,0.0062
3994.0,0.0061
3993.0,0.006
3992.0,0.006
3991.0,0.006
3990.0,0.0061
3989.0,0.0062
3988.0,0.0063
3987.0,0.0064
3986.0,0.0064
3985.0,0.0063
3984.0,0.0062
3983.0,0.0062
3982.0,0.0062
3981.0,0.0063
3980.0,0.0064
3979.0,0.0064
3978.0,0.0064
3977.0,0.0064
3976.0,0.0065
3975.0,0.0065
3974.0,0.0066
3973.0,0.0066
3972.0,0.0065
3971.0,0.0064
3970.0,0.0063
3969.0,0.0063
3968.0,0.0062
3967.0,0.0061
3966.0,0.0061
3965.0,0.006
3964.0,0.006
3963.0,0.006
3962.0,0.006
3961.0,0.0061
3960.0,0.0062
3959.0,0.0063
3958.0,0.0064
3957.0,0.0064
3956.0,0.0064
3955.0,0.0064
3954.0,0.0065
3953.0,0.0065
3952.0,0.0065
3951.0,0.0065
3950.0,0.0064
3949.0,0.0064
3948.0,0.0064
3947.0,0.0064
3946.0,0.0065
3945.0,0.0065
3944.0,0.0065
3943.0,0.0065
3942.0,0.0065
3941.0,0.0065
3940.0,0.0065
3939.0,0.0065
3938.0,0.0065
3937.0,0.0065
3936.0,0.0065
3935.0,0.0065
3934.0,0.0064
3933.0,0.0064
3932.0,0.0064
3931.0,0.0064
3930.0,0.0064
3929.0,0.0064
3928.0,0.0064
3927.0,0.0064
3926.0,0.0064
3925.0,0.0065
3924.0,0.0065
3923.0,0.0066
3922.0,0.0066
3921.0,0.0066
3920.0,0.0065
3919.0,0.0066
3918.0,0.0066
3917.0,0.0066
3916.0,0.0065
3915.0,0.0065
3914.0,0.0065
3913.0,0.0065
3912.0,0.0065
3911.0,0.0065
3910.0,0.0067
3909.0,0.0068
3908.0,0.007
3907.0,0.0071
3906.0,0.0072
3905.0,0.0071
3904.0,0.007
3903.0,0.0068
3902.0,0.0066
3901.0,0.0064
3900.0,0.0064
3899.0,0.0064
3898.0,0.0065
3897.0,0.0066
3896.0,0.0067
3895.0,0.0068
3894.0,0.0068
3893.0,0.0068
3892.0,0.0067
3891.0,0.0067
3890.0,0.0068
3889.0,0.0068
3888.0,0.0069
3887.0,0.007
3886.0,0.007
3885.0,0.007
3884.0,0.007
3883.0,0.007
3882.0,0.007
3881.0,0.0069
3880.0,0.0068
3879.0,0.0067
3878.0,0.0067
3877.0,0.0068
3876.0,0.0068
3875.0,0.0067
3874.0,0.0068
3873.0,0.0069
3872.0,0.007
3871.0,0.0071
3870.0,0.0071
3869.0,0.007
3868.0,0.007
3867.0,0.0069
3866.0,0.0069
3865.0,0.0068
3864.0,0.0069
3863.0,0.007
3862.0,0.007
3861.0,0.007
3860.0,0.0069
3859.0,0.0068
3858.0,0.0068
3857.0,0.0067
3856.0,0.0067
3855.0,0.0067
3854.0,0.0066
3853.0,0.0066
3852.0,0.0066
3851.0,0.0067
3850.0,0.0067
3849.0,0.0068
3848.0,0.0068
3847.0,0.0069
3846.0,0.0069
3845.0,0.0069
3844.0,0.007
3843.0,0.007
3842.0,0.007
3841.0,0.007
3840.0,0.007
3839.0,0.0071
3838.0,0.0072
3837.0,0.0072
3836.0,0.0071
3835.0,0.0071
3834.0,0.007
3833.0,0.007
3832.0,0.0069
3831.0,0.0069
3830.0,0.007
3829.0,0.007
3828.0,0.007
3827.0,0.007
3826.0,0.007
3825.0,0.0071
3824.0,0.0072
3823.0,0.0072
3822.0,0.0071
3821.0,0.007
3820.0,0.0068
3819.0,0.0068
3818.0,0.0068
3817.0,0.0068
3816.0,0.0067
3815.0,0.0068
3814.0,0.0068
3813.0,0.0069
3812.0,0.007
3811.0,0.0071
3810.0,0.0072
3809.0,0.0072
3808.0,0.0071
3807.0,0.0071
3806.0,0.0071
3805.0,0.0072
3804.0,0.0073
3803.0,0.0073
3802.0,0.0073
3801.0,0.0073
3800.0,0.0073
3799.0,0.0073
3798.0,0.0072
3797.0,0.0072
3796.0,0.0071
3795.0,0.0071
3794.0,0.0071
3793.0,0.0071
3792.0,0.0071
3791.0,0.0071
3790.0,0.0072
3789.0,0.0072
3788.0,0.0072
3787.0,0.0072
3786.0,0.0073
3785.0,0.0073
3784.0,0.0073
3783.0,0.0073
3782.0,0.0073
3781.0,0.0072
3780.0,0.0072
3779.0,0.0071
3778.0,0.0071
3777.0,0.0072
3776.0,0.0072
3775.0,0.0073
3774.0,0.0073
3773.0,0.0074
3772.0,0.0075
3771.0,0.0075
3770.0,0.0074
3769.0,0.0073
3768.0,0.0072
3767.0,0.0072
3766.0,0.0072
3765.0,0.0072
3764.0,0.0073
3763.0,0.0074
3762.0,0.0074
3761.0,0.0074
3760.0,0.0074
3759.0,0.0074
3758.0,0.0074
3757.0,0.0074
3756.0,0.0074
3755.0,0.0074
3754.0,0.0075
3753.0,0.0076
3752.0,0.0077
3751.0,0.0078
3750.0,0.0078
3749.0,0.0076
3748.0,0.0075
3747.0,0.0074
3746.0,0.0073
3745.0,0.0071
3744.0,0.0069
3743.0,0.0069
3742.0,0.0069
3741.0,0.0069
3740.0,0.0068
3739.0,0.0067
3738.0,0.0066
3737.0,0.0063
3736.0,0.006
3735.0,0.006
3734.0,0.006
3733.0,0.006
3732.0,0.0059
3731.0,0.0058
3730.0,0.0058
3729.0,0.0058
3728.0,0.0057
3727.0,0.0057
3726.0,0.0057
3725.0,0.0059
3724.0,0.006
3723.0,0.0061
3722.0,0.0062
3721.0,0.0063
3720.0,0.0064
3719.0,0.0066
3718.0,0.0068
3717.0,0.007
3716.0,0.007
3715.0,0.007
3714.0,0.0069
3713.0,0.0067
3712.0,0.0065
3711.0,0.0064
3710.0,0.0063
3709.0,0.0063
3708.0,0.0063
3707.0,0.0063
3706.0,0.0063
3705.0,0.0063
3704.0,0.0063
3703.0,0.0064
3702.0,0.0064
3701.0,0.0064
3700.0,0.0064
3699.0,0.0064
3698.0,0.0064
3697.0,0.0065
3696.0,0.0066
3695.0,0.0066
3694.0,0.0067
3693.0,0.0067
3692.0,0.0067
3691.0,0.0069
3690.0,0.0071
3689.0,0.0072
3688.0,0.0071
3687.0,0.0071
3686.0,0.0071
3685.0,0.0071
3684.0,0.0071
3683.0,0.0072
3682.0,0.0073
3681.0,0.0074
3680.0,0.0074
3679.0,0.0075
3678.0,0.0076
3677.0,0.0077
3676.0,0.0077
3675.0,0.0077
3674.0,0.0078
3673.0,0.0078
3672.0,0.0078
3671.0,0.0077
3670.0,0.0077
3669.0,0.0076
3668.0,0.0075
3667.0,0.0075
3666.0,0.0075
3665.0,0.0075
3664.0,0.0076
3663.0,0.0076
3662.0,0.0077
3661.0,0.0077
3660.0,0.0077
3659.0,0.0077
3658.0,0.0078
3657.0,0.0079
3656.0,0.0079
3655.0,0.008
3654.0,0.008
3653.0,0.0081
3652.0,0.0081
3651.0,0.008
3650.0,0.0079
3649.0,0.0079
3648.0,0.0079
3647.0,0.0078
3646.0,0.0078
3645.0,0.0078
3644.0,0.0077
3643.0,0.0076
3642.0,0.0076
3641.0,0.0076
3640.0,0.0076
3639.0,0.0075
3638.0,0.0075
3637.0,0.0074
3636.0,0.0073
3635.0,0.0072
3634.0,0.0072
3633.0,0.0071
3632.0,0.0072
3631.0,0.0072
3630.0,0.0071
3629.0,0.0071
3628.0,0.0071
3627.0,0.0071
3626.0,0.007
3625.0,0.007
3624.0,0.0071
3623.0,0.0073
3622.0,0.0075
3621.0,0.0077
3620.0,0.0078
3619.0,0.0078
3618.0,0.0079
3617.0,0.0079
3616.0,0.0081
3615.0,0.0082
3614.0,0.0083
3613.0,0.0083
3612.0,0.0082
3611.0,0.008
3610.0,0.0079
3609.0,0.0077
3608.0,0.0076
3607.0,0.0075
3606.0,0.0075
3605.0,0.0075
3604.0,0.0075
3603.0,0.0075
3602.0,0.0075
3601.0,0.0075
3600.0,0.0076
3599.0,0.0076
3598.0,0.0077
3597.0,0.0076
3596.0,0.0075
3595.0,0.0074
3594.0,0.0073
3593.0,0.0074
3592.0,0.0077
3591.0,0.0079
3590.0,0.0082
3589.0,0.0083
3588.0,0.0082
3587.0,0.0081
3586.0,0.008
3585.0,0.008
3584.0,0.008
3583.0,0.008
3582.0,0.0081
3581.0,0.0082
3580.0,0.0083
3579.0,0.0084
3578.0,0.0085
3577.0,0.0085
3576.0,0.0086
3575.0,0.0086
3574.0,0.0085
3573.0,0.0085
3572.0,0.0085
3571.0,0.0085
3570.0,0.0086
3569.0,0.0086
3568.0,0.0086
3567.0,0.0087
3566.0,0.0088
3565.0,0.0088
3564.0,0.0088
3563.0,0.0088
3562.0,0.0088
3561.0,0.0089
3560.0,0.0089
3559.0,0.0089
3558.0,0.0088
3557.0,0.0088
3556.0,0.0086
3555.0,0.0086
3554.0,0.0085
3553.0,0.0085
3552.0,0.0086
3551.0,0.0087
3550.0,0.0088
3549.0,0.0089
3548.0,0.0091
3547.0,0.0091
3546.0,0.0092
3545.0,0.0092
3544.0,0.0092
3543.0,0.0091
3542.0,0.009
3541.0,0.009
3540.0,0.0089
3539.0,0.0088
3538.0,0.0088
3537.0,0.0089
3536.0,0.0089
3535.0,0.0089
3534.0,0.0089
3533.0,0.0089
3532.0,0.0089
3531.0,0.0089
3530.0,0.0089
3529.0,0.009
3528.0,0.009
3527.0,0.009
3526.0,0.009
3525.0,0.009
3524.0,0.009
3523.0,0.009
3522.0,0.009
3521.0,0.009
3520.0,0.009
3519.0,0.009
3518.0,0.009
3517.0,0.009
3516.0,0.0091
3515.0,0.0092
3514.0,0.0092
3513.0,0.0092
3512.0,0.0092
3511.0,0.0091
3510.0,0.009
3509.0,0.009
3508.0,0.009
3507.0,0.009
3506.0,0.009
3505.0,0.0091
3504.0,0.0092
3503.0,0.0093
3502.0,0.0094
3501.0,0.0094
3500.0,0.0095
3499.0,0.0095
3498.0,0.0094
3497.0,0.0094
3496.0,0.0093
3495.0,0.0092
3494.0,0.0091
3493.0,0.009
3492.0,0.009
3491.0,0.009
3490.0,0.0091
3489.0,0.0091
3488.0,0.0092
3487.0,0.0093
3486.0,0.0093
3485.0,0.0094
3484.0,0.0094
3483.0,0.0094
3482.0,0.0094
3481.0,0.0094
3480.0,0.0093
3479.0,0.0093
3478.0,0.0094
3477.0,0.0094
3476.0,0.0094
3475.0,0.0095
3474.0,0.0095
3473.0,0.0094
3472.0,0.0093
3471.0,0.0091
3470.0,0.0091
3469.0,0.0092
3468.0,0.0093
3467.0,0.0095
3466.0,0.0095
3465.0,0.0095
3464.0,0.0095
3463.0,0.0095
3462.0,0.0095
3461.0,0.0094
3460.0,0.0094
3459.0,0.0093
3458.0,0.0092
3457.0,0.0092
3456.0,0.0092
3455.0,0.0092
3454.0,0.0092
3453.0,0.0092
3452.0,0.0092
3451.0,0.0092
3450.0,0.0092
3449.0,0.0092
3448.0,0.0091
3447.0,0.009
3446.0,0.009
3445.0,0.0091
3444.0,0.0091
3443.0,0.0092
3442.0,0.0092
3441.0,0.0092
3440.0,0.0093
3439.0,0.0093
3438.0,0.0094
3437.0,0.0094
3436.0,0.0094
3435.0,0.0094
3434.0,0.0094
3433.0,0.0093
3432.0,0.0091
3431.0,0.009
3430.0,0.009
3429.0,0.0091
3428.0,0.0092
3427.0,0.0093
3426.0,0.0093
3425.0,0.0093
3424.0,0.0093
3423.0,0.0093
3422.0,0.0094
3421.0,0.0094
3420.0,0.0095
3419.0,0.0094
3418.0,0.0094
3417.0,0.0093
3416.0,0.0092
3415.0,0.0092
3414.0,0.0092
3413.0,0.0092
3412.0,0.0093
3411.0,0.0093
3410.0,0.0093
3409.0,0.0093
3408.0,0.0093
3407.0,0.0093
3406.0,0.0093
3405.0,0.0093
3404.0,0.0093
3403.0,0.0093
3402.0,0.0092
3401.0,0.0093
3400.0,0.0094
3399.0,0.0094
3398.0,0.0094
3397.0,0.0094
3396.0,0.0093
3395.0,0.0093
3394.0,0.0094
3393.0,0.0094
3392.0,0.0094
3391.0,0.0093
3390.0,0.0092
3389.0,0.0092
3388.0,0.0092
3387.0,0.0092
3386.0,0.0092
3385.0,0.0093
3384.0,0.0093
3383.0,0.0092
3382.0,0.0092
3381.0,0.0093
3380.0,0.0093
3379.0,0.0093
3378.0,0.0092
3377.0,0.0092
3376.0,0.0092
3375.0,0.0092
3374.0,0.0093
3373.0,0.0093
3372.0,0.0093
3371.0,0.0093
3370.0,0.0092
3369.0,0.0092
3368.0,0.0091
3367.0,0.0092
3366.0,0.0092
3365.0,0.0093
3364.0,0.0093
3363.0,0.0093
3362.0,0.0093
3361.0,0.0094
3360.0,0.0094
3359.0,0.0093
3358.0,0.0093
3357.0,0.0093
3356.0,0.0092
3355.0,0.0092
3354.0,0.0092
3353.0,0.0091
3352.0,0.009
3351.0,0.009
3350.0,0.0091
3349.0,0.0092
3348.0,0.0093
3347.0,0.0094
3346.0,0.0093
3345.0,0.0092
3344.0,0.0091
3343.0,0.009
3342.0,0.0091
3341.0,0.0092
3340.0,0.0093
3339.0,0.0094
3338.0,0.0094
3337.0,0.0094
3336.0,0.0093
3335.0,0.0092
3334.0,0.0092
3333.0,0.0091
3332.0,0.0091
3331.0,0.0091
3330.0,0.0091
3329.0,0.0092
3328.0,0.0092
3327.0,0.0092
3326.0,0.0092
3325.0,0.0092
3324.0,0.0092
3323.0,0.0092
3322.0,0.0092
3321.0,0.0092
3320.0,0.0091
3319.0,0.0091
3318.0,0.0091
3317.0,0.0091
3316.0,0.0092
3315.0,0.0092
3314.0,0.0091
3313.0,0.0091
3312.0,0.0091
3311.0,0.0092
3310.0,0.0093
3309.0,0.0093
3308.0,0.0092
3307.0,0.0091
3306.0,0.0091
3305.0,0.009
3304.0,0.009
3303.0,0.0091
3302.0,0.0091
3301.0,0.0092
3300.0,0.0092
3299.0,0.0091
3298.0,0.0091
3297.0,0.0091
3296.0,0.0091
3295.0,0.0092
3294.0,0.0093
3293.0,0.0093
3292.0,0.0093
3291.0,0.0093
3290.0,0.0092
3289.0,0.0092
3288.0,0.0092
3287.0,0.0092
3286.0,0.0092
3285.0,0.0092
3284.0,0.0093
3283.0,0.0093
3282.0,0.0093
3281.0,0.0092
3280.0,0.0091
3279.0,0.0091
3278.0,0.0091
3277.0,0.0092
3276.0,0.0091
3275.0,0.0091
3274.0,0.009
3273.0,0.0089
3272.0,0.0089
3271.0,0.0089
3270.0,0.0091
3269.0,0.0092
3268.0,0.0092
3267.0,0.0091
3266.0,0.009
3265.0,0.0089
3264.0,0.0089
3263.0,0.0089
3262.0,0.0089
3261.0,0.0089
3260.0,0.0089
3259.0,0.0089
3258.0,0.009
3257.0,0.0091
3256.0,0.0092
3255.0,0.0092
3254.0,0.0091
3253.0,0.009
3252.0,0.0089
3251.0,0.0089
3250.0,0.009
3249.0,0.009
3248.0,0.0091
3247.0,0.009
3246.0,0.009
3245.0,0.009
3244.0,0.0089
3243.0,0.0088
3242.0,0.0088
3241.0,0.0088
3240.0,0.0089
3239.0,0.0089
3238.0,0.009
3237.0,0.009
3236.0,0.009
3235.0,0.0091
3234.0,0.009
3233.0,0.0089
3232.0,0.0089
3231.0,0.0088
3230.0,0.0088
3229.0,0.0088
3228.0,0.0088
3227.0,0.0088
3226.0,0.0088
3225.0,0.0088
3224.0,0.0089
3223.0,0.0089
3222.0,0.0089
3221.0,0.009
3220.0,0.009
3219.0,0.009
3218.0,0.009
3217.0,0.009
3216.0,0.0089
3215.0,0.0089
3214.0,0.0088
3213.0,0.0087
3212.0,0.0087
3211.0,0.0087
3210.0,0.0088
3209.0,0.0089
3208.0,0.0089
3207.0,0.0089
3206.0,0.009
3205.0,0.0089
3204.0,0.0089
3203.0,0.0088
3202.0,0.0089
3201.0,0.0089
3200.0,0.0088
3199.0,0.0086
3198.0,0.0085
3197.0,0.0085
3196.0,0.0085
3195.0,0.0086
3194.0,0.0086
3193.0,0.0087
3192.0,0.0087
3191.0,0.0088
3190.0,0.0089
3189.0,0.009
3188.0,0.009
3187.0,0.009
3186.0,0.0089
3185.0,0.0089
3184.0,0.0089
3183.0,0.0089
3182.0,0.009
3181.0,0.009
3180.0,0.009
3179.0,0.009
3178.0,0.009
3177.0,0.0089
3176.0,0.009
3175.0,0.009
3174.0,0.009
3173.0,0.0089
3172.0,0.0088
3171.0,0.0087
3170.0,0.0087
3169.0,0.0086
3168.0,0.0086
3167.0,0.0087
3166.0,0.0087
3165.0,0.0088
3164.0,0.0088
3163.0,0.0088
3162.0,0.0088
3161.0,0.0087
3160.0,0.0087
3159.0,0.0087
3158.0,0.0087
3157.0,0.0087
3156.0,0.0087
3155.0,0.0087
3154.0,0.0087
3153.0,0.0086
3152.0,0.0085
3151.0,0.0084
3150.0,0.0083
3149.0,0.0084
3148.0,0.0084
3147.0,0.0085
3146.0,0.0086
3145.0,0.0086
3144.0,0.0086
3143.0,0.0086
3142.0,0.0087
3141.0,0.0087
3140.0,0.0087
3139.0,0.0087
3138.0,0.0087
3137.0,0.0087
3136.0,0.0086
3135.0,0.0086
3134.0,0.0085
3133.0,0.0085
3132.0,0.0084
3131.0,0.0084
3130.0,0.0084
3129.0,0.0084
3128.0,0.0084
3127.0,0.0084
3126.0,0.0084
3125.0,0.0084
3124.0,0.0083
3123.0,0.0083
3122.0,0.0083
3121.0,0.0084
3120.0,0.0084
3119.0,0.0084
3118.0,0.0084
3117.0,0.0084
3116.0,0.0084
3115.0,0.0084
3114.0,0.0085
3113.0,0.0086
3112.0,0.0086
3111.0,0.0087
3110.0,0.0087
3109.0,0.0087
3108.0,0.0087
3107.0,0.0087
3106.0,0.0087
3105.0,0.0088
3104.0,0.0089
3103.0,0.009
3102.0,0.009
3101.0,0.009
3100.0,0.0089
3099.0,0.0088
3098.0,0.0088
3097.0,0.0087
3096.0,0.0086
3095.0,0.0086
3094.0,0.0086
3093.0,0.0087
3092.0,0.0088
3091.0,0.0088
3090.0,0.009
3089.0,0.0092
3088.0,0.0094
3087.0,0.0096
3086.0,0.0099
3085.0,0.0101
3084.0,0.0103
3083.0,0.0105
3082.0,0.0106
3081.0,0.0106
3080.0,0.0105
3079.0,0.0104
3078.0,0.0102
3077.0,0.0101
3076.0,0.01
3075.0,0.0099
3074.0,0.0098
3073.0,0.0098
3072.0,0.0098
3071.0,0.0099
3070.0,0.01
3069.0,0.01
3068.0,0.0101
3067.0,0.0103
3066.0,0.0105
3065.0,0.0107
3064.0,0.011
3063.0,0.0113
3062.0,0.0115
3061.0,0.0117
3060.0,0.0119
3059.0,0.0119
3058.0,0.012
3057.0,0.0119
3056.0,0.0117
3055.0,0.0115
3054.0,0.0112
3053.0,0.011
3052.0,0.0107
3051.0,0.0105
3050.0,0.0103
3049.0,0.0102
3048.0,0.0101
3047.0,0.0101
3046.0,0.0101
3045.0,0.0101
3044.0,0.01
3043.0,0.01
3042.0,0.01
3041.0,0.01
3040.0,0.01
3039.0,0.01
3038.0,0.0101
3037.0,0.0102
3036.0,0.0104
3035.0,0.0107
3034.0,0.0112
3033.0,0.0116
3032.0,0.0122
3031.0,0.0128
3030.0,0.0134
3029.0,0.0139
3028.0,0.0145
3027.0,0.0151
3026.0,0.0155
3025.0,0.0158
3024.0,0.0158
3023.0,0.0156
3022.0,0.0152
3021.0,0.0148
3020.0,0.0143
3019.0,0.0138
3018.0,0.0134
3017.0,0.0129
3016.0,0.0125
3015.0,0.0121
3014.0,0.0118
3013.0,0.0116
3012.0,0.0113
3011.0,0.0112
3010.0,0.0111
3009.0,0.011
3008.0,0.0109
3007.0,0.0109
3006.0,0.0109
3005.0,0.0109
3004.0,0.011
3003.0,0.0111
3002.0,0.0112
3001.0,0.0112
3000.0,0.0111
2999.0,0.0111
2998.0,0.0109
2997.0,0.0108
2996.0,0.0107
2995.0,0.0106
2994.0,0.0105
2993.0,0.0104
2992.0,0.0103
2991.0,0.0102
2990.0,0.01
2989.0,0.01
2988.0,0.0099
2987.0,0.0099
2986.0,0.0098
2985.0,0.0098
2984.0,0.0098
2983.0,0.0097
2982.0,0.0097
2981.0,0.0097
2980.0,0.0096
2979.0,0.0096
2978.0,0.0096
2977.0,0.0096
2976.0,0.0096
2975.0,0.0095
2974.0,0.0095
2973.0,0.0095
2972.0,0.0096
2971.0,0.0096
2970.0,0.0096
2969.0,0.0096
2968.0,0.0095
2967.0,0.0095
2966.0,0.0095
2965.0,0.0095
2964.0,0.0096
2963.0,0.0096
2962.0,0.0097
2961.0,0.0097
2960.0,0.0097
2959.0,0.0098
2958.0,0.0098
2957.0,0.0099
2956.0,0.01
2955.0,0.01
2954.0,0.0101
2953.0,0.0103
2952.0,0.0104
2951.0,0.0105
2950.0,0.0106
2949.0,0.0106
2948.0,0.0107
2947.0,0.0108
2946.0,0.011
2945.0,0.0111
2944.0,0.0113
2943.0,0.0115
2942.0,0.0117
2941.0,0.0119
2940.0,0.0122
2939.0,0.0124
2938.0,0.0127
2937.0,0.0131
2936.0,0.0135
2935.0,0.014
2934.0,0.0144
2933.0,0.0148
2932.0,0.0152
2931.0,0.0156
2930.0,0.016
2929.0,0.0165
2928.0,0.0169
2927.0,0.0173
2926.0,0.0177
2925.0,0.018
2924.0,0.0182
2923.0,0.0185
2922.0,0.0187
2921.0,0.0188
2920.0,0.0189
2919.0,0.0189
2918.0,0.0189
2917.0,0.0188
2916.0,0.0187
2915.0,0.0186
2914.0,0.0185
2913.0,0.0184
2912.0,0.0183
2911.0,0.0181
2910.0,0.0179
2909.0,0.0177
2908.0,0.0175
2907.0,0.0174
2906.0,0.0172
2905.0,0.017
2904.0,0.0169
2903.0,0.0167
2902.0,0.0165
2901.0,0.0164
2900.0,0.0162
2899.0,0.016
2898.0,0.0158
2897.0,0.0156
2896.0,0.0155
2895.0,0.0154
2894.0,0.0152
2893.0,0.0151
2892.0,0.015
2891.0,0.0148
2890.0,0.0147
2889.0,0.0145
2888.0,0.0144
2887.0,0.0143
2886.0,0.0141
2885.0,0.014
2884.0,0.0139
2883.0,0.0138
2882.0,0.0138
2881.0,0.0137
2880.0,0.0136
2879.0,0.0135
2878.0,0.0135
2877.0,0.0134
2876.0,0.0134
2875.0,0.0133
2874.0,0.0132
2873.0,0.0132
2872.0,0.0132
2871.0,0.0132
2870.0,0.0131
2869.0,0.0131
2868.0,0.0131
2867.0,0.0131
2866.0,0.0131
2865.0,0.0131
2864.0,0.0132
2863.0,0.0133
2862.0,0.0134
2861.0,0.0136
2860.0,0.0137
2859.0,0.0138
2858.0,0.0139
2857.0,0.0141
2856.0,0.0143
2855.0,0.0145
2854.0,0.0148
2853.0,0.015
2852.0,0.0152
2851.0,0.0154
2850.0,0.0155
2849.0,0.0156
2848.0,0.0157
2847.0,0.0156
2846.0,0.0154
2845.0,0.0153
2844.0,0.0151
2843.0,0.015
2842.0,0.0148
2841.0,0.0146
2840.0,0.0143
2839.0,0.0141
2838.0,0.0138
2837.0,0.0136
2836.0,0.0135
2835.0,0.0133
2834.0,0.0132
2833.0,0.0131
2832.0,0.0129
2831.0,0.0128
2830.0,0.0127
2829.0,0.0126
2828.0,0.0125
2827.0,0.0124
2826.0,0.0122
2825.0,0.0122
2824.0,0.0121
2823.0,0.0122
2822.0,0.0122
2821.0,0.0122
2820.0,0.0122
2819.0,0.0122
2818.0,0.0122
2817.0,0.0121
2816.0,0.0121
2815.0,0.012
2814.0,0.012
2813.0,0.012
2812.0,0.012
2811.0,0.012
2810.0,0.0119
2809.0,0.0119
2808.0,0.0119
2807.0,0.0118
2806.0,0.0118
2805.0,0.0118
2804.0,0.0118
2803.0,0.0118
2802.0,0.0118
2801.0,0.0117
2800.0,0.0118
2799.0,0.0118
2798.0,0.0118
2797.0,0.0118
2796.0,0.0118
2795.0,0.0117
2794.0,0.0117
2793.0,0.0117
2792.0,0.0117
2791.0,0.0117
2790.0,0.0117
2789.0,0.0117
2788.0,0.0117
2787.0,0.0117
2786.0,0.0117
2785.0,0.0117
2784.0,0.0116
2783.0,0.0116
2782.0,0.0116
2781.0,0.0115
2780.0,0.0115
2779.0,0.0115
2778.0,0.0115
2777.0,0.0115
2776.0,0.0115
2775.0,0.0115
2774.0,0.0114
2773.0,0.0114
2772.0,0.0114
2771.0,0.0114
2770.0,0.0115
2769.0,0.0115
2768.0,0.0115
2767.0,0.0115
2766.0,0.0115
2765.0,0.0114
2764.0,0.0114
2763.0,0.0114
2762.0,0.0113
2761.0,0.0113
2760.0,0.0114
2759.0,0.0114
2758.0,0.0114
2757.0,0.0114
2756.0,0.0114
2755.0,0.0114
2754.0,0.0114
2753.0,0.0114
2752.0,0.0114
2751.0,0.0114
2750.0,0.0114
2749.0,0.0114
2748.0,0.0114
2747.0,0.0113
2746.0,0.0113
2745.0,0.0113
2744.0,0.0112
2743.0,0.0112
2742.0,0.0113
2741.0,0.0113
2740.0,0.0113
2739.0,0.0114
2738.0,0.0114
2737.0,0.0114
2736.0,0.0114
2735.0,0.0113
2734.0,0.0113
2733.0,0.0113
2732.0,0.0113
2731.0,0.0113
2730.0,0.0113
2729.0,0.0114
2728.0,0.0114
2727.0,0.0114
2726.0,0.0114
2725.0,0.0114
2724.0,0.0114
2723.0,0.0114
2722.0,0.0114
2721.0,0.0114
2720.0,0.0114
2719.0,0.0114
2718.0,0.0114
2717.0,0.0114
2716.0,0.0114
2715.0,0.0114
2714.0,0.0114
2713.0,0.0114
2712.0,0.0115
2711.0,0.0115
2710.0,0.0115
2709.0,0.0114
2708.0,0.0114
2707.0,0.0114
2706.0,0.0115
2705.0,0.0115
2704.0,0.0114
2703.0,0.0114
2702.0,0.0113
2701.0,0.0113
2700.0,0.0113
2699.0,0.0114
2698.0,0.0114
2697.0,0.0114
2696.0,0.0114
2695.0,0.0114
2694.0,0.0113
2693.0,0.0113
2692.0,0.0113
2691.0,0.0113
2690.0,0.0113
2689.0,0.0113
2688.0,0.0113
2687.0,0.0113
2686.0,0.0112
2685.0,0.0112
2684.0,0.0112
2683.0,0.0113
2682.0,0.0113
2681.0,0.0113
2680.0,0.0113
2679.0,0.0113
2678.0,0.0113
2677.0,0.0113
2676.0,0.0112
2675.0,0.0112
2674.0,0.0113
2673.0,0.0113
2672.0,0.0113
2671.0,0.0114
2670.0,0.0114
2669.0,0.0114
2668.0,0.0114
2667.0,0.0113
2666.0,0.0113
2665.0,0.0112
2664.0,0.0112
2663.0,0.0112
2662.0,0.0112
2661.0,0.0113
2660.0,0.0113
2659.0,0.0113
2658.0,0.0113
2657.0,0.0113
2656.0,0.0113
2655.0,0.0114
2654.0,0.0114
2653.0,0.0114
2652.0,0.0114
2651.0,0.0113
2650.0,0.0113
2649.0,0.0113
2648.0,0.0113
2647.0,0.0112
2646.0,0.0112
2645.0,0.0112
2644.0,0.0113
2643.0,0.0113
2642.0,0.0113
2641.0,0.0113
2640.0,0.0113
2639.0,0.0112
2638.0,0.0112
2637.0,0.0111
2636.0,0.0112
2635.0,0.0112
2634.0,0.0112
2633.0,0.0113
2632.0,0.0113
2631.0,0.0113
2630.0,0.0113
2629.0,0.0113
2628.0,0.0113
2627.0,0.0112
2626.0,0.0112
2625.0,0.0111
2624.0,0.0111
2623.0,0.0111
2622.0,0.0111
2621.0,0.0112
2620.0,0.0112
2619.0,0.0112
2618.0,0.0112
2617.0,0.0112
2616.0,0.0112
2615.0,0.0113
2614.0,0.0113
2613.0,0.0113
2612.0,0.0113
2611.0,0.0113
2610.0,0.0112
2609.0,0.0112
2608.0,0.0112
2607.0,0.0112
2606.0,0.0112
2605.0,0.0112
2604.0,0.0111
2603.0,0.0111
2602.0,0.0111
2601.0,0.0112
2600.0,0.0112
2599.0,0.0112
2598.0,0.0112
2597.0,0.0111
2596.0,0.0111
2595.0,0.0111
2594.0,0.0111
2593.0,0.0112
2592.0,0.0112
2591.0,0.0113
2590.0,0.0112
2589.0,0.0112
2588.0,0.0112
2587.0,0.0112
2586.0,0.0112
2585.0,0.0112
2584.0,0.0112
2583.0,0.0112
2582.0,0.0112
2581.0,0.0112
2580.0,0.0112
2579.0,0.0112
2578.0,0.0112
2577.0,0.0112
2576.0,0.0112
2575.0,0.0112
2574.0,0.0112
2573.0,0.0112
2572.0,0.0112
2571.0,0.0112
2570.0,0.0112
2569.0,0.0112
2568.0,0.0112
2567.0,0.0112
2566.0,0.0112
2565.0,0.0113
2564.0,0.0113
2563.0,0.0112
2562.0,0.0112
2561.0,0.0111
2560.0,0.011
2559.0,0.011
2558.0,0.011
2557.0,0.011
2556.0,0.011
2555.0,0.011
2554.0,0.0111
2553.0,0.0111
2552.0,0.0111
2551.0,0.0111
2550.0,0.0111
2549.0,0.0112
2548.0,0.0112
2547.0,0.0112
2546.0,0.0112
2545.0,0.0112
2544.0,0.0112
2543.0,0.0112
2542.0,0.0113
2541.0,0.0113
2540.0,0.0112
2539.0,0.0112
2538.0,0.0111
2537.0,0.0111
2536.0,0.0111
2535.0,0.0111
2534.0,0.0112
2533.0,0.0111
2532.0,0.0111
2531.0,0.0111
2530.0,0.0111
2529.0,0.0111
2528.0,0.0111
2527.0,0.0111
2526.0,0.0112
2525.0,0.0112
2524.0,0.0112
2523.0,0.0112
2522.0,0.0111
2521.0,0.0111
2520.0,0.0112
2519.0,0.0112
2518.0,0.0112
2517.0,0.0113
2516.0,0.0113
2515.0,0.0113
2514.0,0.0112
2513.0,0.0112
2512.0,0.0112
2511.0,0.0112
2510.0,0.0112
2509.0,0.0112
2508.0,0.0112
2507.0,0.0112
2506.0,0.0112
2505.0,0.0112
2504.0,0.0112
2503.0,0.0112
2502.0,0.0112
2501.0,0.0111
2500.0,0.0111
2499.0,0.0111
2498.0,0.0112
2497.0,0.0112
2496.0,0.0112
2495.0,0.0112
2494.0,0.0112
2493.0,0.0112
2492.0,0.0111
2491.0,0.0111
2490.0,0.0111
2489.0,0.0112
2488.0,0.0112
2487.0,0.0112
2486.0,0.0112
2485.0,0.0112
2484.0,0.0112
2483.0,0.0112
2482.0,0.0111
2481.0,0.0111
2480.0,0.0111
2479.0,0.0111
2478.0,0.0111
2477.0,0.0111
2476.0,0.0111
2475.0,0.0111
2474.0,0.0111
2473.0,0.0111
2472.0,0.0111
2471.0,0.0111
2470.0,0.011
2469.0,0.011
2468.0,0.011
2467.0,0.011
2466.0,0.011
2465.0,0.0111
2464.0,0.0112
2463.0,0.0112
2462.0,0.0112
2461.0,0.0111
2460.0,0.0111
2459.0,0.011
2458.0,0.011
2457.0,0.011
2456.0,0.0111
2455.0,0.0111
2454.0,0.0111
2453.0,0.0111
2452.0,0.0111
2451.0,0.0112
2450.0,0.0112
2449.0,0.0112
2448.0,0.0112
2447.0,0.0112
2446.0,0.0111
2445.0,0.0111
2444.0,0.0111
2443.0,0.011
2442.0,0.011
2441.0,0.011
2440.0,0.011
2439.0,0.011
2438.0,0.011
2437.0,0.011
2436.0,0.011
2435.0,0.011
2434.0,0.011
2433.0,0.011
2432.0,0.011
2431.0,0.0111
2430.0,0.011
2429.0,0.011
2428.0,0.011
2427.0,0.011
2426.0,0.011
2425.0,0.011
2424.0,0.011
2423.0,0.0111
2422.0,0.0111
2421.0,0.0112
2420.0,0.0112
2419.0,0.0111
2418.0,0.0111
2417.0,0.0111
2416.0,0.0111
2415.0,0.0111
2414.0,0.0111
2413.0,0.0111
2412.0,0.0111
2411.0,0.0111
2410.0,0.0111
2409.0,0.0111
2408.0,0.0111
2407.0,0.011
2406.0,0.011
2405.0,0.011
2404.0,0.011
2403.0,0.011
2402.0,0.011
2401.0,0.011
2400.0,0.0111
2399.0,0.0111
2398.0,0.0111
2397.0,0.0111
2396.0,0.0111
2395.0,0.0111
2394.0,0.0111
2393.0,0.0111
2392.0,0.011
2391.0,0.011
2390.0,0.0109
2389.0,0.0108
2388.0,0.0107
2387.0,0.0105
2386.0,0.0103
2385.0,0.01
2384.0,0.0097
2383.0,0.0094
2382.0,0.0091
2381.0,0.009
2380.0,0.0089
2379.0,0.0087
2378.0,0.0085
2377.0,0.0082
2376.0,0.008
2375.0,0.0079
2374.0,0.0078
2373.0,0.0079
2372.0,0.0079
2371.0,0.0077
2370.0,0.0074
2369.0,0.0072
2368.0,0.0072
2367.0,0.0072
2366.0,0.007
2365.0,0.0066
2364.0,0.0063
2363.0,0.0064
2362.0,0.007
2361.0,0.0078
2360.0,0.0079
2359.0,0.007
2358.0,0.0058
2357.0,0.0045
2356.0,0.003
2355.0,0.0012
2354.0,-0.0
2353.0,0.0004
2352.0,0.002
2351.0,0.0035
2350.0,0.0044
2349.0,0.0046
2348.0,0.0044
2347.0,0.0043
2346.0,0.0044
2345.0,0.0043
2344.0,0.004
2343.0,0.0035
2342.0,0.0033
2341.0,0.0035
2340.0,0.0037
2339.0,0.0038
2338.0,0.0037
2337.0,0.0037
2336.0,0.0037
2335.0,0.0039
2334.0,0.0043
2333.0,0.0049
2332.0,0.0054
2331.0,0.0052
2330.0,0.0047
2329.0,0.0042
2328.0,0.004
2327.0,0.004
2326.0,0.0042
2325.0,0.0047
2324.0,0.0051
2323.0,0.0055
2322.0,0.0057
2321.0,0.0058
2320.0,0.0059
2319.0,0.0058
2318.0,0.0059
2317.0,0.006
2316.0,0.0061
2315.0,0.0061
2314.0,0.006
2313.0,0.0058
2312.0,0.0057
2311.0,0.0057
2310.0,0.0059
2309.0,0.0061
2308.0,0.0065
2307.0,0.0069
2306.0,0.0073
2305.0,0.0075
2304.0,0.0076
2303.0,0.0076
2302.0,0.0076
2301.0,0.0077
2300.0,0.0079
2299.0,0.0081
2298.0,0.0083
2297.0,0.0084
2296.0,0.0085
2295.0,0.0086
2294.0,0.0088
2293.0,0.009
2292.0,0.0092
2291.0,0.0093
2290.0,0.0095
2289.0,0.0096
2288.0,0.0098
2287.0,0.01
2286.0,0.0103
2285.0,0.0105
2284.0,0.0106
2283.0,0.0106
2282.0,0.0106
2281.0,0.0106
2280.0,0.0105
2279.0,0.0105
2278.0,0.0104
2277.0,0.0104
2276.0,0.0103
2275.0,0.0103
2274.0,0.0102
2273.0,0.0102
2272.0,0.0102
2271.0,0.0102
2270.0,0.0103
2269.0,0.0103
2268.0,0.0103
2267.0,0.0104
2266.0,0.0104
2265.0,0.0104
2264.0,0.0104
2263.0,0.0104
2262.0,0.0104
2261.0,0.0104
2260.0,0.0104
2259.0,0.0105
2258.0,0.0105
2257.0,0.0106
2256.0,0.0106
2255.0,0.0107
2254.0,0.0107
2253.0,0.0108
2252.0,0.0109
2251.0,0.0109
2250.0,0.011
2249.0,0.0111
2248.0,0.0111
2247.0,0.011
2246.0,0.011
2245.0,0.0109
2244.0,0.011
2243.0,0.011
2242.0,0.0111
2241.0,0.0112
2240.0,0.0112
2239.0,0.0112
2238.0,0.0112
2237.0,0.0111
2236.0,0.011
2235.0,0.011
2234.0,0.011
2233.0,0.011
2232.0,0.0111
2231.0,0.0112
2230.0,0.0112
2229.0,0.0111
2228.0,0.0111
2227.0,0.011
2226.0,0.011
2225.0,0.011
2224.0,0.0111
2223.0,0.0111
2222.0,0.0111
2221.0,0.0111
2220.0,0.0112
2219.0,0.0112
2218.0,0.0112
2217.0,0.0112
2216.0,0.0112
2215.0,0.0112
2214.0,0.0112
2213.0,0.0112
2212.0,0.0113
2211.0,0.0113
2210.0,0.0113
2209.0,0.0113
2208.0,0.0113
2207.0,0.0113
2206.0,0.0112
2205.0,0.0111
2204.0,0.0111
2203.0,0.0111
2202.0,0.0111
2201.0,0.0111
2200.0,0.0111
2199.0,0.0111
2198.0,0.0112
2197.0,0.0112
2196.0,0.0112
2195.0,0.0112
2194.0,0.0112
2193.0,0.0112
2192.0,0.0113
2191.0,0.0113
2190.0,0.0113
2189.0,0.0113
2188.0,0.0113
2187.0,0.0113
2186.0,0.0113
2185.0,0.0112
2184.0,0.0112
2183.0,0.0112
2182.0,0.0112
2181.0,0.0112
2180.0,0.0112
2179.0,0.0112
2178.0,0.0112
2177.0,0.0112
2176.0,0.0112
2175.0,0.0112
2174.0,0.0112
2173.0,0.0112
2172.0,0.0112
2171.0,0.0113
2170.0,0.0113
2169.0,0.0113
2168.0,0.0113
2167.0,0.0113
2166.0,0.0113
2165.0,0.0113
2164.0,0.0113
2163.0,0.0113
2162.0,0.0113
2161.0,0.0113
2160.0,0.0113
2159.0,0.0113
2158.0,0.0113
2157.0,0.0113
2156.0,0.0113
2155.0,0.0113
2154.0,0.0114
2153.0,0.0114
2152.0,0.0115
2151.0,0.0115
2150.0,0.0115
2149.0,0.0115
2148.0,0.0114
2147.0,0.0114
2146.0,0.0113
2145.0,0.0113
2144.0,0.0114
2143.0,0.0114
2142.0,0.0114
2141.0,0.0114
2140.0,0.0113
2139.0,0.0113
2138.0,0.0113
2137.0,0.0114
2136.0,0.0114
2135.0,0.0113
2134.0,0.0113
2133.0,0.0114
2132.0,0.0114
2131.0,0.0114
2130.0,0.0114
2129.0,0.0114
2128.0,0.0114
2127.0,0.0114
2126.0,0.0114
2125.0,0.0114
2124.0,0.0115
2123.0,0.0115
2122.0,0.0114
2121.0,0.0114
2120.0,0.0114
2119.0,0.0114
2118.0,0.0115
2117.0,0.0114
2116.0,0.0114
2115.0,0.0114
2114.0,0.0114
2113.0,0.0114
2112.0,0.0113
2111.0,0.0114
2110.0,0.0114
2109.0,0.0114
2108.0,0.0115
2107.0,0.0115
2106.0,0.0115
2105.0,0.0115
2104.0,0.0115
2103.0,0.0115
2102.0,0.0115
2101.0,0.0115
2100.0,0.0114
2099.0,0.0114
2098.0,0.0114
2097.0,0.0114
2096.0,0.0114
2095.0,0.0115
2094.0,0.0115
2093.0,0.0115
2092.0,0.0116
2091.0,0.0115
2090.0,0.0115
2089.0,0.0115
2088.0,0.0115
2087.0,0.0115
2086.0,0.0115
2085.0,0.0116
2084.0,0.0115
2083.0,0.0115
2082.0,0.0115
2081.0,0.0115
2080.0,0.0114
2079.0,0.0114
2078.0,0.0113
2077.0,0.0114
2076.0,0.0114
2075.0,0.0115
2074.0,0.0115
2073.0,0.0115
2072.0,0.0115
2071.0,0.0115
2070.0,0.0115
2069.0,0.0115
2068.0,0.0115
2067.0,0.0115
2066.0,0.0115
2065.0,0.0116
2064.0,0.0116
2063.0,0.0115
2062.0,0.0115
2061.0,0.0115
2060.0,0.0115
2059.0,0.0115
2058.0,0.0115
2057.0,0.0115
2056.0,0.0115
2055.0,0.0115
2054.0,0.0116
2053.0,0.0116
2052.0,0.0116
2051.0,0.0116
2050.0,0.0116
2049.0,0.0115
2048.0,0.0115
2047.0,0.0115
2046.0,0.0115
2045.0,0.0116
2044.0,0.0116
2043.0,0.0116
2042.0,0.0116
2041.0,0.0116
2040.0,0.0116
2039.0,0.0115
2038.0,0.0115
2037.0,0.0115
2036.0,0.0115
2035.0,0.0115
2034.0,0.0115
2033.0,0.0115
2032.0,0.0116
2031.0,0.0116
2030.0,0.0116
2029.0,0.0116
2028.0,0.0116
2027.0,0.0116
2026.0,0.0116
2025.0,0.0116
2024.0,0.0116
2023.0,0.0116
2022.0,0.0117
2021.0,0.0117
2020.0,0.0117
2019.0,0.0117
2018.0,0.0116
2017.0,0.0117
2016.0,0.0117
2015.0,0.0117
2014.0,0.0117
2013.0,0.0117
2012.0,0.0116
2011.0,0.0116
2010.0,0.0116
2009.0,0.0117
2008.0,0.0117
2007.0,0.0118
2006.0,0.0118
2005.0,0.0118
2004.0,0.0117
2003.0,0.0117
2002.0,0.0117
2001.0,0.0116
2000.0,0.0116
1999.0,0.0116
1998.0,0.0116
1997.0,0.0116
1996.0,0.0117
1995.0,0.0117
1994.0,0.0117
1993.0,0.0118
1992.0,0.0118
1991.0,0.0118
1990.0,0.0118
1989.0,0.0117
1988.0,0.0118
1987.0,0.0118
1986.0,0.0118
1985.0,0.0118
1984.0,0.0117
1983.0,0.0117
1982.0,0.0117
1981.0,0.0117
1980.0,0.0117
1979.0,0.0118
1978.0,0.0118
1977.0,0.0118
1976.0,0.0118
1975.0,0.0118
1974.0,0.0118
1973.0,0.0118
1972.0,0.0119
1971.0,0.0119
1970.0,0.0119
1969.0,0.012
1968.0,0.012
1967.0,0.012
1966.0,0.0121
1965.0,0.0121
1964.0,0.0121
1963.0,0.0122
1962.0,0.0122
1961.0,0.0123
1960.0,0.0123
1959.0,0.0124
1958.0,0.0124
1957.0,0.0124
1956.0,0.0123
1955.0,0.0123
1954.0,0.0124
1953.0,0.0124
1952.0,0.0125
1951.0,0.0126
1950.0,0.0126
1949.0,0.0127
1948.0,0.0128
1947.0,0.0129
1946.0,0.0129
1945.0,0.013
1944.0,0.013
1943.0,0.013
1942.0,0.0131
1941.0,0.0131
1940.0,0.0131
1939.0,0.0131
1938.0,0.013
1937.0,0.013
1936.0,0.013
1935.0,0.013
1934.0,0.0129
1933.0,0.0128
1932.0,0.0128
1931.0,0.0127
1930.0,0.0126
1929.0,0.0126
1928.0,0.0125
1927.0,0.0124
1926.0,0.0123
1925.0,0.0123
1924.0,0.0123
1923.0,0.0123
1922.0,0.0123
1921.0,0.0122
1920.0,0.0122
1919.0,0.0121
1918.0,0.0121
1917.0,0.0121
1916.0,0.0121
1915.0,0.0121
1914.0,0.012
1913.0,0.012
1912.0,0.0121
1911.0,0.0121
1910.0,0.0121
1909.0,0.0121
1908.0,0.0121
1907.0,0.0121
1906.0,0.0121
1905.0,0.0121
1904.0,0.0121
1903.0,0.0121
1902.0,0.0121
1901.0,0.0122
1900.0,0.0122
1899.0,0.0122
1898.0,0.0123
1897.0,0.0123
1896.0,0.0123
1895.0,0.0124
1894.0,0.0124
1893.0,0.0124
1892.0,0.0124
1891.0,0.0124
1890.0,0.0124
1889.0,0.0125
1888.0,0.0126
1887.0,0.0126
1886.0,0.0127
1885.0,0.0127
1884.0,0.0127
1883.0,0.0127
1882.0,0.0127
1881.0,0.0127
1880.0,0.0127
1879.0,0.0128
1878.0,0.0128
1877.0,0.0128
1876.0,0.0129
1875.0,0.0129
1874.0,0.013
1873.0,0.0131
1872.0,0.0131
1871.0,0.0131
1870.0,0.0131
1869.0,0.0131
1868.0,0.0131
1867.0,0.0132
1866.0,0.0132
1865.0,0.0132
1864.0,0.0131
1863.0,0.0131
1862.0,0.013
1861.0,0.013
1860.0,0.0129
1859.0,0.0129
1858.0,0.0128
1857.0,0.0127
1856.0,0.0126
1855.0,0.0126
1854.0,0.0125
1853.0,0.0125
1852.0,0.0125
1851.0,0.0126
1850.0,0.0126
1849.0,0.0126
1848.0,0.0126
1847.0,0.0126
1846.0,0.0126
1845.0,0.0125
1844.0,0.0125
1843.0,0.0125
1842.0,0.0125
1841.0,0.0124
1840.0,0.0124
1839.0,0.0123
1838.0,0.0123
1837.0,0.0123
1836.0,0.0123
1835.0,0.0124
1834.0,0.0124
1833.0,0.0124
1832.0,0.0123
1831.0,0.0123
1830.0,0.0123
1829.0,0.0124
1828.0,0.0125
1827.0,0.0126
1826.0,0.0126
1825.0,0.0126
1824.0,0.0126
1823.0,0.0126
1822.0,0.0127
1821.0,0.0127
1820.0,0.0127
1819.0,0.0127
1818.0,0.0127
1817.0,0.0127
1816.0,0.0127
1815.0,0.0127
1814.0,0.0127
1813.0,0.0128
1812.0,0.0128
1811.0,0.0129
1810.0,0.013
1809.0,0.0131
1808.0,0.0132
1807.0,0.0132
1806.0,0.0132
1805.0,0.0133
1804.0,0.0134
1803.0,0.0134
1802.0,0.0134
1801.0,0.0135
1800.0,0.0135
1799.0,0.0135
1798.0,0.0134
1797.0,0.0134
1796.0,0.0134
1795.0,0.0133
1794.0,0.0133
1793.0,0.0132
1792.0,0.0131
1791.0,0.0131
1790.0,0.013
1789.0,0.013
1788.0,0.0129
1787.0,0.0129
1786.0,0.0129
1785.0,0.0128
1784.0,0.0128
1783.0,0.0127
1782.0,0.0127
1781.0,0.0126
1780.0,0.0126
1779.0,0.0126
1778.0,0.0126
1777.0,0.0127
1776.0,0.0127
1775.0,0.0126
1774.0,0.0126
1773.0,0.0126
1772.0,0.0127
1771.0,0.0128
1770.0,0.0129
1769.0,0.0129
1768.0,0.0128
1767.0,0.0127
1766.0,0.0127
1765.0,0.0127
1764.0,0.0127
1763.0,0.0127
1762.0,0.0127
1761.0,0.0128
1760.0,0.0128
1759.0,0.0128
1758.0,0.0129
1757.0,0.0129
1756.0,0.013
1755.0,0.013
1754.0,0.013
1753.0,0.013
1752.0,0.013
1751.0,0.0131
1750.0,0.0132
1749.0,0.0133
1748.0,0.0134
1747.0,0.0134
1746.0,0.0135
1745.0,0.0135
1744.0,0.0135
1743.0,0.0136
1742.0,0.0136
1741.0,0.0136
1740.0,0.0136
1739.0,0.0136
1738.0,0.0135
1737.0,0.0135
1736.0,0.0135
1735.0,0.0135
1734.0,0.0135
1733.0,0.0135
1732.0,0.0134
1731.0,0.0133
1730.0,0.0133
1729.0,0.0132
1728.0,0.0132
1727.0,0.0132
1726.0,0.0131
1725.0,0.0131
1724.0,0.0131
1723.0,0.0131
1722.0,0.0131
1721.0,0.0131
1720.0,0.0131
1719.0,0.0129
1718.0,0.0128
1717.0,0.0129
1716.0,0.013
1715.0,0.013
1714.0,0.0131
1713.0,0.0131
1712.0,0.0131
1711.0,0.013
1710.0,0.013
1709.0,0.013
1708.0,0.013
1707.0,0.013
1706.0,0.013
1705.0,0.013
1704.0,0.013
1703.0,0.0129
1702.0,0.0129
1701.0,0.0129
1700.0,0.0128
1699.0,0.0128
1698.0,0.0129
1697.0,0.013
1696.0,0.0131
1695.0,0.0132
1694.0,0.0132
1693.0,0.0132
1692.0,0.0132
1691.0,0.0132
1690.0,0.0132
1689.0,0.0132
1688.0,0.0133
1687.0,0.0133
1686.0,0.0134
1685.0,0.0135
1684.0,0.0136
1683.0,0.0136
1682.0,0.0135
1681.0,0.0134
1680.0,0.0135
1679.0,0.0135
1678.0,0.0135
1677.0,0.0135
1676.0,0.0135
1675.0,0.0135
1674.0,0.0136
1673.0,0.0137
1672.0,0.0138
1671.0,0.0138
1670.0,0.0139
1669.0,0.014
1668.0,0.014
1667.0,0.014
1666.0,0.014
1665.0,0.0139
1664.0,0.0139
1663.0,0.0139
1662.0,0.014
1661.0,0.0139
1660.0,0.0138
1659.0,0.0137
1658.0,0.0137
1657.0,0.0137
1656.0,0.0138
1655.0,0.0138
1654.0,0.0138
1653.0,0.0138
1652.0,0.0137
1651.0,0.0137
1650.0,0.0137
1649.0,0.0138
1648.0,0.0137
1647.0,0.0136
1646.0,0.0135
1645.0,0.0135
1644.0,0.0135
1643.0,0.0135
1642.0,0.0135
1641.0,0.0135
1640.0,0.0135
1639.0,0.0134
1638.0,0.0133
1637.0,0.0133
1636.0,0.0133
1635.0,0.0133
1634.0,0.0133
1633.0,0.0133
1632.0,0.0133
1631.0,0.0133
1630.0,0.0133
1629.0,0.0132
1628.0,0.0132
1627.0,0.0131
1626.0,0.0131
1625.0,0.0131
1624.0,0.0131
1623.0,0.0132
1622.0,0.0131
1621.0,0.0131
1620.0,0.013
1619.0,0.0129
1618.0,0.0128
1617.0,0.0128
1616.0,0.0128
1615.0,0.0128
1614.0,0.0129
1613.0,0.0129
1612.0,0.013
1611.0,0.0131
1610.0,0.0134
1609.0,0.0139
1608.0,0.0145
1607.0,0.0154
1606.0,0.0165
1605.0,0.0177
1604.0,0.0191
1603.0,0.0205
1602.0,0.0216
1601.0,0.0222
1600.0,0.0222
1599.0,0.0218
1598.0,0.021
1597.0,0.0201
1596.0,0.0192
1595.0,0.0184
1594.0,0.0178
1593.0,0.0173
1592.0,0.0169
1591.0,0.0165
1590.0,0.0162
1589.0,0.016
1588.0,0.0159
1587.0,0.0161
1586.0,0.0164
1585.0,0.0168
1584.0,0.0171
1583.0,0.0173
1582.0,0.0172
1581.0,0.0169
1580.0,0.0165
1579.0,0.016
1578.0,0.0156
1577.0,0.0152
1576.0,0.0149
1575.0,0.0148
1574.0,0.0147
1573.0,0.0146
1572.0,0.0145
1571.0,0.0143
1570.0,0.0142
1569.0,0.0142
1568.0,0.0142
1567.0,0.0142
1566.0,0.0141
1565.0,0.0141
1564.0,0.014
1563.0,0.0139
1562.0,0.0139
1561.0,0.0139
1560.0,0.014
1559.0,0.0142
1558.0,0.0141
1557.0,0.0139
1556.0,0.0139
1555.0,0.0139
1554.0,0.0139
1553.0,0.0139
1552.0,0.0139
1551.0,0.0139
1550.0,0.0139
1549.0,0.0139
1548.0,0.0139
1547.0,0.0139
1546.0,0.0138
1545.0,0.0138
1544.0,0.0138
1543.0,0.0137
1542.0,0.0137
1541.0,0.0137
1540.0,0.0138
1539.0,0.0139
1538.0,0.0138
1537.0,0.0138
1536.0,0.0138
1535.0,0.0137
1534.0,0.0137
1533.0,0.0137
1532.0,0.0136
1531.0,0.0135
1530.0,0.0134
1529.0,0.0132
1528.0,0.0131
1527.0,0.013
1526.0,0.013
1525.0,0.013
1524.0,0.0129
1523.0,0.0129
1522.0,0.013
1521.0,0.013
1520.0,0.013
1519.0,0.0129
1518.0,0.0128
1517.0,0.0126
1516.0,0.0126
1515.0,0.0125
1514.0,0.0124
1513.0,0.0123
1512.0,0.0123
1511.0,0.0123
1510.0,0.0122
1509.0,0.0121
1508.0,0.012
1507.0,0.0119
1506.0,0.0117
1505.0,0.0115
1504.0,0.0114
1503.0,0.0114
1502.0,0.0114
1501.0,0.0116
1500.0,0.012
1499.0,0.013
1498.0,0.0152
1497.0,0.0193
1496.0,0.0248
1495.0,0.0299
1494.0,0.0338
1493.0,0.0364
1492.0,0.0371
1491.0,0.0357
1490.0,0.0324
1489.0,0.0288
1488.0,0.0262
1487.0,0.0242
1486.0,0.0227
1485.0,0.0215
1484.0,0.0205
1483.0,0.0196
1482.0,0.0188
1481.0,0.0181
1480.0,0.0176
1479.0,0.0172
1478.0,0.0168
1477.0,0.0165
1476.0,0.0162
1475.0,0.016
1474.0,0.0158
1473.0,0.0156
1472.0,0.0155
1471.0,0.0154
1470.0,0.0152
1469.0,0.0152
1468.0,0.0151
1467.0,0.0151
1466.0,0.0149
1465.0,0.0149
1464.0,0.0148
1463.0,0.0147
1462.0,0.0146
1461.0,0.0146
1460.0,0.0146
1459.0,0.0151
1458.0,0.017
1457.0,0.0212
1456.0,0.0261
1455.0,0.0302
1454.0,0.0338
1453.0,0.0367
1452.0,0.0384
1451.0,0.0385
1450.0,0.0376
1449.0,0.0361
1448.0,0.0345
1447.0,0.0331
1446.0,0.0321
1445.0,0.0312
1444.0,0.0302
1443.0,0.0292
1442.0,0.0283
1441.0,0.0275
1440.0,0.0267
1439.0,0.026
1438.0,0.0252
1437.0,0.0243
1436.0,0.0235
1435.0,0.0228
1434.0,0.0222
1433.0,0.0217
1432.0,0.0212
1431.0,0.0207
1430.0,0.0203
1429.0,0.0199
1428.0,0.0195
1427.0,0.0192
1426.0,0.019
1425.0,0.0187
1424.0,0.0185
1423.0,0.0184
1422.0,0.0183
1421.0,0.0181
1420.0,0.018
1419.0,0.018
1418.0,0.0179
1417.0,0.0178
1416.0,0.0177
1415.0,0.0176
1414.0,0.0174
1413.0,0.0173
1412.0,0.0172
1411.0,0.0171
1410.0,0.0171
1409.0,0.0171
1408.0,0.017
1407.0,0.0169
1406.0,0.0168
1405.0,0.0168
1404.0,0.0168
1403.0,0.0167
1402.0,0.0167
1401.0,0.0167
1400.0,0.0166
1399.0,0.0166
1398.0,0.0167
1397.0,0.0167
1396.0,0.0167
1395.0,0.0167
1394.0,0.0168
1393.0,0.0168
1392.0,0.0168
1391.0,0.0169
1390.0,0.0169
1389.0,0.017
1388.0,0.0172
1387.0,0.0175
1386.0,0.0178
1385.0,0.018
1384.0,0.0182
1383.0,0.0183
1382.0,0.0185
1381.0,0.0187
1380.0,0.0189
1379.0,0.0191
1378.0,0.0193
1377.0,0.0194
1376.0,0.0196
1375.0,0.0197
1374.0,0.02
1373.0,0.0201
1372.0,0.0201
1371.0,0.0201
1370.0,0.0201
1369.0,0.0201
1368.0,0.0201
1367.0,0.0201
1366.0,0.0201
1365.0,0.0201
1364.0,0.02
1363.0,0.02
1362.0,0.0199
1361.0,0.0199
1360.0,0.0198
1359.0,0.0198
1358.0,0.0197
1357.0,0.0197
1356.0,0.0196
1355.0,0.0196
1354.0,0.0195
1353.0,0.0195
1352.0,0.0195
1351.0,0.0194
1350.0,0.0194
1349.0,0.0194
1348.0,0.0195
1347.0,0.0194
1346.0,0.0194
1345.0,0.0193
1344.0,0.0192
1343.0,0.0191
1342.0,0.019
1341.0,0.0189
1340.0,0.0188
1339.0,0.0188
1338.0,0.0188
1337.0,0.0188
1336.0,0.0189
1335.0,0.0189
1334.0,0.019
1333.0,0.0191
1332.0,0.0192
1331.0,0.0194
1330.0,0.0195
1329.0,0.0196
1328.0,0.0197
1327.0,0.0197
1326.0,0.0197
1325.0,0.0196
1324.0,0.0195
1323.0,0.0195
1322.0,0.0194
1321.0,0.0194
1320.0,0.0193
1319.0,0.0193
1318.0,0.0194
1317.0,0.0194
1316.0,0.0195
1315.0,0.0195
1314.0,0.0196
1313.0,0.0196
1312.0,0.0197
1311.0,0.0198
1310.0,0.0198
1309.0,0.0198
1308.0,0.0198
1307.0,0.0197
1306.0,0.0196
1305.0,0.0195
1304.0,0.0194
1303.0,0.0194
1302.0,0.0193
1301.0,0.0193
1300.0,0.0192
1299.0,0.0191
1298.0,0.0191
1297.0,0.019
1296.0,0.019
1295.0,0.0189
1294.0,0.0189
1293.0,0.019
1292.0,0.019
1291.0,0.0189
1290.0,0.0189
1289.0,0.0189
1288.0,0.0188
1287.0,0.0188
1286.0,0.0188
1285.0,0.0187
1284.0,0.0187
1283.0,0.0187
1282.0,0.0187
1281.0,0.0187
1280.0,0.0187
1279.0,0.0187
1278.0,0.0187
1277.0,0.0186
1276.0,0.0185
1275.0,0.0184
1274.0,0.0183
1273.0,0.0183
1272.0,0.0183
1271.0,0.0183
1270.0,0.0183
1269.0,0.0183
1268.0,0.0183
1267.0,0.0182
1266.0,0.0182
1265.0,0.0182
1264.0,0.0182
1263.0,0.0182
1262.0,0.0181
1261.0,0.0181
1260.0,0.018
1259.0,0.018
1258.0,0.0179
1257.0,0.0179
1256.0,0.0178
1255.0,0.0178
1254.0,0.0179
1253.0,0.0179
1252.0,0.0179
1251.0,0.0179
1250.0,0.0179
1249.0,0.0179
1248.0,0.0179
1247.0,0.018
1246.0,0.018
1245.0,0.018
1244.0,0.0179
1243.0,0.0179
1242.0,0.0179
1241.0,0.0179
1240.0,0.0179
1239.0,0.0179
1238.0,0.0179
1237.0,0.0179
1236.0,0.0179
1235.0,0.0178
1234.0,0.0178
1233.0,0.0178
1232.0,0.0179
1231.0,0.0179
1230.0,0.0179
1229.0,0.0179
1228.0,0.0179
1227.0,0.0179
1226.0,0.018
1225.0,0.018
1224.0,0.018
1223.0,0.018
1222.0,0.018
1221.0,0.018
1220.0,0.018
1219.0,0.018
1218.0,0.018
1217.0,0.018
1216.0,0.018
1215.0,0.018
1214.0,0.018
1213.0,0.0181
1212.0,0.0182
1211.0,0.0183
1210.0,0.0183
1209.0,0.0184
1208.0,0.0185
1207.0,0.0185
1206.0,0.0186
1205.0,0.0187
1204.0,0.0189
1203.0,0.019
1202.0,0.0192
1201.0,0.0193
1200.0,0.0195
1199.0,0.0196
1198.0,0.0197
1197.0,0.0199
1196.0,0.02
1195.0,0.0202
1194.0,0.0203
1193.0,0.0203
1192.0,0.0204
1191.0,0.0204
1190.0,0.0204
1189.0,0.0205
1188.0,0.0206
1187.0,0.0207
1186.0,0.021
1185.0,0.0213
1184.0,0.0217
1183.0,0.0221
1182.0,0.0225
1181.0,0.0227
1180.0,0.0227
1179.0,0.0225
1178.0,0.0223
1177.0,0.022
1176.0,0.0217
1175.0,0.0214
1174.0,0.0212
1173.0,0.021
1172.0,0.0209
1171.0,0.0208
1170.0,0.0208
1169.0,0.0207
1168.0,0.0207
1167.0,0.0207
1166.0,0.0207
1165.0,0.0207
1164.0,0.0207
1163.0,0.0208
1162.0,0.0208
1161.0,0.0209
1160.0,0.021
1159.0,0.0213
1158.0,0.0218
1157.0,0.0223
1156.0,0.0228
1155.0,0.0232
1154.0,0.0233
1153.0,0.0233
1152.0,0.0231
1151.0,0.0227
1150.0,0.0223
1149.0,0.0219
1148.0,0.0216
1147.0,0.0213
1146.0,0.0212
1145.0,0.021
1144.0,0.0208
1143.0,0.0206
1142.0,0.0205
1141.0,0.0203
1140.0,0.0202
1139.0,0.0201
1138.0,0.02
1137.0,0.0199
1136.0,0.0199
1135.0,0.0198
1134.0,0.0197
1133.0,0.0197
1132.0,0.0196
1131.0,0.0195
1130.0,0.0194
1129.0,0.0194
1128.0,0.0193
1127.0,0.0193
1126.0,0.0193
1125.0,0.0193
1124.0,0.0193
1123.0,0.0193
1122.0,0.0193
1121.0,0.0193
1120.0,0.0193
1119.0,0.0194
1118.0,0.0194
1117.0,0.0196
1116.0,0.0197
1115.0,0.0198
1114.0,0.0198
1113.0,0.0198
1112.0,0.0197
1111.0,0.0197
1110.0,0.0197
1109.0,0.0196
1108.0,0.0195
1107.0,0.0195
1106.0,0.0195
1105.0,0.0195
1104.0,0.0195
1103.0,0.0196
1102.0,0.0196
1101.0,0.0197
1100.0,0.0197
1099.0,0.0198
1098.0,0.0198
1097.0,0.0199
1096.0,0.0199
1095.0,0.0199
1094.0,0.0199
1093.0,0.0199
1092.0,0.0199
1091.0,0.0198
1090.0,0.0198
1089.0,0.0198
1088.0,0.02
1087.0,0.0201
1086.0,0.0202
1085.0,0.0203
1084.0,0.0204
1083.0,0.0205
1082.0,0.0206
1081.0,0.0208
1080.0,0.0209
1079.0,0.021
1078.0,0.0212
1077.0,0.0214
1076.0,0.0217
1075.0,0.022
1074.0,0.0224
1073.0,0.0229
1072.0,0.0233
1071.0,0.0237
1070.0,0.024
1069.0,0.0242
1068.0,0.0243
1067.0,0.0243
1066.0,0.0241
1065.0,0.0239
1064.0,0.0236
1063.0,0.0234
1062.0,0.0232
1061.0,0.0229
1060.0,0.0226
1059.0,0.0223
1058.0,0.022
1057.0,0.0217
1056.0,0.0215
1055.0,0.0213
1054.0,0.0211
1053.0,0.021
1052.0,0.0209
1051.0,0.0208
1050.0,0.0207
1049.0,0.0206
1048.0,0.0205
1047.0,0.0203
1046.0,0.0202
1045.0,0.0201
1044.0,0.02
1043.0,0.0199
1042.0,0.0198
1041.0,0.0197
1040.0,0.0197
1039.0,0.0198
1038.0,0.0199
1037.0,0.0203
1036.0,0.0209
1035.0,0.0218
1034.0,0.0231
1033.0,0.0247
1032.0,0.0263
1031.0,0.0279
1030.0,0.0293
1029.0,0.0304
1028.0,0.0311
1027.0,0.0312
1026.0,0.0308
1025.0,0.0301
1024.0,0.0293
1023.0,0.0285
1022.0,0.0277
1021.0,0.0271
1020.0,0.0266
1019.0,0.0262
1018.0,0.0258
1017.0,0.0254
1016.0,0.0251
1015.0,0.0248
1014.0,0.0246
1013.0,0.0244
1012.0,0.0242
1011.0,0.024
1010.0,0.0237
1009.0,0.0235
1008.0,0.0235
1007.0,0.0235
1006.0,0.0237
1005.0,0.0239
1004.0,0.0241
1003.0,0.0241
1002.0,0.024
1001.0,0.0238
1000.0,0.0235
999.0,0.0231
998.0,0.0228
997.0,0.0225
996.0,0.0223
995.0,0.0222
994.0,0.0221
993.0,0.0221
992.0,0.022
991.0,0.0219
990.0,0.0218
989.0,0.0218
988.0,0.0219
987.0,0.022
986.0,0.0221
985.0,0.0222
984.0,0.0222
983.0,0.0224
982.0,0.0225
981.0,0.0227
980.0,0.0229
979.0,0.0229
978.0,0.0229
977.0,0.0228
976.0,0.0226
975.0,0.0224
974.0,0.0223
973.0,0.0222
972.0,0.0223
971.0,0.0223
970.0,0.0224
969.0,0.0226
968.0,0.0228
967.0,0.0231
966.0,0.0234
965.0,0.0236
964.0,0.0236
963.0,0.0236
962.0,0.0235
961.0,0.0233
960.0,0.0232
959.0,0.0231
958.0,0.023
957.0,0.0227
956.0,0.0225
955.0,0.0223
954.0,0.0221
953.0,0.0221
952.0,0.0222
951.0,0.0222
950.0,0.0223
949.0,0.0224
948.0,0.0225
947.0,0.0226
946.0,0.0228
945.0,0.0229
944.0,0.023
943.0,0.0231
942.0,0.0231
941.0,0.023
940.0,0.0228
939.0,0.0227
938.0,0.0226
937.0,0.0225
936.0,0.0224
935.0,0.0223
934.0,0.0222
933.0,0.0221
932.0,0.0219
931.0,0.0218
930.0,0.0216
929.0,0.0215
928.0,0.0214
927.0,0.0213
926.0,0.0213
925.0,0.0213
924.0,0.0214
923.0,0.0215
922.0,0.0216
921.0,0.0216
920.0,0.0217
919.0,0.0218
918.0,0.022
917.0,0.0223
916.0,0.0227
915.0,0.0232
914.0,0.0238
913.0,0.0245
912.0,0.0254
911.0,0.0263
910.0,0.0272
909.0,0.0281
908.0,0.0288
907.0,0.0292
906.0,0.0295
905.0,0.0296
904.0,0.0295
903.0,0.0292
902.0,0.0287
901.0,0.028
900.0,0.0272
899.0,0.0265
898.0,0.0257
897.0,0.0251
896.0,0.0247
895.0,0.0243
894.0,0.024
893.0,0.0237
892.0,0.0234
891.0,0.0232
890.0,0.023
889.0,0.023
888.0,0.0229
887.0,0.0228
886.0,0.0227
885.0,0.0226
884.0,0.0225
883.0,0.0224
882.0,0.0224
881.0,0.0223
880.0,0.0222
879.0,0.0222
878.0,0.0221
877.0,0.022
876.0,0.0219
875.0,0.0218
874.0,0.0217
873.0,0.0217
872.0,0.0217
871.0,0.0217
870.0,0.0217
869.0,0.0216
868.0,0.0215
867.0,0.0213
866.0,0.0212
865.0,0.0212
864.0,0.0212
863.0,0.0213
862.0,0.0214
861.0,0.0213
860.0,0.0212
859.0,0.0209
858.0,0.0208
857.0,0.0207
856.0,0.0207
855.0,0.0208
854.0,0.0208
853.0,0.0209
852.0,0.021
851.0,0.0211
850.0,0.0211
849.0,0.0213
848.0,0.0216
847.0,0.022
846.0,0.0225
845.0,0.0229
844.0,0.0233
843.0,0.0234
842.0,0.0235
841.0,0.0236
840.0,0.0235
839.0,0.0234
838.0,0.0232
837.0,0.0229
836.0,0.0225
835.0,0.0221
834.0,0.0217
833.0,0.0213
832.0,0.021
831.0,0.0208
830.0,0.0207
829.0,0.0206
828.0,0.0205
827.0,0.0204
826.0,0.0202
825.0,0.02
824.0,0.0198
823.0,0.0197
822.0,0.0197
821.0,0.0198
820.0,0.0198
819.0,0.0197
818.0,0.0196
817.0,0.0195
816.0,0.0193
815.0,0.0191
814.0,0.019
813.0,0.0189
812.0,0.0189
811.0,0.0187
810.0,0.0186
809.0,0.0185
808.0,0.0184
807.0,0.0184
806.0,0.0183
805.0,0.0182
804.0,0.018
803.0,0.0178
802.0,0.0178
801.0,0.0178
800.0,0.0178
799.0,0.0178
798.0,0.0178
797.0,0.0178
796.0,0.0179
795.0,0.018
794.0,0.018
793.0,0.0179
792.0,0.0178
791.0,0.0178
790.0,0.0179
789.0,0.0181
788.0,0.0183
787.0,0.0185
786.0,0.0186
785.0,0.0189
784.0,0.0192
783.0,0.0196
782.0,0.02
781.0,0.0204
780.0,0.021
779.0,0.0217
778.0,0.0226
777.0,0.0238
776.0,0.025
775.0,0.0265
774.0,0.0284
773.0,0.0306
772.0,0.0328
771.0,0.035
770.0,0.0373
769.0,0.0397
768.0,0.0422
767.0,0.0447
766.0,0.0473
765.0,0.0499
764.0,0.0524
763.0,0.0549
762.0,0.0573
761.0,0.0599
760.0,0.0626
759.0,0.0651
758.0,0.0673
757.0,0.069
756.0,0.0702
755.0,0.0709
754.0,0.0713
753.0,0.0715
752.0,0.0715
751.0,0.0715
750.0,0.0718
749.0,0.0723
748.0,0.0729
747.0,0.0729
746.0,0.0722
745.0,0.0704
744.0,0.0678
743.0,0.0645
742.0,0.0609
741.0,0.0574
740.0,0.054
739.0,0.0509
738.0,0.0479
737.0,0.0451
736.0,0.0425
735.0,0.0399
734.0,0.0375
733.0,0.0352
732.0,0.0329
731.0,0.0307
730.0,0.0287
729.0,0.0271
728.0,0.0258
727.0,0.0245
726.0,0.0233
725.0,0.0223
724.0,0.0214
723.0,0.0204
722.0,0.0193
721.0,0.0182
720.0,0.0173
719.0,0.0168
718.0,0.0164
717.0,0.0159
716.0,0.0152
715.0,0.0145
714.0,0.0141
713.0,0.0143
712.0,0.0152
711.0,0.0169
710.0,0.0199
709.0,0.0247
708.0,0.0313
707.0,0.0398
706.0,0.0502
705.0,0.0628
704.0,0.0777
703.0,0.0944
702.0,0.1127
701.0,0.1324
700.0,0.1528
699.0,0.1727
698.0,0.1913
697.0,0.2071
696.0,0.2173
695.0,0.2181
694.0,0.208
693.0,0.1897
692.0,0.1681
691.0,0.1474
690.0,0.13
689.0,0.1164
688.0,0.106
687.0,0.0977
686.0,0.0911
685.0,0.0856
684.0,0.0806
683.0,0.076
682.0,0.0724
681.0,0.0699
680.0,0.068
679.0,0.0657
678.0,0.0625
677.0,0.0593
676.0,0.0565
675.0,0.0546
674.0,0.053
673.0,0.053
672.0,0.0532
671.0,0.0567
670.0,0.0559
669.0,0.0499
668.0,0.0504
667.0,0.0491
666.0,0.0491
665.0,0.0488
664.0,0.0485
663.0,0.0483
662.0,0.0481
661.0,0.0474
660.0,0.047
659.0,0.0464
658.0,0.0457
657.0,0.0448
656.0,0.0441
655.0,0.0438
654.0,0.0439
653.0,0.0441
652.0,0.0439
651.0,0.0432
650.0,0.0423
649.0,0.0414
648.0,0.0405
647.0,0.0396
646.0,0.0393
645.0,0.0397
644.0,0.0406
643.0,0.041
642.0,0.041
641.0,0.0409
640.0,0.041
639.0,0.0414
638.0,0.0421
637.0,0.0429
636.0,0.0435
635.0,0.0436
634.0,0.0432
633.0,0.0426
632.0,0.042
631.0,0.0414
630.0,0.0412
629.0,0.0413
628.0,0.0414
627.0,0.0416
626.0,0.0424
625.0,0.0437
624.0,0.0448
623.0,0.0451
622.0,0.0449
621.0,0.0446
620.0,0.044
619.0,0.0427
618.0,0.0411
617.0,0.0403
616.0,0.0406
615.0,0.0416
614.0,0.0427
613.0,0.0437
612.0,0.0442
611.0,0.0443
610.0,0.0442
609.0,0.0445
608.0,0.0446
607.0,0.0441
606.0,0.0432
605.0,0.0426
604.0,0.0428
603.0,0.0431
602.0,0.0434
601.0,0.0437
600.0,0.044
