nm,Intensity
528.65,1842.17
528.734,1841.7
528.819,1842.1
528.903,1840.63
528.987,1842.47
529.071,1842.07
529.155,1843.03
529.239,1842.33
529.324,1842.13
529.408,1841.97
529.492,1842.57
529.576,1842.73
529.66,1842.33
529.745,1841.67
529.829,1842.5
529.913,1842.5
529.997,1842.63
530.081,1842.53
530.165,1842.8
530.25,1843.77
530.334,1843.37
530.418,1844.17
530.502,1843.93
530.586,1849.37
530.67,1897.93
530.754,1848.6
530.839,1843.77
530.923,1843.37
531.007,1844.87
531.091,1843.6
531.175,1846.27
531.259,1846.73
531.344,1846.47
531.428,1850.8
531.512,1852.93
531.596,1860.57
531.68,1892.83
531.764,2041.23
531.848,2573.53
531.933,3539.83
532.017,4548.53
532.101,4703.03
532.185,3886.6
532.269,2637.1
532.353,1965.0
532.437,1857.47
532.521,1847.9
532.606,1846.7
532.69,1847.0
532.774,1846.07
532.858,1847.3
532.942,1847.5
533.026,1849.57
533.11,1852.4
533.194,1855.13
533.279,1859.97
533.363,1874.8
533.447,1925.8
533.531,2087.23
533.615,2537.7
533.699,3373.17
533.783,4466.27
533.867,5450.5
533.951,6155.43
534.036,6507.47
534.12,6678.1
534.204,6620.73
534.288,6250.23
534.372,5862.1
534.456,5696.93
534.54,5551.77
534.624,5512.2
534.708,5294.23
534.792,5074.4
534.877,4868.53
534.961,4641.17
535.045,4499.37
535.129,4359.47
535.213,4180.93
535.297,4017.47
535.381,3861.4
535.465,3738.43
535.549,3613.23
535.633,3468.6
535.717,3352.27
535.801,3234.57
535.886,3111.5
535.97,3040.17
536.054,2946.13
536.138,2893.73
536.222,2825.93
536.306,2784.3
536.39,2735.2
536.474,2691.6
536.558,2675.3
536.642,2661.77
536.726,2641.43
536.81,2615.7
536.894,2603.03
536.978,2563.4
537.062,2558.23
537.146,2556.0
537.231,2542.63
537.315,2531.67
537.399,2527.53
537.483,2544.5
537.567,2519.77
537.651,2517.7
537.735,2497.17
537.819,2497.7
537.903,2519.0
537.987,2514.87
538.071,2509.87
538.155,2502.43
538.239,2499.4
538.323,2516.03
538.407,2529.03
538.491,2533.2
538.575,2517.2
538.659,2525.1
538.743,2518.77
538.827,2523.73
538.911,2516.4
538.995,2538.93
539.079,2525.67
539.163,2539.6
539.247,2544.77
539.331,2545.7
539.415,2571.4
539.499,2597.47
539.583,2613.0
539.667,2634.27
539.751,2659.13
539.835,2680.83
539.919,2666.3
540.003,2629.77
540.087,2607.17
540.171,2585.17
540.255,2569.0
540.339,2533.2
540.423,2488.37
540.507,2452.07
540.591,2441.83
540.675,2438.7
540.759,2431.67
540.843,2434.37
540.927,2420.73
541.011,2404.9
541.095,2390.33
541.179,2377.0
541.263,2379.03
541.347,2369.97
541.431,2367.47
541.515,2360.93
541.599,2357.63
541.683,2366.03
541.767,2378.93
541.851,2382.2
541.935,2373.63
542.019,2372.27
542.103,2383.7
542.187,2378.03
542.271,2373.5
542.355,2378.57
542.439,2376.3
542.523,2387.17
542.607,2374.87
542.691,2373.6
542.775,2378.8
542.859,2374.4
542.943,2367.03
543.027,2389.3
543.111,2388.77
543.195,2375.13
543.279,2369.3
543.363,2357.3
543.446,2359.3
543.53,2372.47
543.614,2386.97
543.698,2388.3
543.782,2400.27
543.866,2410.73
543.95,2429.37
544.034,2406.9
544.118,2401.93
544.202,2386.27
544.286,2393.37
544.37,2392.87
544.454,2382.67
544.538,2383.73
544.622,2380.1
544.706,2379.43
544.789,2401.53
544.873,2406.03
544.957,2410.83
545.041,2395.07
545.125,2376.83
545.209,2392.37
545.293,2388.43
545.377,2388.77
545.461,2406.27
545.545,2386.97
545.629,2395.87
545.713,2404.63
545.796,2389.3
545.88,2398.17
545.964,2406.47
546.048,2391.87
546.132,2401.73
546.216,2388.1
546.3,2383.8
546.384,2410.4
546.468,2411.57
546.552,2397.5
546.635,2396.73
546.719,2415.67
546.803,2408.67
546.887,2408.53
546.971,2403.5
547.055,2401.13
547.139,2406.77
547.223,2408.73
547.306,2413.1
547.39,2417.97
547.474,2395.93
547.558,2397.97
547.642,2400.33
547.726,2402.97
547.81,2408.0
547.894,2400.17
547.977,2408.83
548.061,2413.7
548.145,2407.5
548.229,2404.57
548.313,2391.8
548.397,2390.63
548.481,2404.3
548.564,2430.37
548.648,2419.73
548.732,2403.03
548.816,2403.8
548.9,2391.63
548.984,2392.7
549.068,2400.33
549.151,2410.7
549.235,2415.33
549.319,2399.07
549.403,2403.17
549.487,2396.83
549.571,2405.0
549.655,2405.37
549.738,2396.47
549.822,2393.5
549.906,2397.2
549.99,2397.5
550.074,2403.43
550.158,2420.83
550.241,2445.87
550.325,2509.7
550.409,2655.97
550.493,2885.2
550.577,3110.33
550.66,3239.63
550.744,3090.6
550.828,2799.47
550.912,2552.97
550.996,2461.6
551.08,2427.3
551.163,2425.67
551.247,2432.27
551.331,2442.8
551.415,2436.93
551.499,2415.0
551.582,2423.57
551.666,2416.77
551.75,2422.93
551.834,2432.3
551.918,2429.6
552.001,2427.1
552.085,2448.57
552.169,2438.33
552.253,2436.43
552.337,2438.83
552.42,2444.9
552.504,2485.53
552.588,2547.5
552.672,2634.1
552.755,2693.97
552.839,2743.1
552.923,2688.13
553.007,2613.1
553.091,2539.73
553.174,2481.67
553.258,2449.33
553.342,2446.27
553.426,2448.27
553.509,2443.97
553.593,2452.4
553.677,2442.67
553.761,2448.87
553.844,2456.07
553.928,2453.33
554.012,2437.7
554.096,2433.5
554.179,2433.23
554.263,2432.97
554.347,2436.0
554.431,2450.5
554.514,2440.73
554.598,2443.8
554.682,2439.6
554.766,2452.87
554.849,2456.7
554.933,2476.73
555.017,2496.87
555.101,2506.37
555.184,2521.13
555.268,2537.07
555.352,2608.5
555.436,2686.4
555.519,2749.57
555.603,2828.5
555.687,2815.0
555.771,2804.73
555.854,2793.8
555.938,2785.93
556.022,2790.6
556.105,2802.67
556.189,2819.6
556.273,2825.5
556.357,2832.5
556.44,2832.5
556.524,2853.53
556.608,2875.47
556.691,2888.2
556.775,2888.23
556.859,2879.23
556.943,2869.2
557.026,2955.9
557.11,3081.73
557.194,3211.7
557.277,3359.07
557.361,3523.9
557.445,3641.2
557.528,3712.3
557.612,3698.7
557.696,3530.87
557.779,3337.7
557.863,3155.8
557.947,3023.27
558.031,2966.97
558.114,2943.53
558.198,2933.63
558.282,2965.43
558.365,2968.03
558.449,2936.53
558.533,2924.97
558.616,2886.97
558.7,2853.2
558.784,2806.6
558.867,2784.53
558.951,2748.47
559.035,2701.03
559.118,2641.13
559.202,2610.9
559.286,2580.03
559.369,2559.53
559.453,2551.77
559.537,2553.6
559.62,2546.9
559.704,2535.87
559.788,2518.93
559.871,2533.8
559.955,2526.93
560.038,2531.23
560.122,2536.9
560.206,2533.07
560.289,2530.83
560.373,2527.6
560.457,2535.8
560.54,2538.33
560.624,2535.5
560.708,2547.5
560.791,2550.07
560.875,2544.93
560.958,2540.67
561.042,2569.17
561.126,2577.3
561.209,2572.6
561.293,2591.7
561.377,2576.93
561.46,2588.03
561.544,2589.53
561.627,2594.23
561.711,2606.4
561.795,2625.3
561.878,2650.47
561.962,2658.27
562.045,2669.07
562.129,2691.0
562.213,2702.4
562.296,2673.73
562.38,2656.4
562.463,2685.3
562.547,2714.43
562.631,2729.7
562.714,2712.73
562.798,2740.37
562.881,2762.93
562.965,2760.0
563.049,2761.43
563.132,2748.53
563.216,2749.23
563.299,2728.43
563.383,2718.47
563.467,2713.03
563.55,2705.2
563.634,2664.77
563.717,2678.23
563.801,2659.33
563.884,2667.87
563.968,2659.77
564.052,2652.1
564.135,2637.37
564.219,2650.23
564.302,2660.3
564.386,2711.0
564.469,2746.33
564.553,2775.4
564.636,2790.4
564.72,2807.67
564.804,2870.43
564.887,2940.0
564.971,3033.17
565.054,3079.9
565.138,3121.3
565.221,3143.13
565.305,3216.6
565.388,3272.63
565.472,3350.7
565.556,3393.97
565.639,3428.43
565.723,3458.13
565.806,3495.9
565.89,3457.9
565.973,3386.87
566.057,3268.07
566.14,3165.43
566.224,3092.1
566.307,3020.73
566.391,2954.3
566.474,2859.33
566.558,2823.77
566.641,2794.23
566.725,2763.17
566.808,2739.47
566.892,2737.97
566.975,2735.73
567.059,2726.27
567.142,2746.7
567.226,2777.23
567.309,2844.1
567.393,2936.0
567.476,3001.43
567.56,3101.3
567.643,3177.23
567.727,3196.83
567.81,3126.87
567.894,3002.9
567.977,2925.37
568.061,2865.63
568.144,2815.5
568.228,2787.2
568.311,2762.3
568.395,2750.8
568.478,2740.9
568.562,2735.03
568.645,2744.0
568.729,2748.23
568.812,2749.73
568.896,2736.93
568.979,2735.57
569.063,2730.23
569.146,2748.5
569.23,2795.8
569.313,2809.23
569.396,2811.0
569.48,2835.47
569.563,2850.03
569.647,2864.73
569.73,2882.57
569.814,2922.17
569.897,2944.4
569.981,2965.1
570.064,3012.87
570.148,3062.8
570.231,3121.87
570.314,3202.57
570.398,3307.93
570.481,3443.73
570.565,3557.5
570.648,3635.7
570.732,3781.03
570.815,3944.97
570.898,4069.93
570.982,4238.13
571.065,4429.97
571.149,4555.0
571.232,4605.7
571.316,4641.43
571.399,4590.93
571.482,4407.13
571.566,4234.87
571.649,4058.37
571.733,3927.27
571.816,3826.83
571.9,3704.2
571.983,3612.0
572.066,3521.3
572.15,3421.4
572.233,3301.33
572.317,3218.0
572.4,3126.1
572.483,3081.73
572.567,2994.3
572.65,2992.73
572.734,2955.73
572.817,2932.83
572.9,2901.13
572.984,2890.47
573.067,2882.53
573.15,2902.5
573.234,2891.2
573.317,2896.1
573.401,2894.5
573.484,2894.63
573.567,2938.77
573.651,2944.1
573.734,2973.27
573.818,2979.6
573.901,3028.47
573.984,3043.17
574.068,3022.23
574.151,3032.63
574.234,3012.97
574.318,2949.53
574.401,2949.83
574.484,2921.57
574.568,2943.2
574.651,2923.8
574.734,2971.0
574.818,2983.37
574.901,3000.03
574.985,3026.2
575.068,3101.47
575.151,3161.4
575.235,3202.6
575.318,3202.57
575.401,3209.37
575.485,3149.93
575.568,3107.83
575.651,3026.27
575.735,2987.73
575.818,3008.47
575.901,3010.77
575.985,3020.6
576.068,3059.1
576.151,3103.6
576.235,3137.17
576.318,3212.03
576.401,3211.57
576.484,3214.73
576.568,3232.13
576.651,3234.2
576.734,3227.6
576.818,3218.33
576.901,3202.87
576.984,3171.13
577.068,3140.4
577.151,3093.73
577.234,3052.5
577.318,3044.63
577.401,2985.9
577.484,2971.97
577.567,2971.17
577.651,2982.67
577.734,2968.0
577.817,2957.6
577.901,2931.07
577.984,2942.13
578.067,2937.37
578.15,2949.43
578.234,2982.73
578.317,2980.73
578.4,3002.1
578.484,2992.97
578.567,2976.7
578.65,2979.9
578.733,2981.57
578.817,2965.2
578.9,2961.33
578.983,2966.83
579.066,2989.17
579.15,2998.07
579.233,3009.07
579.316,2992.17
579.399,2986.0
579.483,3016.27
579.566,3022.87
579.649,3018.5
579.732,3013.13
579.816,3028.17
579.899,3021.43
579.982,3030.8
580.065,3053.93
580.149,3047.5
580.232,3055.17
580.315,3060.27
580.398,3067.6
580.482,3067.57
580.565,3091.6
580.648,3096.17
580.731,3119.5
580.815,3149.67
580.898,3183.43
580.981,3212.4
581.064,3223.0
581.147,3211.07
581.231,3263.47
581.314,3293.5
581.397,3360.2
581.48,3500.17
581.563,3720.3
581.647,4048.97
581.73,4571.8
581.813,5416.13
581.896,6558.83
581.979,7919.83
582.063,8891.03
582.146,9159.73
582.229,8596.2
582.312,7224.07
582.395,5636.27
582.479,4390.27
582.562,3738.37
582.645,3488.9
582.728,3362.27
582.811,3256.73
582.895,3249.47
582.978,3238.73
583.061,3203.43
583.144,3172.2
583.227,3146.73
583.31,3113.23
583.394,3123.57
583.477,3142.57
583.56,3134.0
583.643,3130.7
583.726,3132.13
583.809,3153.23
583.893,3177.37
583.976,3180.6
584.059,3129.53
584.142,3134.23
584.225,3167.97
584.308,3187.93
584.391,3194.97
584.475,3201.47
584.558,3197.97
584.641,3255.1
584.724,3302.67
584.807,3295.77
584.89,3313.23
584.973,3335.9
585.057,3401.03
585.14,3506.53
585.223,3658.6
585.306,3849.3
585.389,4147.9
585.472,4596.73
585.555,5190.2
585.638,5708.93
585.722,6097.93
585.805,6301.23
585.888,6528.47
585.971,6674.4
586.054,6505.57
586.137,6307.97
586.22,5935.57
586.303,5492.77
586.386,5094.07
586.47,4784.1
586.553,4440.23
586.636,4047.97
586.719,3790.2
586.802,3626.47
586.885,3531.43
586.968,3444.03
587.051,3357.27
587.134,3310.73
587.217,3302.23
587.3,3299.27
587.384,3246.6
587.467,3195.93
587.55,3200.23
587.633,3214.07
587.716,3190.73
587.799,3205.83
587.882,3186.17
587.965,3181.83
588.048,3218.9
588.131,3220.87
588.214,3212.63
588.297,3213.1
588.38,3202.2
588.463,3205.57
588.546,3160.97
588.63,3169.8
588.713,3200.87
588.796,3197.17
588.879,3160.57
588.962,3152.0
589.045,3182.8
589.128,3153.7
589.211,3159.9
589.294,3193.4
589.377,3185.87
589.46,3166.73
589.543,3181.97
589.626,3161.87
589.709,3146.5
589.792,3102.67
589.875,3137.23
589.958,3162.27
590.041,3164.67
590.124,3154.57
590.207,3184.53
590.29,3181.6
590.373,3168.6
590.456,3152.97
590.539,3157.83
590.622,3145.13
590.705,3121.77
590.788,3120.23
590.871,3161.3
590.954,3178.77
591.037,3148.63
591.12,3173.47
591.203,3177.7
591.286,3158.67
591.369,3154.23
591.452,3154.83
591.535,3165.2
591.618,3170.17
591.701,3160.8
591.784,3179.53
591.867,3184.53
591.95,3194.97
592.033,3169.77
592.116,3179.33
592.199,3176.9
592.282,3182.03
592.365,3193.77
592.448,3179.93
592.531,3183.3
592.614,3181.1
592.697,3188.33
592.78,3175.93
592.863,3186.53
592.946,3206.03
593.029,3203.23
593.112,3173.07
593.195,3167.13
593.278,3151.43
593.361,3177.0
593.443,3210.1
593.526,3217.63
593.609,3165.3
593.692,3165.87
593.775,3158.3
593.858,3166.2
593.941,3198.77
594.024,3202.57
594.107,3156.77
594.19,3161.3
594.273,3175.57
594.356,3216.2
594.439,3220.97
594.522,3204.5
594.604,3159.87
594.687,3161.5
594.77,3182.0
594.853,3172.93
594.936,3183.13
595.019,3223.87
595.102,3227.27
595.185,3202.43
595.268,3194.4
595.351,3195.07
595.434,3203.17
595.516,3194.57
595.599,3210.13
595.682,3223.47
595.765,3219.8
595.848,3218.1
595.931,3207.03
596.014,3175.93
596.097,3192.37
596.18,3183.87
596.262,3228.17
596.345,3225.7
596.428,3219.27
596.511,3205.6
596.594,3239.8
596.677,3239.9
596.76,3215.73
596.843,3183.43
596.925,3198.1
597.008,3198.7
597.091,3206.9
597.174,3214.0
597.257,3219.27
597.34,3220.77
597.423,3233.67
597.505,3254.77
597.588,3228.97
597.671,3218.07
597.754,3208.07
597.837,3220.8
597.92,3200.77
598.002,3200.67
598.085,3204.87
598.168,3212.73
598.251,3216.97
598.334,3243.43
598.417,3225.53
598.499,3192.43
598.582,3212.83
598.665,3230.43
598.748,3241.27
598.831,3249.93
598.914,3231.07
598.996,3232.6
599.079,3262.7
599.162,3225.27
599.245,3209.13
599.328,3210.97
599.41,3237.3
599.493,3247.63
599.576,3228.93
599.659,3199.2
599.742,3221.13
599.824,3258.23
599.907,3271.17
599.99,3256.27
600.073,3232.47
600.156,3221.5
600.238,3231.93
600.321,3222.47
600.404,3221.47
600.487,3234.17
600.57,3252.27
600.652,3237.23
600.735,3224.97
600.818,3265.93
600.901,3264.87
600.983,3250.83
601.066,3215.73
601.149,3225.03
601.232,3223.97
601.314,3227.6
601.397,3273.27
601.48,3262.87
601.563,3249.33
601.645,3251.73
601.728,3233.13
601.811,3245.5
601.894,3270.13
601.976,3253.57
602.059,3259.13
602.142,3224.1
602.225,3217.27
602.307,3226.8
602.39,3262.27
602.473,3253.77
602.556,3241.2
602.638,3241.17
602.721,3276.9
602.804,3262.47
602.887,3239.7
602.969,3232.83
603.052,3252.8
603.135,3262.6
603.217,3251.9
603.3,3253.13
603.383,3267.23
603.466,3266.0
603.548,3260.67
603.631,3256.93
603.714,3261.53
603.796,3270.13
603.879,3250.53
603.962,3264.0
604.045,3256.87
604.127,3256.9
604.21,3283.9
604.293,3268.6
604.375,3263.27
604.458,3248.07
604.541,3241.07
604.623,3224.77
604.706,3234.2
604.789,3288.13
604.871,3296.97
604.954,3271.8
605.037,3213.73
605.119,3222.33
605.202,3246.63
605.285,3223.83
605.367,3254.43
605.45,3259.3
605.533,3262.43
605.615,3276.87
605.698,3285.0
605.781,3261.27
605.863,3270.03
605.946,3260.63
606.029,3265.23
606.111,3266.87
606.194,3241.57
606.277,3269.33
606.359,3261.67
606.442,3257.93
606.524,3271.3
606.607,3274.57
606.69,3274.63
606.772,3280.9
606.855,3281.13
606.938,3279.13
607.02,3273.37
607.103,3268.67
607.185,3280.47
607.268,3298.47
607.351,3268.2
607.433,3271.23
607.516,3269.77
607.599,3249.4
607.681,3259.5
607.764,3293.63
607.846,3282.0
607.929,3297.9
608.012,3286.43
608.094,3259.3
608.177,3237.0
608.259,3227.03
608.342,3235.63
608.425,3301.37
608.507,3339.63
608.59,3322.47
608.672,3281.03
608.755,3261.57
608.837,3265.73
608.92,3253.7
609.003,3251.17
609.085,3250.77
609.168,3292.63
609.25,3294.4
609.333,3288.63
609.415,3266.5
609.498,3253.57
609.581,3264.17
609.663,3256.63
609.746,3288.43
609.828,3295.93
609.911,3287.73
609.993,3270.67
610.076,3297.0
610.158,3312.03
610.241,3314.0
610.324,3293.27
610.406,3261.73
610.489,3269.87
610.571,3284.03
610.654,3303.5
610.736,3332.63
610.819,3285.73
610.901,3244.37
610.984,3271.87
611.066,3316.53
611.149,3302.83
611.231,3287.17
611.314,3288.67
611.396,3287.23
611.479,3267.23
611.561,3282.67
611.644,3303.9
611.727,3304.5
611.809,3297.5
611.892,3312.6
611.974,3272.77
612.057,3270.17
612.139,3286.37
612.222,3256.7
612.304,3274.83
612.386,3306.77
612.469,3318.2
612.551,3317.27
612.634,3315.47
612.716,3297.17
612.799,3307.7
612.881,3302.7
612.964,3286.0
613.046,3301.93
613.129,3284.3
613.211,3294.47
613.294,3296.2
613.376,3322.27
613.459,3298.73
613.541,3272.73
613.624,3296.27
613.706,3313.73
613.789,3309.77
613.871,3307.53
613.953,3328.77
614.036,3331.33
614.118,3328.8
614.201,3332.13
614.283,3324.37
614.366,3286.7
614.448,3308.97
614.531,3361.23
614.613,3359.93
614.695,3313.4
614.778,3361.13
614.86,3358.6
614.943,3337.23
615.025,3311.8
615.108,3311.5
615.19,3309.13
615.272,3318.23
615.355,3323.67
615.437,3327.87
615.52,3347.5
615.602,3337.63
615.684,3342.07
615.767,3318.13
615.849,3323.13
615.932,3340.43
616.014,3300.6
616.097,3334.37
616.179,3393.67
616.261,3379.87
616.344,3349.63
616.426,3358.23
616.508,3362.67
616.591,3352.47
616.673,3332.07
616.756,3344.37
616.838,3353.13
616.92,3361.9
617.003,3387.7
617.085,3384.6
617.168,3399.67
617.25,3367.17
617.332,3381.17
617.415,3400.43
617.497,3408.0
617.579,3380.9
617.662,3362.6
617.744,3376.27
617.826,3409.83
617.909,3419.83
617.991,3407.33
618.073,3378.1
618.156,3408.8
618.238,3451.5
618.32,3422.7
618.403,3399.27
618.485,3444.07
618.567,3439.43
618.65,3420.9
618.732,3382.83
618.814,3416.97
618.897,3442.17
618.979,3412.27
619.061,3375.23
619.144,3364.83
619.226,3393.73
619.308,3414.57
619.391,3384.67
619.473,3359.13
619.555,3364.83
619.638,3371.8
619.72,3389.53
619.802,3379.37
619.885,3385.77
619.967,3368.2
620.049,3369.3
620.131,3360.53
620.214,3387.17
620.296,3420.3
620.378,3392.1
620.461,3353.1
620.543,3330.87
620.625,3366.5
620.707,3366.77
620.79,3341.27
620.872,3367.8
620.954,3343.83
621.037,3350.23
621.119,3390.23
621.201,3415.03
621.283,3405.83
621.366,3383.27
621.448,3364.33
621.53,3368.1
621.612,3390.97
621.695,3387.2
621.777,3414.57
621.859,3395.0
621.941,3348.33
622.024,3371.93
622.106,3386.47
622.188,3412.7
622.27,3389.5
622.353,3383.53
622.435,3400.37
622.517,3395.33
622.599,3395.07
622.682,3406.7
622.764,3453.07
622.846,3414.73
622.928,3386.53
623.01,3427.47
623.093,3469.33
623.175,3424.27
623.257,3393.23
623.339,3391.7
623.422,3413.6
623.504,3462.6
623.586,3432.83
623.668,3399.9
623.75,3412.37
623.833,3406.53
623.915,3412.17
623.997,3386.87
624.079,3388.5
624.161,3442.03
624.244,3448.5
624.326,3493.3
624.408,3520.1
624.49,3490.2
624.572,3461.4
624.654,3452.63
624.737,3437.93
624.819,3444.3
624.901,3444.37
624.983,3487.13
625.065,3524.17
625.147,3520.73
625.23,3469.2
625.312,3473.93
625.394,3492.03
625.476,3472.4
625.558,3476.6
625.64,3471.8
625.723,3472.1
625.805,3443.17
625.887,3428.27
625.969,3434.67
626.051,3408.83
626.133,3436.73
626.215,3480.93
626.298,3472.87
626.38,3471.73
626.462,3515.3
626.544,3459.47
626.626,3410.5
626.708,3406.67
626.79,3464.17
626.872,3439.37
626.955,3428.27
627.037,3481.87
627.119,3477.0
627.201,3444.37
627.283,3471.2
627.365,3497.63
627.447,3486.13
627.529,3473.43
627.611,3503.7
627.693,3530.87
627.776,3538.2
627.858,3520.5
627.94,3501.27
628.022,3498.33
628.104,3520.6
628.186,3526.37
628.268,3559.5
628.35,3567.0
628.432,3602.57
628.514,3613.2
628.596,3663.4
628.678,3695.9
628.761,3696.17
628.843,3684.5
628.925,3708.37
629.007,3715.8
629.089,3703.8
629.171,3706.3
629.253,3712.27
629.335,3717.07
629.417,3703.67
629.499,3683.37
629.581,3686.2
629.663,3693.23
629.745,3693.87
629.827,3671.97
629.909,3624.93
629.991,3588.2
630.073,3612.6
630.155,3640.57
630.237,3639.33
630.319,3618.73
630.401,3680.9
630.483,3710.33
630.565,3689.6
630.647,3703.97
630.73,3740.33
630.812,3831.97
630.894,3880.63
630.976,3970.33
631.058,4028.67
631.14,4098.83
631.222,4248.97
631.304,4440.83
631.386,4529.97
631.468,4565.0
631.55,4567.2
631.632,4578.33
631.714,4632.43
631.796,4710.9
631.877,4644.7
631.959,4490.13
632.041,4460.27
632.123,4492.6
632.205,4477.1
632.287,4372.87
632.369,4228.13
632.451,4162.87
632.533,4179.77
632.615,4225.23
632.697,4158.07
632.779,4097.2
632.861,4014.77
632.943,3989.87
633.025,4002.23
633.107,4063.93
633.189,4065.5
633.271,4047.43
633.353,4017.07
633.435,4011.0
633.517,4011.1
633.599,3972.27
633.681,3927.3
633.763,3917.53
633.844,3903.33
633.926,3872.47
634.008,3805.43
634.09,3760.7
634.172,3812.03
634.254,3827.3
634.336,3805.23
634.418,3783.67
634.5,3789.4
634.582,3753.3
634.664,3757.4
634.746,3731.83
634.827,3700.27
634.909,3706.03
634.991,3770.57
635.073,3780.43
635.155,3767.17
635.237,3713.43
635.319,3743.6
635.401,3763.97
635.483,3817.97
635.564,3832.07
635.646,3895.67
635.728,3977.1
635.81,4110.07
635.892,4181.8
635.974,4248.5
636.056,4293.4
636.138,4499.1
636.219,4573.23
636.301,4667.13
636.383,4751.27
636.465,4813.33
636.547,4874.6
636.629,4832.9
636.711,4718.6
636.792,4570.13
636.874,4404.47
636.956,4308.93
637.038,4254.1
637.12,4144.5
637.202,4010.77
637.283,3962.2
637.365,3927.03
637.447,3878.13
637.529,3893.87
637.611,3879.63
637.693,3810.4
637.774,3799.47
637.856,3749.87
637.938,3737.87
638.02,3712.87
638.102,3718.87
638.184,3742.47
638.265,3719.07
638.347,3730.7
638.429,3727.03
638.511,3744.4
638.593,3720.33
638.674,3699.6
638.756,3706.1
638.838,3722.03
638.92,3683.03
639.002,3669.37
639.083,3670.63
639.165,3710.23
639.247,3758.4
639.329,3723.2
639.41,3683.23
639.492,3674.07
639.574,3741.63
639.656,3787.5
639.737,3735.67
639.819,3665.97
639.901,3657.27
639.983,3659.3
640.065,3676.03
640.146,3750.03
640.228,3726.17
640.31,3664.7
640.392,3614.03
640.473,3647.3
640.555,3667.57
640.637,3648.87
640.719,3684.03
640.8,3701.0
640.882,3671.17
640.964,3665.23
641.045,3677.4
641.127,3695.03
641.209,3669.3
641.291,3635.8
641.372,3691.63
641.454,3748.3
641.536,3689.73
641.618,3651.73
641.699,3695.33
641.781,3688.43
641.863,3697.6
641.944,3739.1
642.026,3756.03
642.108,3747.77
642.189,3701.33
642.271,3714.27
642.353,3746.67
642.435,3727.2
642.516,3757.27
642.598,3787.83
642.68,3749.27
642.761,3689.33
642.843,3686.67
642.925,3664.63
643.006,3648.33
643.088,3635.53
643.17,3657.07
643.251,3703.8
643.333,3701.47
643.415,3673.2
643.496,3712.37
643.578,3685.83
643.66,3672.27
643.741,3706.27
643.823,3724.0
643.905,3692.73
643.986,3669.4
644.068,3661.03
644.149,3658.93
644.231,3710.0
644.313,3670.07
644.394,3635.27
644.476,3664.53
644.558,3684.77
644.639,3678.4
644.721,3661.03
644.803,3689.8
644.884,3707.8
644.966,3698.67
645.047,3674.8
645.129,3708.3
645.211,3658.1
645.292,3646.53
645.374,3694.2
645.455,3693.5
645.537,3730.87
645.619,3745.07
645.7,3713.7
645.782,3682.7
645.863,3636.37
645.945,3640.03
646.027,3623.73
646.108,3685.93
646.19,3725.6
646.271,3707.93
646.353,3644.63
646.435,3641.17
646.516,3641.03
646.598,3651.1
646.679,3639.8
646.761,3691.7
646.842,3680.37
646.924,3675.87
647.005,3683.3
647.087,3676.63
647.169,3700.97
647.25,3683.03
647.332,3688.77
647.413,3680.93
647.495,3648.9
647.576,3646.43
647.658,3668.67
647.739,3659.77
647.821,3703.27
647.902,3699.27
647.984,3680.8
648.066,3634.17
648.147,3611.43
648.229,3636.2
648.31,3663.37
648.392,3639.7
648.473,3634.2
648.555,3634.27
648.636,3675.43
648.718,3699.8
648.799,3664.57
648.881,3653.2
648.962,3646.07
649.044,3640.9
649.125,3634.57
649.207,3715.97
649.288,3705.27
649.37,3652.9
649.451,3584.1
649.533,3594.17
649.614,3628.5
649.696,3642.27
649.777,3620.4
649.859,3586.97
649.94,3632.53
650.022,3622.57
650.103,3584.0
650.184,3576.6
650.266,3568.3
650.347,3592.07
650.429,3636.2
650.51,3638.6
650.592,3650.57
650.673,3677.27
650.755,3634.53
650.836,3646.6
650.918,3643.17
650.999,3636.97
651.08,3613.2
651.162,3552.43
651.243,3567.57
651.325,3588.8
651.406,3592.73
651.488,3610.13
651.569,3635.53
651.651,3610.83
651.732,3575.97
651.813,3555.23
651.895,3612.83
651.976,3648.73
652.058,3628.1
652.139,3594.03
652.22,3620.9
652.302,3625.4
652.383,3576.1
652.465,3527.33
652.546,3546.97
652.627,3608.07
652.709,3616.83
652.79,3658.8
652.872,3602.87
652.953,3565.47
653.034,3556.33
653.116,3504.37
653.197,3505.1
653.278,3547.8
653.36,3592.47
653.441,3576.0
653.523,3523.4
653.604,3486.73
653.685,3516.83
653.767,3509.8
653.848,3539.7
653.929,3559.93
654.011,3565.5
654.092,3555.83
654.173,3548.43
654.255,3558.23
654.336,3551.47
654.418,3545.7
654.499,3491.57
654.58,3470.4
654.662,3472.53
654.743,3511.83
654.824,3552.33
654.906,3539.47
654.987,3568.63
655.068,3503.93
655.149,3494.37
655.231,3513.43
655.312,3492.03
655.393,3505.03
655.475,3496.2
655.556,3490.83
655.637,3534.23
655.719,3564.63
655.8,3562.1
655.881,3491.6
655.963,3486.6
656.044,3501.7
656.125,3513.3
656.206,3489.47
656.288,3471.6
656.369,3430.3
656.45,3466.4
656.532,3472.7
656.613,3484.53
656.694,3516.63
656.775,3504.17
656.857,3455.4
656.938,3445.37
657.019,3466.07
657.1,3431.93
657.182,3436.2
657.263,3416.5
657.344,3426.67
657.425,3424.93
657.507,3435.53
657.588,3452.27
657.669,3462.47
657.75,3448.03
657.832,3448.83
657.913,3425.03
657.994,3465.17
658.075,3437.47
658.157,3399.53
658.238,3354.93
658.319,3337.37
658.4,3349.1
658.482,3385.07
658.563,3404.33
658.644,3409.27
658.725,3437.97
658.806,3369.53
658.888,3435.07
658.969,3433.27
659.05,3449.1
659.131,3392.2
659.212,3358.03
659.294,3351.33
659.375,3347.6
659.456,3328.03
659.537,3322.17
659.618,3325.67
659.7,3349.03
659.781,3371.83
659.862,3339.73
659.943,3317.83
660.024,3302.07
660.105,3341.73
660.187,3370.7
660.268,3394.4
660.349,3398.27
660.43,3355.63
660.511,3338.17
660.592,3323.53
660.674,3348.83
660.755,3330.1
660.836,3300.23
660.917,3324.63
660.998,3333.3
661.079,3333.77
