cm-1,A
4000.0,0.0088
3999.0,0.0088
3998.0,0.0088
3997.0,0.0088
3996.0,0.0089
3995.0,0.0089
3994.0,0.009
3993.0,0.009
3992.0,0.0091
3991.0,0.0091
3990.0,0.0091
3989.0,0.0091
3988.0,0.0091
3987.0,0.0091
3986.0,0.0092
3985.0,0.0092
3984.0,0.0092
3983.0,0.0092
3982.0,0.0091
3981.0,0.0091
3980.0,0.009
3979.0,0.0089
3978.0,0.0088
3977.0,0.0088
3976.0,0.0087
3975.0,0.0088
3974.0,0.0089
3973.0,0.0089
3972.0,0.009
3971.0,0.009
3970.0,0.009
3969.0,0.009
3968.0,0.009
3967.0,0.009
3966.0,0.009
3965.0,0.0091
3964.0,0.0091
3963.0,0.0092
3962.0,0.0092
3961.0,0.0092
3960.0,0.0092
3959.0,0.0092
3958.0,0.0092
3957.0,0.0092
3956.0,0.0093
3955.0,0.0093
3954.0,0.0093
3953.0,0.0092
3952.0,0.0092
3951.0,0.0091
3950.0,0.0091
3949.0,0.009
3948.0,0.009
3947.0,0.0089
3946.0,0.0088
3945.0,0.0087
3944.0,0.0088
3943.0,0.0089
3942.0,0.009
3941.0,0.009
3940.0,0.0091
3939.0,0.0092
3938.0,0.0092
3937.0,0.0092
3936.0,0.0092
3935.0,0.0091
3934.0,0.0091
3933.0,0.0091
3932.0,0.0091
3931.0,0.009
3930.0,0.0089
3929.0,0.0089
3928.0,0.0088
3927.0,0.0088
3926.0,0.0089
3925.0,0.0089
3924.0,0.0088
3923.0,0.0087
3922.0,0.0087
3921.0,0.0088
3920.0,0.0089
3919.0,0.009
3918.0,0.009
3917.0,0.0091
3916.0,0.009
3915.0,0.009
3914.0,0.0091
3913.0,0.0092
3912.0,0.0094
3911.0,0.0095
3910.0,0.0094
3909.0,0.0093
3908.0,0.009
3907.0,0.0088
3906.0,0.0086
3905.0,0.0085
3904.0,0.0085
3903.0,0.0085
3902.0,0.0084
3901.0,0.0084
3900.0,0.0086
3899.0,0.0087
3898.0,0.0088
3897.0,0.0089
3896.0,0.009
3895.0,0.009
3894.0,0.009
3893.0,0.0092
3892.0,0.0093
3891.0,0.0093
3890.0,0.0091
3889.0,0.0089
3888.0,0.0089
3887.0,0.0091
3886.0,0.0092
3885.0,0.0092
3884.0,0.009
3883.0,0.0089
3882.0,0.009
3881.0,0.0093
3880.0,0.0095
3879.0,0.0094
3878.0,0.0092
3877.0,0.0092
3876.0,0.0093
3875.0,0.0093
3874.0,0.0092
3873.0,0.0089
3872.0,0.0088
3871.0,0.009
3870.0,0.0091
3869.0,0.0089
3868.0,0.0087
3867.0,0.0086
3866.0,0.0087
3865.0,0.0089
3864.0,0.009
3863.0,0.009
3862.0,0.009
3861.0,0.009
3860.0,0.009
3859.0,0.0089
3858.0,0.0087
3857.0,0.0083
3856.0,0.0079
3855.0,0.0078
3854.0,0.0083
3853.0,0.0086
3852.0,0.0085
3851.0,0.0086
3850.0,0.009
3849.0,0.0093
3848.0,0.0095
3847.0,0.0095
3846.0,0.0095
3845.0,0.0094
3844.0,0.0093
3843.0,0.0091
3842.0,0.0089
3841.0,0.0087
3840.0,0.0087
3839.0,0.0087
3838.0,0.0087
3837.0,0.0087
3836.0,0.0087
3835.0,0.0089
3834.0,0.0092
3833.0,0.0094
3832.0,0.0095
3831.0,0.0095
3830.0,0.0095
3829.0,0.0095
3828.0,0.0096
3827.0,0.0097
3826.0,0.0096
3825.0,0.0093
3824.0,0.0091
3823.0,0.009
3822.0,0.0091
3821.0,0.0093
3820.0,0.0091
3819.0,0.009
3818.0,0.0091
3817.0,0.0095
3816.0,0.0098
3815.0,0.0098
3814.0,0.0098
3813.0,0.0099
3812.0,0.0099
3811.0,0.0099
3810.0,0.0096
3809.0,0.0095
3808.0,0.0096
3807.0,0.0096
3806.0,0.0094
3805.0,0.0091
3804.0,0.0091
3803.0,0.0093
3802.0,0.0096
3801.0,0.0097
3800.0,0.0095
3799.0,0.0094
3798.0,0.0096
3797.0,0.0099
3796.0,0.01
3795.0,0.01
3794.0,0.01
3793.0,0.0101
3792.0,0.0102
3791.0,0.0103
3790.0,0.0102
3789.0,0.0101
3788.0,0.01
3787.0,0.0099
3786.0,0.0099
3785.0,0.0099
3784.0,0.01
3783.0,0.0099
3782.0,0.0099
3781.0,0.01
3780.0,0.0101
3779.0,0.0102
3778.0,0.0102
3777.0,0.0103
3776.0,0.0104
3775.0,0.0105
3774.0,0.0104
3773.0,0.0103
3772.0,0.0102
3771.0,0.0101
3770.0,0.0101
3769.0,0.0099
3768.0,0.0098
3767.0,0.0098
3766.0,0.0099
3765.0,0.01
3764.0,0.01
3763.0,0.0099
3762.0,0.0099
3761.0,0.0098
3760.0,0.0099
3759.0,0.0099
3758.0,0.0098
3757.0,0.0097
3756.0,0.0096
3755.0,0.0095
3754.0,0.0094
3753.0,0.0092
3752.0,0.0092
3751.0,0.0092
3750.0,0.0092
3749.0,0.0089
3748.0,0.0088
3747.0,0.0089
3746.0,0.0092
3745.0,0.0096
3744.0,0.0097
3743.0,0.0094
3742.0,0.0093
3741.0,0.0095
3740.0,0.0096
3739.0,0.0094
3738.0,0.0092
3737.0,0.009
3736.0,0.0091
3735.0,0.0091
3734.0,0.0091
3733.0,0.0093
3732.0,0.0096
3731.0,0.0098
3730.0,0.0099
3729.0,0.0098
3728.0,0.0098
3727.0,0.0097
3726.0,0.0097
3725.0,0.0098
3724.0,0.01
3723.0,0.0102
3722.0,0.0103
3721.0,0.0104
3720.0,0.0103
3719.0,0.0104
3718.0,0.0104
3717.0,0.0105
3716.0,0.0106
3715.0,0.0106
3714.0,0.0106
3713.0,0.0105
3712.0,0.0103
3711.0,0.0102
3710.0,0.01
3709.0,0.01
3708.0,0.0101
3707.0,0.0102
3706.0,0.0102
3705.0,0.0101
3704.0,0.0101
3703.0,0.0103
3702.0,0.0105
3701.0,0.0106
3700.0,0.0106
3699.0,0.0106
3698.0,0.0107
3697.0,0.0107
3696.0,0.0107
3695.0,0.0105
3694.0,0.0103
3693.0,0.01
3692.0,0.0097
3691.0,0.0098
3690.0,0.01
3689.0,0.0103
3688.0,0.0104
3687.0,0.0105
3686.0,0.0106
3685.0,0.0108
3684.0,0.0109
3683.0,0.0109
3682.0,0.0108
3681.0,0.0106
3680.0,0.0103
3679.0,0.01
3678.0,0.0096
3677.0,0.0096
3676.0,0.01
3675.0,0.0102
3674.0,0.0101
3673.0,0.0101
3672.0,0.0104
3671.0,0.0108
3670.0,0.0111
3669.0,0.0111
3668.0,0.011
3667.0,0.0111
3666.0,0.0113
3665.0,0.0114
3664.0,0.0115
3663.0,0.0115
3662.0,0.0115
3661.0,0.0115
3660.0,0.0115
3659.0,0.0114
3658.0,0.0115
3657.0,0.0117
3656.0,0.0117
3655.0,0.0115
3654.0,0.0113
3653.0,0.0111
3652.0,0.0109
3651.0,0.0108
3650.0,0.0108
3649.0,0.0108
3648.0,0.0107
3647.0,0.0108
3646.0,0.0111
3645.0,0.0115
3644.0,0.0118
3643.0,0.0121
3642.0,0.0123
3641.0,0.0124
3640.0,0.0124
3639.0,0.0125
3638.0,0.0125
3637.0,0.0124
3636.0,0.0124
3635.0,0.0124
3634.0,0.0123
3633.0,0.0121
3632.0,0.0118
3631.0,0.0117
3630.0,0.0118
3629.0,0.0121
3628.0,0.0121
3627.0,0.012
3626.0,0.0122
3625.0,0.0125
3624.0,0.0126
3623.0,0.0125
3622.0,0.0124
3621.0,0.0123
3620.0,0.0123
3619.0,0.0123
3618.0,0.0122
3617.0,0.012
3616.0,0.012
3615.0,0.0122
3614.0,0.0125
3613.0,0.0127
3612.0,0.0127
3611.0,0.0126
3610.0,0.0125
3609.0,0.0125
3608.0,0.0125
3607.0,0.0125
3606.0,0.0125
3605.0,0.0126
3604.0,0.0126
3603.0,0.0126
3602.0,0.0126
3601.0,0.0126
3600.0,0.0126
3599.0,0.0126
3598.0,0.0125
3597.0,0.0125
3596.0,0.0126
3595.0,0.0126
3594.0,0.0127
3593.0,0.0127
3592.0,0.0126
3591.0,0.0125
3590.0,0.0124
3589.0,0.0125
3588.0,0.0126
3587.0,0.0127
3586.0,0.0126
3585.0,0.0126
3584.0,0.0128
3583.0,0.0131
3582.0,0.0134
3581.0,0.0135
3580.0,0.0136
3579.0,0.0136
3578.0,0.0135
3577.0,0.0135
3576.0,0.0135
3575.0,0.0136
3574.0,0.0136
3573.0,0.0135
3572.0,0.0134
3571.0,0.0132
3570.0,0.013
3569.0,0.0129
3568.0,0.0129
3567.0,0.0129
3566.0,0.0129
3565.0,0.013
3564.0,0.0132
3563.0,0.0134
3562.0,0.0136
3561.0,0.0137
3560.0,0.0138
3559.0,0.0139
3558.0,0.014
3557.0,0.0141
3556.0,0.0141
3555.0,0.0141
3554.0,0.0141
3553.0,0.0141
3552.0,0.0141
3551.0,0.0141
3550.0,0.0141
3549.0,0.0141
3548.0,0.0142
3547.0,0.0143
3546.0,0.0143
3545.0,0.0143
3544.0,0.0143
3543.0,0.0143
3542.0,0.0144
3541.0,0.0145
3540.0,0.0145
3539.0,0.0146
3538.0,0.0146
3537.0,0.0147
3536.0,0.0148
3535.0,0.0147
3534.0,0.0146
3533.0,0.0145
3532.0,0.0144
3531.0,0.0143
3530.0,0.0143
3529.0,0.0143
3528.0,0.0143
3527.0,0.0143
3526.0,0.0142
3525.0,0.0142
3524.0,0.0143
3523.0,0.0143
3522.0,0.0143
3521.0,0.0143
3520.0,0.0142
3519.0,0.0142
3518.0,0.0142
3517.0,0.0144
3516.0,0.0145
3515.0,0.0146
3514.0,0.0146
3513.0,0.0146
3512.0,0.0145
3511.0,0.0145
3510.0,0.0144
3509.0,0.0144
3508.0,0.0143
3507.0,0.0142
3506.0,0.0142
3505.0,0.0143
3504.0,0.0144
3503.0,0.0145
3502.0,0.0146
3501.0,0.0146
3500.0,0.0146
3499.0,0.0146
3498.0,0.0146
3497.0,0.0147
3496.0,0.0147
3495.0,0.0147
3494.0,0.0146
3493.0,0.0146
3492.0,0.0145
3491.0,0.0145
3490.0,0.0146
3489.0,0.0146
3488.0,0.0147
3487.0,0.0147
3486.0,0.0147
3485.0,0.0147
3484.0,0.0147
3483.0,0.0148
3482.0,0.0148
3481.0,0.0148
3480.0,0.0148
3479.0,0.0148
3478.0,0.0148
3477.0,0.0148
3476.0,0.0149
3475.0,0.015
3474.0,0.015
3473.0,0.015
3472.0,0.015
3471.0,0.015
3470.0,0.015
3469.0,0.0151
3468.0,0.0151
3467.0,0.0152
3466.0,0.0152
3465.0,0.0152
3464.0,0.0152
3463.0,0.0153
3462.0,0.0153
3461.0,0.0153
3460.0,0.0152
3459.0,0.0152
3458.0,0.0151
3457.0,0.0151
3456.0,0.0152
3455.0,0.0154
3454.0,0.0155
3453.0,0.0156
3452.0,0.0156
3451.0,0.0155
3450.0,0.0155
3449.0,0.0154
3448.0,0.0155
3447.0,0.0156
3446.0,0.0157
3445.0,0.0158
3444.0,0.016
3443.0,0.0161
3442.0,0.0162
3441.0,0.0163
3440.0,0.0164
3439.0,0.0164
3438.0,0.0163
3437.0,0.0163
3436.0,0.0163
3435.0,0.0163
3434.0,0.0164
3433.0,0.0165
3432.0,0.0165
3431.0,0.0165
3430.0,0.0166
3429.0,0.0166
3428.0,0.0167
3427.0,0.0168
3426.0,0.0169
3425.0,0.0168
3424.0,0.0167
3423.0,0.0166
3422.0,0.0166
3421.0,0.0165
3420.0,0.0165
3419.0,0.0165
3418.0,0.0165
3417.0,0.0165
3416.0,0.0165
3415.0,0.0164
3414.0,0.0164
3413.0,0.0164
3412.0,0.0163
3411.0,0.0162
3410.0,0.016
3409.0,0.0159
3408.0,0.0158
3407.0,0.0158
3406.0,0.0158
3405.0,0.0158
3404.0,0.0157
3403.0,0.0157
3402.0,0.0157
3401.0,0.0157
3400.0,0.0158
3399.0,0.0158
3398.0,0.0158
3397.0,0.0158
3396.0,0.0157
3395.0,0.0156
3394.0,0.0156
3393.0,0.0156
3392.0,0.0156
3391.0,0.0156
3390.0,0.0156
3389.0,0.0155
3388.0,0.0155
3387.0,0.0155
3386.0,0.0155
3385.0,0.0156
3384.0,0.0156
3383.0,0.0156
3382.0,0.0156
3381.0,0.0155
3380.0,0.0154
3379.0,0.0154
3378.0,0.0154
3377.0,0.0154
3376.0,0.0154
3375.0,0.0154
3374.0,0.0154
3373.0,0.0154
3372.0,0.0154
3371.0,0.0154
3370.0,0.0154
3369.0,0.0153
3368.0,0.0152
3367.0,0.0152
3366.0,0.0151
3365.0,0.0151
3364.0,0.0151
3363.0,0.0151
3362.0,0.0152
3361.0,0.0153
3360.0,0.0154
3359.0,0.0154
3358.0,0.0155
3357.0,0.0155
3356.0,0.0154
3355.0,0.0154
3354.0,0.0154
3353.0,0.0153
3352.0,0.0153
3351.0,0.0153
3350.0,0.0154
3349.0,0.0155
3348.0,0.0156
3347.0,0.0157
3346.0,0.0157
3345.0,0.0156
3344.0,0.0156
3343.0,0.0156
3342.0,0.0156
3341.0,0.0156
3340.0,0.0156
3339.0,0.0155
3338.0,0.0155
3337.0,0.0154
3336.0,0.0154
3335.0,0.0154
3334.0,0.0154
3333.0,0.0154
3332.0,0.0154
3331.0,0.0154
3330.0,0.0153
3329.0,0.0153
3328.0,0.0153
3327.0,0.0152
3326.0,0.0152
3325.0,0.0152
3324.0,0.0152
3323.0,0.0153
3322.0,0.0153
3321.0,0.0153
3320.0,0.0153
3319.0,0.0152
3318.0,0.0152
3317.0,0.0151
3316.0,0.0151
3315.0,0.0151
3314.0,0.015
3313.0,0.0151
3312.0,0.0151
3311.0,0.0152
3310.0,0.0153
3309.0,0.0153
3308.0,0.0154
3307.0,0.0154
3306.0,0.0154
3305.0,0.0154
3304.0,0.0153
3303.0,0.0152
3302.0,0.0152
3301.0,0.0152
3300.0,0.0152
3299.0,0.0152
3298.0,0.0152
3297.0,0.0152
3296.0,0.0151
3295.0,0.0151
3294.0,0.0151
3293.0,0.0151
3292.0,0.015
3291.0,0.015
3290.0,0.015
3289.0,0.015
3288.0,0.0151
3287.0,0.0151
3286.0,0.0151
3285.0,0.0151
3284.0,0.015
3283.0,0.0149
3282.0,0.0149
3281.0,0.015
3280.0,0.0151
3279.0,0.0152
3278.0,0.0152
3277.0,0.0152
3276.0,0.0151
3275.0,0.015
3274.0,0.0149
3273.0,0.0149
3272.0,0.0149
3271.0,0.0149
3270.0,0.0149
3269.0,0.0148
3268.0,0.0148
3267.0,0.0148
3266.0,0.0148
3265.0,0.0148
3264.0,0.0148
3263.0,0.0147
3262.0,0.0148
3261.0,0.0148
3260.0,0.0148
3259.0,0.0149
3258.0,0.015
3257.0,0.015
3256.0,0.015
3255.0,0.0149
3254.0,0.0147
3253.0,0.0147
3252.0,0.0146
3251.0,0.0146
3250.0,0.0145
3249.0,0.0145
3248.0,0.0145
3247.0,0.0146
3246.0,0.0146
3245.0,0.0146
3244.0,0.0146
3243.0,0.0146
3242.0,0.0146
3241.0,0.0146
3240.0,0.0145
3239.0,0.0145
3238.0,0.0145
3237.0,0.0146
3236.0,0.0146
3235.0,0.0147
3234.0,0.0147
3233.0,0.0147
3232.0,0.0146
3231.0,0.0146
3230.0,0.0145
3229.0,0.0145
3228.0,0.0146
3227.0,0.0146
3226.0,0.0147
3225.0,0.0147
3224.0,0.0147
3223.0,0.0146
3222.0,0.0145
3221.0,0.0144
3220.0,0.0144
3219.0,0.0143
3218.0,0.0143
3217.0,0.0143
3216.0,0.0143
3215.0,0.0143
3214.0,0.0143
3213.0,0.0143
3212.0,0.0143
3211.0,0.0143
3210.0,0.0143
3209.0,0.0143
3208.0,0.0142
3207.0,0.0142
3206.0,0.0142
3205.0,0.0142
3204.0,0.0142
3203.0,0.0143
3202.0,0.0143
3201.0,0.0143
3200.0,0.0142
3199.0,0.0141
3198.0,0.0141
3197.0,0.014
3196.0,0.0141
3195.0,0.0142
3194.0,0.0142
3193.0,0.0142
3192.0,0.0142
3191.0,0.0142
3190.0,0.0142
3189.0,0.0142
3188.0,0.0142
3187.0,0.0141
3186.0,0.0141
3185.0,0.014
3184.0,0.014
3183.0,0.014
3182.0,0.014
3181.0,0.014
3180.0,0.0141
3179.0,0.0141
3178.0,0.0141
3177.0,0.0141
3176.0,0.014
3175.0,0.014
3174.0,0.014
3173.0,0.0139
3172.0,0.0139
3171.0,0.0139
3170.0,0.0138
3169.0,0.0138
3168.0,0.0138
3167.0,0.0139
3166.0,0.0139
3165.0,0.0139
3164.0,0.0139
3163.0,0.0139
3162.0,0.0139
3161.0,0.0139
3160.0,0.0139
3159.0,0.0139
3158.0,0.0138
3157.0,0.0138
3156.0,0.0138
3155.0,0.0138
3154.0,0.0137
3153.0,0.0136
3152.0,0.0136
3151.0,0.0137
3150.0,0.0137
3149.0,0.0138
3148.0,0.0138
3147.0,0.0138
3146.0,0.0137
3145.0,0.0137
3144.0,0.0138
3143.0,0.0138
3142.0,0.0138
3141.0,0.0138
3140.0,0.0139
3139.0,0.0139
3138.0,0.014
3137.0,0.014
3136.0,0.014
3135.0,0.014
3134.0,0.014
3133.0,0.014
3132.0,0.014
3131.0,0.014
3130.0,0.014
3129.0,0.0141
3128.0,0.0141
3127.0,0.0142
3126.0,0.0142
3125.0,0.0141
3124.0,0.0139
3123.0,0.0138
3122.0,0.0137
3121.0,0.0137
3120.0,0.0137
3119.0,0.0138
3118.0,0.0139
3117.0,0.014
3116.0,0.0141
3115.0,0.0141
3114.0,0.0141
3113.0,0.0141
3112.0,0.0142
3111.0,0.0142
3110.0,0.0142
3109.0,0.0143
3108.0,0.0145
3107.0,0.0146
3106.0,0.0147
3105.0,0.0147
3104.0,0.0146
3103.0,0.0146
3102.0,0.0146
3101.0,0.0147
3100.0,0.0146
3099.0,0.0146
3098.0,0.0146
3097.0,0.0145
3096.0,0.0145
3095.0,0.0144
3094.0,0.0144
3093.0,0.0144
3092.0,0.0144
3091.0,0.0144
3090.0,0.0145
3089.0,0.0145
3088.0,0.0146
3087.0,0.0147
3086.0,0.0148
3085.0,0.0149
3084.0,0.015
3083.0,0.0151
3082.0,0.0151
3081.0,0.0151
3080.0,0.015
3079.0,0.015
3078.0,0.0149
3077.0,0.0149
3076.0,0.0149
3075.0,0.0149
3074.0,0.015
3073.0,0.015
3072.0,0.0151
3071.0,0.0152
3070.0,0.0153
3069.0,0.0153
3068.0,0.0153
3067.0,0.0153
3066.0,0.0152
3065.0,0.0152
3064.0,0.0151
3063.0,0.015
3062.0,0.015
3061.0,0.0149
3060.0,0.0149
3059.0,0.0149
3058.0,0.015
3057.0,0.0151
3056.0,0.0153
3055.0,0.0154
3054.0,0.0154
3053.0,0.0154
3052.0,0.0154
3051.0,0.0152
3050.0,0.0151
3049.0,0.0148
3048.0,0.0146
3047.0,0.0145
3046.0,0.0144
3045.0,0.0143
3044.0,0.0143
3043.0,0.0143
3042.0,0.0142
3041.0,0.0141
3040.0,0.014
3039.0,0.0139
3038.0,0.0138
3037.0,0.0138
3036.0,0.0138
3035.0,0.0137
3034.0,0.0137
3033.0,0.0136
3032.0,0.0137
3031.0,0.0137
3030.0,0.0138
3029.0,0.0138
3028.0,0.0138
3027.0,0.0139
3026.0,0.0139
3025.0,0.0139
3024.0,0.0139
3023.0,0.0139
3022.0,0.0139
3021.0,0.0139
3020.0,0.0139
3019.0,0.014
3018.0,0.014
3017.0,0.0142
3016.0,0.0143
3015.0,0.0144
3014.0,0.0146
3013.0,0.0147
3012.0,0.0148
3011.0,0.0148
3010.0,0.0149
3009.0,0.015
3008.0,0.015
3007.0,0.0151
3006.0,0.0152
3005.0,0.0152
3004.0,0.0153
3003.0,0.0154
3002.0,0.0155
3001.0,0.0156
3000.0,0.0157
2999.0,0.0157
2998.0,0.0158
2997.0,0.0158
2996.0,0.0159
2995.0,0.0161
2994.0,0.0162
2993.0,0.0163
2992.0,0.0164
2991.0,0.0164
2990.0,0.0165
2989.0,0.0166
2988.0,0.0167
2987.0,0.0169
2986.0,0.0171
2985.0,0.0172
2984.0,0.0173
2983.0,0.0174
2982.0,0.0176
2981.0,0.0177
2980.0,0.0179
2979.0,0.0181
2978.0,0.0183
2977.0,0.0186
2976.0,0.0188
2975.0,0.0191
2974.0,0.0194
2973.0,0.0197
2972.0,0.02
2971.0,0.0203
2970.0,0.0206
2969.0,0.021
2968.0,0.0213
2967.0,0.0216
2966.0,0.0219
2965.0,0.0222
2964.0,0.0225
2963.0,0.0227
2962.0,0.023
2961.0,0.0232
2960.0,0.0233
2959.0,0.0234
2958.0,0.0234
2957.0,0.0234
2956.0,0.0233
2955.0,0.0232
2954.0,0.0231
2953.0,0.023
2952.0,0.0227
2951.0,0.0225
2950.0,0.0221
2949.0,0.0218
2948.0,0.0215
2947.0,0.0212
2946.0,0.0208
2945.0,0.0205
2944.0,0.0201
2943.0,0.0197
2942.0,0.0193
2941.0,0.019
2940.0,0.0187
2939.0,0.0184
2938.0,0.0182
2937.0,0.0179
2936.0,0.0178
2935.0,0.0176
2934.0,0.0175
2933.0,0.0174
2932.0,0.0173
2931.0,0.0173
2930.0,0.0172
2929.0,0.0171
2928.0,0.0171
2927.0,0.017
2926.0,0.017
2925.0,0.0169
2924.0,0.0169
2923.0,0.0168
2922.0,0.0167
2921.0,0.0167
2920.0,0.0166
2919.0,0.0166
2918.0,0.0165
2917.0,0.0164
2916.0,0.0163
2915.0,0.0163
2914.0,0.0162
2913.0,0.0162
2912.0,0.0163
2911.0,0.0164
2910.0,0.0165
2909.0,0.0166
2908.0,0.0166
2907.0,0.0167
2906.0,0.0167
2905.0,0.0168
2904.0,0.0168
2903.0,0.0168
2902.0,0.0168
2901.0,0.0168
2900.0,0.0169
2899.0,0.0169
2898.0,0.017
2897.0,0.017
2896.0,0.0171
2895.0,0.0172
2894.0,0.0173
2893.0,0.0174
2892.0,0.0174
2891.0,0.0175
2890.0,0.0175
2889.0,0.0174
2888.0,0.0174
2887.0,0.0173
2886.0,0.0172
2885.0,0.0172
2884.0,0.0171
2883.0,0.0171
2882.0,0.0171
2881.0,0.0171
2880.0,0.017
2879.0,0.0169
2878.0,0.0169
2877.0,0.0169
2876.0,0.0169
2875.0,0.0169
2874.0,0.0168
2873.0,0.0168
2872.0,0.0167
2871.0,0.0167
2870.0,0.0167
2869.0,0.0166
2868.0,0.0166
2867.0,0.0165
2866.0,0.0164
2865.0,0.0163
2864.0,0.0163
2863.0,0.0163
2862.0,0.0163
2861.0,0.0163
2860.0,0.0163
2859.0,0.0163
2858.0,0.0164
2857.0,0.0164
2856.0,0.0164
2855.0,0.0164
2854.0,0.0162
2853.0,0.0161
2852.0,0.0159
2851.0,0.0158
2850.0,0.0158
2849.0,0.0157
2848.0,0.0156
2847.0,0.0155
2846.0,0.0154
2845.0,0.0153
2844.0,0.0152
2843.0,0.0152
2842.0,0.0151
2841.0,0.0151
2840.0,0.0151
2839.0,0.0151
2838.0,0.0151
2837.0,0.0151
2836.0,0.015
2835.0,0.0149
2834.0,0.0148
2833.0,0.0147
2832.0,0.0147
2831.0,0.0147
2830.0,0.0147
2829.0,0.0147
2828.0,0.0147
2827.0,0.0146
2826.0,0.0146
2825.0,0.0146
2824.0,0.0145
2823.0,0.0145
2822.0,0.0145
2821.0,0.0145
2820.0,0.0145
2819.0,0.0146
2818.0,0.0145
2817.0,0.0145
2816.0,0.0145
2815.0,0.0145
2814.0,0.0144
2813.0,0.0144
2812.0,0.0144
2811.0,0.0144
2810.0,0.0144
2809.0,0.0143
2808.0,0.0144
2807.0,0.0144
2806.0,0.0144
2805.0,0.0144
2804.0,0.0143
2803.0,0.0143
2802.0,0.0143
2801.0,0.0143
2800.0,0.0142
2799.0,0.0142
2798.0,0.0142
2797.0,0.0142
2796.0,0.0142
2795.0,0.0143
2794.0,0.0143
2793.0,0.0143
2792.0,0.0143
2791.0,0.0142
2790.0,0.0142
2789.0,0.0142
2788.0,0.0142
2787.0,0.0142
2786.0,0.0142
2785.0,0.0142
2784.0,0.0141
2783.0,0.0141
2782.0,0.0141
2781.0,0.014
2780.0,0.014
2779.0,0.014
2778.0,0.014
2777.0,0.014
2776.0,0.014
2775.0,0.014
2774.0,0.014
2773.0,0.0139
2772.0,0.0139
2771.0,0.0139
2770.0,0.0139
2769.0,0.0139
2768.0,0.014
2767.0,0.0141
2766.0,0.0141
2765.0,0.0141
2764.0,0.014
2763.0,0.014
2762.0,0.0139
2761.0,0.0139
2760.0,0.014
2759.0,0.014
2758.0,0.014
2757.0,0.014
2756.0,0.0139
2755.0,0.0139
2754.0,0.0139
2753.0,0.0139
2752.0,0.0139
2751.0,0.0139
2750.0,0.0139
2749.0,0.0139
2748.0,0.0139
2747.0,0.0139
2746.0,0.0139
2745.0,0.0139
2744.0,0.0138
2743.0,0.0137
2742.0,0.0137
2741.0,0.0137
2740.0,0.0137
2739.0,0.0137
2738.0,0.0137
2737.0,0.0137
2736.0,0.0137
2735.0,0.0137
2734.0,0.0136
2733.0,0.0136
2732.0,0.0136
2731.0,0.0137
2730.0,0.0137
2729.0,0.0137
2728.0,0.0136
2727.0,0.0135
2726.0,0.0135
2725.0,0.0135
2724.0,0.0135
2723.0,0.0135
2722.0,0.0135
2721.0,0.0135
2720.0,0.0135
2719.0,0.0135
2718.0,0.0135
2717.0,0.0135
2716.0,0.0135
2715.0,0.0134
2714.0,0.0134
2713.0,0.0134
2712.0,0.0134
2711.0,0.0134
2710.0,0.0134
2709.0,0.0134
2708.0,0.0133
2707.0,0.0133
2706.0,0.0133
2705.0,0.0133
2704.0,0.0133
2703.0,0.0133
2702.0,0.0133
2701.0,0.0132
2700.0,0.0132
2699.0,0.0132
2698.0,0.0132
2697.0,0.0133
2696.0,0.0133
2695.0,0.0133
2694.0,0.0133
2693.0,0.0133
2692.0,0.0133
2691.0,0.0133
2690.0,0.0134
2689.0,0.0133
2688.0,0.0133
2687.0,0.0132
2686.0,0.0132
2685.0,0.0131
2684.0,0.0131
2683.0,0.0131
2682.0,0.0131
2681.0,0.0131
2680.0,0.0131
2679.0,0.0131
2678.0,0.0131
2677.0,0.0131
2676.0,0.0131
2675.0,0.0132
2674.0,0.0132
2673.0,0.0132
2672.0,0.0132
2671.0,0.0132
2670.0,0.0132
2669.0,0.0133
2668.0,0.0132
2667.0,0.0132
2666.0,0.0131
2665.0,0.013
2664.0,0.013
2663.0,0.013
2662.0,0.013
2661.0,0.013
2660.0,0.013
2659.0,0.0129
2658.0,0.0128
2657.0,0.0128
2656.0,0.0128
2655.0,0.0128
2654.0,0.0128
2653.0,0.0128
2652.0,0.0129
2651.0,0.0129
2650.0,0.0129
2649.0,0.0129
2648.0,0.0129
2647.0,0.0129
2646.0,0.0129
2645.0,0.0129
2644.0,0.0129
2643.0,0.0129
2642.0,0.0129
2641.0,0.0129
2640.0,0.0129
2639.0,0.0129
2638.0,0.0129
2637.0,0.0129
2636.0,0.0129
2635.0,0.013
2634.0,0.013
2633.0,0.013
2632.0,0.013
2631.0,0.013
2630.0,0.013
2629.0,0.013
2628.0,0.013
2627.0,0.013
2626.0,0.013
2625.0,0.013
2624.0,0.013
2623.0,0.013
2622.0,0.013
2621.0,0.013
2620.0,0.013
2619.0,0.013
2618.0,0.013
2617.0,0.013
2616.0,0.013
2615.0,0.0129
2614.0,0.0128
2613.0,0.0128
2612.0,0.0128
2611.0,0.0129
2610.0,0.0129
2609.0,0.0129
2608.0,0.0129
2607.0,0.0129
2606.0,0.0129
2605.0,0.0128
2604.0,0.0128
2603.0,0.0129
2602.0,0.0129
2601.0,0.0129
2600.0,0.0129
2599.0,0.0129
2598.0,0.0128
2597.0,0.0128
2596.0,0.0128
2595.0,0.0128
2594.0,0.0128
2593.0,0.0128
2592.0,0.0128
2591.0,0.0128
2590.0,0.0128
2589.0,0.0128
2588.0,0.0129
2587.0,0.0129
2586.0,0.0129
2585.0,0.0129
2584.0,0.0129
2583.0,0.0129
2582.0,0.0129
2581.0,0.013
2580.0,0.013
2579.0,0.0129
2578.0,0.0129
2577.0,0.0129
2576.0,0.0129
2575.0,0.0129
2574.0,0.0129
2573.0,0.0129
2572.0,0.0128
2571.0,0.0128
2570.0,0.0128
2569.0,0.0127
2568.0,0.0127
2567.0,0.0127
2566.0,0.0128
2565.0,0.0128
2564.0,0.0128
2563.0,0.0128
2562.0,0.0128
2561.0,0.0129
2560.0,0.0129
2559.0,0.013
2558.0,0.013
2557.0,0.013
2556.0,0.0129
2555.0,0.0129
2554.0,0.0129
2553.0,0.0129
2552.0,0.0129
2551.0,0.013
2550.0,0.0129
2549.0,0.0129
2548.0,0.0128
2547.0,0.0128
2546.0,0.0128
2545.0,0.0128
2544.0,0.0128
2543.0,0.0128
2542.0,0.0128
2541.0,0.0128
2540.0,0.0127
2539.0,0.0127
2538.0,0.0127
2537.0,0.0128
2536.0,0.0128
2535.0,0.0128
2534.0,0.0128
2533.0,0.0128
2532.0,0.0128
2531.0,0.0128
2530.0,0.0128
2529.0,0.0128
2528.0,0.0128
2527.0,0.0127
2526.0,0.0127
2525.0,0.0127
2524.0,0.0128
2523.0,0.0128
2522.0,0.0127
2521.0,0.0127
2520.0,0.0126
2519.0,0.0126
2518.0,0.0126
2517.0,0.0126
2516.0,0.0126
2515.0,0.0126
2514.0,0.0126
2513.0,0.0126
2512.0,0.0126
2511.0,0.0127
2510.0,0.0127
2509.0,0.0127
2508.0,0.0127
2507.0,0.0126
2506.0,0.0126
2505.0,0.0125
2504.0,0.0125
2503.0,0.0125
2502.0,0.0125
2501.0,0.0124
2500.0,0.0124
2499.0,0.0124
2498.0,0.0124
2497.0,0.0124
2496.0,0.0123
2495.0,0.0123
2494.0,0.0123
2493.0,0.0123
2492.0,0.0123
2491.0,0.0123
2490.0,0.0124
2489.0,0.0124
2488.0,0.0124
2487.0,0.0123
2486.0,0.0123
2485.0,0.0123
2484.0,0.0122
2483.0,0.0122
2482.0,0.0121
2481.0,0.0121
2480.0,0.0121
2479.0,0.0121
2478.0,0.012
2477.0,0.012
2476.0,0.012
2475.0,0.012
2474.0,0.012
2473.0,0.012
2472.0,0.012
2471.0,0.012
2470.0,0.012
2469.0,0.0121
2468.0,0.0121
2467.0,0.0121
2466.0,0.0121
2465.0,0.012
2464.0,0.012
2463.0,0.012
2462.0,0.012
2461.0,0.012
2460.0,0.0119
2459.0,0.0119
2458.0,0.0119
2457.0,0.0118
2456.0,0.0118
2455.0,0.0117
2454.0,0.0116
2453.0,0.0115
2452.0,0.0115
2451.0,0.0115
2450.0,0.0115
2449.0,0.0116
2448.0,0.0116
2447.0,0.0116
2446.0,0.0116
2445.0,0.0116
2444.0,0.0116
2443.0,0.0117
2442.0,0.0117
2441.0,0.0117
2440.0,0.0117
2439.0,0.0117
2438.0,0.0117
2437.0,0.0117
2436.0,0.0117
2435.0,0.0117
2434.0,0.0117
2433.0,0.0117
2432.0,0.0116
2431.0,0.0116
2430.0,0.0116
2429.0,0.0116
2428.0,0.0116
2427.0,0.0117
2426.0,0.0117
2425.0,0.0118
2424.0,0.0118
2423.0,0.0118
2422.0,0.0117
2421.0,0.0117
2420.0,0.0118
2419.0,0.0118
2418.0,0.0118
2417.0,0.0118
2416.0,0.0118
2415.0,0.0118
2414.0,0.0118
2413.0,0.0119
2412.0,0.0119
2411.0,0.0119
2410.0,0.0119
2409.0,0.0118
2408.0,0.0118
2407.0,0.0118
2406.0,0.0119
2405.0,0.0119
2404.0,0.012
2403.0,0.012
2402.0,0.012
2401.0,0.012
2400.0,0.012
2399.0,0.012
2398.0,0.012
2397.0,0.012
2396.0,0.012
2395.0,0.0119
2394.0,0.0119
2393.0,0.012
2392.0,0.012
2391.0,0.012
2390.0,0.012
2389.0,0.012
2388.0,0.012
2387.0,0.012
2386.0,0.012
2385.0,0.012
2384.0,0.012
2383.0,0.012
2382.0,0.012
2381.0,0.012
2380.0,0.012
2379.0,0.0121
2378.0,0.0123
2377.0,0.0125
2376.0,0.0127
2375.0,0.0129
2374.0,0.0132
2373.0,0.0135
2372.0,0.0136
2371.0,0.0133
2370.0,0.0127
2369.0,0.0123
2368.0,0.0123
2367.0,0.0127
2366.0,0.013
2365.0,0.0126
2364.0,0.0117
2363.0,0.0114
2362.0,0.0118
2361.0,0.0128
2360.0,0.0144
2359.0,0.0154
2358.0,0.0153
2357.0,0.0138
2356.0,0.0117
2355.0,0.0106
2354.0,0.01
2353.0,0.0121
2352.0,0.0126
2351.0,0.0123
2350.0,0.0122
2349.0,0.0118
2348.0,0.0116
2347.0,0.0114
2346.0,0.0116
2345.0,0.0121
2344.0,0.0131
2343.0,0.0144
2342.0,0.0152
2341.0,0.0149
2340.0,0.0141
2339.0,0.0129
2338.0,0.0126
2337.0,0.0088
2336.0,0.0078
2335.0,0.008
2334.0,0.0079
2333.0,0.008
2332.0,0.0079
2331.0,0.0075
2330.0,0.0073
2329.0,0.007
2328.0,0.0076
2327.0,0.0084
2326.0,0.0094
2325.0,0.0099
2324.0,0.0099
2323.0,0.0101
2322.0,0.0103
2321.0,0.0109
2320.0,0.0114
2319.0,0.0117
2318.0,0.012
2317.0,0.012
2316.0,0.0119
2315.0,0.0116
2314.0,0.0113
2313.0,0.0107
2312.0,0.0105
2311.0,0.0102
2310.0,0.0101
2309.0,0.0099
2308.0,0.0098
2307.0,0.0098
2306.0,0.0099
2305.0,0.0099
2304.0,0.0099
2303.0,0.0098
2302.0,0.0098
2301.0,0.0097
2300.0,0.0098
2299.0,0.0099
2298.0,0.01
2297.0,0.0101
2296.0,0.0102
2295.0,0.0103
2294.0,0.0105
2293.0,0.0106
2292.0,0.0107
2291.0,0.0108
2290.0,0.0108
2289.0,0.0108
2288.0,0.0108
2287.0,0.0108
2286.0,0.0108
2285.0,0.0108
2284.0,0.0108
2283.0,0.0108
2282.0,0.0108
2281.0,0.0107
2280.0,0.0106
2279.0,0.0106
2278.0,0.0106
2277.0,0.0106
2276.0,0.0106
2275.0,0.0107
2274.0,0.0107
2273.0,0.0107
2272.0,0.0107
2271.0,0.0106
2270.0,0.0106
2269.0,0.0106
2268.0,0.0105
2267.0,0.0105
2266.0,0.0105
2265.0,0.0105
2264.0,0.0105
2263.0,0.0105
2262.0,0.0105
2261.0,0.0105
2260.0,0.0104
2259.0,0.0104
2258.0,0.0104
2257.0,0.0104
2256.0,0.0105
2255.0,0.0105
2254.0,0.0105
2253.0,0.0105
2252.0,0.0104
2251.0,0.0104
2250.0,0.0104
2249.0,0.0103
2248.0,0.0103
2247.0,0.0103
2246.0,0.0104
2245.0,0.0104
2244.0,0.0103
2243.0,0.0103
2242.0,0.0102
2241.0,0.0102
2240.0,0.0102
2239.0,0.0102
2238.0,0.0102
2237.0,0.0103
2236.0,0.0103
2235.0,0.0103
2234.0,0.0102
2233.0,0.0102
2232.0,0.0101
2231.0,0.0101
2230.0,0.0101
2229.0,0.01
2228.0,0.01
2227.0,0.0099
2226.0,0.0099
2225.0,0.0099
2224.0,0.0099
2223.0,0.0099
2222.0,0.0099
2221.0,0.01
2220.0,0.01
2219.0,0.01
2218.0,0.0099
2217.0,0.0099
2216.0,0.0098
2215.0,0.0098
2214.0,0.0098
2213.0,0.0098
2212.0,0.0098
2211.0,0.0098
2210.0,0.0098
2209.0,0.0097
2208.0,0.0098
2207.0,0.0098
2206.0,0.0098
2205.0,0.0097
2204.0,0.0097
2203.0,0.0096
2202.0,0.0096
2201.0,0.0096
2200.0,0.0096
2199.0,0.0096
2198.0,0.0096
2197.0,0.0096
2196.0,0.0096
2195.0,0.0096
2194.0,0.0096
2193.0,0.0096
2192.0,0.0096
2191.0,0.0096
2190.0,0.0096
2189.0,0.0095
2188.0,0.0096
2187.0,0.0096
2186.0,0.0095
2185.0,0.0095
2184.0,0.0095
2183.0,0.0095
2182.0,0.0094
2181.0,0.0094
2180.0,0.0093
2179.0,0.0093
2178.0,0.0093
2177.0,0.0094
2176.0,0.0094
2175.0,0.0094
2174.0,0.0094
2173.0,0.0094
2172.0,0.0094
2171.0,0.0094
2170.0,0.0094
2169.0,0.0094
2168.0,0.0094
2167.0,0.0094
2166.0,0.0094
2165.0,0.0095
2164.0,0.0095
2163.0,0.0095
2162.0,0.0096
2161.0,0.0095
2160.0,0.0095
2159.0,0.0095
2158.0,0.0095
2157.0,0.0095
2156.0,0.0095
2155.0,0.0095
2154.0,0.0096
2153.0,0.0096
2152.0,0.0096
2151.0,0.0096
2150.0,0.0096
2149.0,0.0096
2148.0,0.0095
2147.0,0.0095
2146.0,0.0095
2145.0,0.0095
2144.0,0.0095
2143.0,0.0095
2142.0,0.0095
2141.0,0.0095
2140.0,0.0095
2139.0,0.0096
2138.0,0.0096
2137.0,0.0096
2136.0,0.0096
2135.0,0.0096
2134.0,0.0096
2133.0,0.0096
2132.0,0.0095
2131.0,0.0095
2130.0,0.0095
2129.0,0.0095
2128.0,0.0095
2127.0,0.0094
2126.0,0.0094
2125.0,0.0094
2124.0,0.0094
2123.0,0.0094
2122.0,0.0094
2121.0,0.0094
2120.0,0.0095
2119.0,0.0095
2118.0,0.0095
2117.0,0.0094
2116.0,0.0094
2115.0,0.0094
2114.0,0.0094
2113.0,0.0094
2112.0,0.0094
2111.0,0.0095
2110.0,0.0095
2109.0,0.0095
2108.0,0.0094
2107.0,0.0093
2106.0,0.0093
2105.0,0.0092
2104.0,0.0092
2103.0,0.0091
2102.0,0.0092
2101.0,0.0092
2100.0,0.0092
2099.0,0.0092
2098.0,0.0092
2097.0,0.0091
2096.0,0.009
2095.0,0.009
2094.0,0.009
2093.0,0.009
2092.0,0.009
2091.0,0.0089
2090.0,0.0089
2089.0,0.0089
2088.0,0.0088
2087.0,0.0088
2086.0,0.0089
2085.0,0.0089
2084.0,0.0088
2083.0,0.0088
2082.0,0.0087
2081.0,0.0086
2080.0,0.0086
2079.0,0.0086
2078.0,0.0086
2077.0,0.0086
2076.0,0.0086
2075.0,0.0087
2074.0,0.0087
2073.0,0.0086
2072.0,0.0085
2071.0,0.0084
2070.0,0.0083
2069.0,0.0083
2068.0,0.0082
2067.0,0.0082
2066.0,0.0082
2065.0,0.0082
2064.0,0.0082
2063.0,0.0081
2062.0,0.008
2061.0,0.008
2060.0,0.0079
2059.0,0.0079
2058.0,0.0079
2057.0,0.0078
2056.0,0.0078
2055.0,0.0078
2054.0,0.0078
2053.0,0.0078
2052.0,0.0077
2051.0,0.0077
2050.0,0.0077
2049.0,0.0077
2048.0,0.0076
2047.0,0.0075
2046.0,0.0075
2045.0,0.0074
2044.0,0.0074
2043.0,0.0074
2042.0,0.0074
2041.0,0.0074
2040.0,0.0074
2039.0,0.0074
2038.0,0.0073
2037.0,0.0073
2036.0,0.0073
2035.0,0.0072
2034.0,0.0072
2033.0,0.0072
2032.0,0.0072
2031.0,0.0072
2030.0,0.0071
2029.0,0.007
2028.0,0.007
2027.0,0.007
2026.0,0.0071
2025.0,0.0071
2024.0,0.0071
2023.0,0.007
2022.0,0.007
2021.0,0.007
2020.0,0.007
2019.0,0.007
2018.0,0.007
2017.0,0.007
2016.0,0.007
2015.0,0.007
2014.0,0.0069
2013.0,0.0069
2012.0,0.0068
2011.0,0.0068
2010.0,0.0069
2009.0,0.0069
2008.0,0.007
2007.0,0.007
2006.0,0.007
2005.0,0.007
2004.0,0.007
2003.0,0.007
2002.0,0.007
2001.0,0.007
2000.0,0.007
1999.0,0.0071
1998.0,0.0071
1997.0,0.0071
1996.0,0.0071
1995.0,0.0071
1994.0,0.0071
1993.0,0.0071
1992.0,0.0072
1991.0,0.0072
1990.0,0.0073
1989.0,0.0072
1988.0,0.0072
1987.0,0.0072
1986.0,0.0072
1985.0,0.0072
1984.0,0.0071
1983.0,0.0072
1982.0,0.0072
1981.0,0.0072
1980.0,0.0072
1979.0,0.0072
1978.0,0.0072
1977.0,0.0072
1976.0,0.0072
1975.0,0.0073
1974.0,0.0073
1973.0,0.0073
1972.0,0.0073
1971.0,0.0074
1970.0,0.0074
1969.0,0.0074
1968.0,0.0074
1967.0,0.0075
1966.0,0.0075
1965.0,0.0075
1964.0,0.0076
1963.0,0.0076
1962.0,0.0077
1961.0,0.0078
1960.0,0.0078
1959.0,0.0079
1958.0,0.008
1957.0,0.008
1956.0,0.0081
1955.0,0.0081
1954.0,0.0082
1953.0,0.0081
1952.0,0.0081
1951.0,0.0081
1950.0,0.0081
1949.0,0.0081
1948.0,0.0081
1947.0,0.0081
1946.0,0.0081
1945.0,0.008
1944.0,0.008
1943.0,0.0079
1942.0,0.0079
1941.0,0.0078
1940.0,0.0077
1939.0,0.0075
1938.0,0.0074
1937.0,0.0072
1936.0,0.007
1935.0,0.0069
1934.0,0.0069
1933.0,0.0068
1932.0,0.0067
1931.0,0.0066
1930.0,0.0065
1929.0,0.0064
1928.0,0.0063
1927.0,0.0062
1926.0,0.006
1925.0,0.0059
1924.0,0.0058
1923.0,0.0058
1922.0,0.0057
1921.0,0.0057
1920.0,0.0056
1919.0,0.0055
1918.0,0.0055
1917.0,0.0053
1916.0,0.0052
1915.0,0.0051
1914.0,0.005
1913.0,0.0048
1912.0,0.0047
1911.0,0.0046
1910.0,0.0046
1909.0,0.0045
1908.0,0.0044
1907.0,0.0043
1906.0,0.0043
1905.0,0.0042
1904.0,0.0041
1903.0,0.004
1902.0,0.004
1901.0,0.0039
1900.0,0.0037
1899.0,0.0036
1898.0,0.0035
1897.0,0.0034
1896.0,0.0033
1895.0,0.0032
1894.0,0.0032
1893.0,0.0032
1892.0,0.0031
1891.0,0.0031
1890.0,0.003
1889.0,0.0028
1888.0,0.0026
1887.0,0.0025
1886.0,0.0024
1885.0,0.0023
1884.0,0.0022
1883.0,0.0022
1882.0,0.0022
1881.0,0.0021
1880.0,0.002
1879.0,0.0019
1878.0,0.0019
1877.0,0.0018
1876.0,0.0017
1875.0,0.0016
1874.0,0.0016
1873.0,0.0015
1872.0,0.0015
1871.0,0.0015
1870.0,0.0014
1869.0,0.0013
1868.0,0.0012
1867.0,0.0011
1866.0,0.0011
1865.0,0.001
1864.0,0.0009
1863.0,0.0008
1862.0,0.0008
1861.0,0.0007
1860.0,0.0006
1859.0,0.0006
1858.0,0.0006
1857.0,0.0006
1856.0,0.0005
1855.0,0.0005
1854.0,0.0005
1853.0,0.0004
1852.0,0.0003
1851.0,0.0003
1850.0,0.0003
1849.0,0.0003
1848.0,0.0003
1847.0,0.0004
1846.0,0.0005
1845.0,0.0005
1844.0,0.0004
1843.0,0.0005
1842.0,0.0005
1841.0,0.0005
1840.0,0.0004
1839.0,0.0003
1838.0,0.0002
1837.0,0.0001
1836.0,0.0001
1835.0,0.0001
1834.0,0.0001
1833.0,0.0002
1832.0,0.0003
1831.0,0.0004
1830.0,0.0004
1829.0,0.0003
1828.0,0.0002
1827.0,0.0002
1826.0,0.0002
1825.0,0.0001
1824.0,0.0
1823.0,-0.0001
1822.0,-0.0002
1821.0,-0.0003
1820.0,-0.0005
1819.0,-0.0006
1818.0,-0.0006
1817.0,-0.0008
1816.0,-0.0009
1815.0,-0.001
1814.0,-0.0011
1813.0,-0.0013
1812.0,-0.0015
1811.0,-0.0016
1810.0,-0.0018
1809.0,-0.0019
1808.0,-0.0021
1807.0,-0.0022
1806.0,-0.0023
1805.0,-0.0024
1804.0,-0.0026
1803.0,-0.0026
1802.0,-0.0028
1801.0,-0.003
1800.0,-0.0032
1799.0,-0.0034
1798.0,-0.0035
1797.0,-0.0036
1796.0,-0.0037
1795.0,-0.0037
1794.0,-0.0038
1793.0,-0.004
1792.0,-0.0042
1791.0,-0.0043
1790.0,-0.0044
1789.0,-0.0045
1788.0,-0.0047
1787.0,-0.0048
1786.0,-0.0048
1785.0,-0.005
1784.0,-0.0051
1783.0,-0.0052
1782.0,-0.0053
1781.0,-0.0055
1780.0,-0.0057
1779.0,-0.0057
1778.0,-0.0057
1777.0,-0.0057
1776.0,-0.0057
1775.0,-0.0056
1774.0,-0.0056
1773.0,-0.0058
1772.0,-0.006
1771.0,-0.0059
1770.0,-0.0055
1769.0,-0.0053
1768.0,-0.0053
1767.0,-0.0052
1766.0,-0.0051
1765.0,-0.0049
1764.0,-0.0047
1763.0,-0.0043
1762.0,-0.0038
1761.0,-0.0035
1760.0,-0.0031
1759.0,-0.0025
1758.0,-0.0017
1757.0,-0.0009
1756.0,-0.0002
1755.0,0.0008
1754.0,0.0019
1753.0,0.003
1752.0,0.0044
1751.0,0.0065
1750.0,0.0091
1749.0,0.0119
1748.0,0.015
1747.0,0.0185
1746.0,0.0224
1745.0,0.0269
1744.0,0.0322
1743.0,0.0383
1742.0,0.0449
1741.0,0.0525
1740.0,0.0617
1739.0,0.0714
1738.0,0.0792
1737.0,0.0854
1736.0,0.0922
1735.0,0.1038
1734.0,0.1196
1733.0,0.1325
1732.0,0.1415
1731.0,0.1504
1730.0,0.1606
1729.0,0.171
1728.0,0.1806
1727.0,0.1896
1726.0,0.1986
1725.0,0.2081
1724.0,0.218
1723.0,0.2275
1722.0,0.2354
1721.0,0.2411
1720.0,0.2456
1719.0,0.2514
1718.0,0.2595
1717.0,0.2664
1716.0,0.2692
1715.0,0.2694
1714.0,0.2677
1713.0,0.2637
1712.0,0.2573
1711.0,0.2491
1710.0,0.2398
1709.0,0.2296
1708.0,0.2185
1707.0,0.2059
1706.0,0.192
1705.0,0.1794
1704.0,0.1701
1703.0,0.1628
1702.0,0.1549
1701.0,0.1445
1700.0,0.1337
1699.0,0.1265
1698.0,0.1216
1697.0,0.1164
1696.0,0.1103
1695.0,0.1049
1694.0,0.1013
1693.0,0.0986
1692.0,0.0959
1691.0,0.0929
1690.0,0.0899
1689.0,0.0876
1688.0,0.0857
1687.0,0.0838
1686.0,0.0814
1685.0,0.0791
1684.0,0.0774
1683.0,0.076
1682.0,0.0748
1681.0,0.0734
1680.0,0.0719
1679.0,0.0703
1678.0,0.0688
1677.0,0.0673
1676.0,0.0656
1675.0,0.0639
1674.0,0.0624
1673.0,0.0611
1672.0,0.0599
1671.0,0.0584
1670.0,0.0569
1669.0,0.0557
1668.0,0.0547
1667.0,0.0536
1666.0,0.0525
1665.0,0.0514
1664.0,0.0502
1663.0,0.049
1662.0,0.0479
1661.0,0.047
1660.0,0.0461
1659.0,0.0452
1658.0,0.0443
1657.0,0.0436
1656.0,0.0429
1655.0,0.042
1654.0,0.0412
1653.0,0.0406
1652.0,0.0399
1651.0,0.0394
1650.0,0.039
1649.0,0.0386
1648.0,0.0382
1647.0,0.0379
1646.0,0.0376
1645.0,0.0372
1644.0,0.0367
1643.0,0.0362
1642.0,0.0357
1641.0,0.0352
1640.0,0.0348
1639.0,0.0344
1638.0,0.0339
1637.0,0.0336
1636.0,0.0336
1635.0,0.0335
1634.0,0.0332
1633.0,0.0329
1632.0,0.0326
1631.0,0.0322
1630.0,0.0318
1629.0,0.0314
1628.0,0.0312
1627.0,0.0309
1626.0,0.0306
1625.0,0.0304
1624.0,0.0303
1623.0,0.0302
1622.0,0.0301
1621.0,0.03
1620.0,0.0299
1619.0,0.0299
1618.0,0.0301
1617.0,0.0309
1616.0,0.0318
1615.0,0.0323
1614.0,0.0325
1613.0,0.0324
1612.0,0.032
1611.0,0.0314
1610.0,0.0308
1609.0,0.0301
1608.0,0.0295
1607.0,0.0288
1606.0,0.0281
1605.0,0.0274
1604.0,0.0267
1603.0,0.0261
1602.0,0.0255
1601.0,0.0249
1600.0,0.0244
1599.0,0.0239
1598.0,0.0235
1597.0,0.0231
1596.0,0.0228
1595.0,0.0225
1594.0,0.0223
1593.0,0.0222
1592.0,0.022
1591.0,0.0219
1590.0,0.0218
1589.0,0.0219
1588.0,0.0221
1587.0,0.0224
1586.0,0.0231
1585.0,0.0241
1584.0,0.0256
1583.0,0.0275
1582.0,0.0296
1581.0,0.0316
1580.0,0.0333
1579.0,0.0345
1578.0,0.0348
1577.0,0.034
1576.0,0.0326
1575.0,0.031
1574.0,0.0298
1573.0,0.0288
1572.0,0.0277
1571.0,0.0265
1570.0,0.0252
1569.0,0.0241
1568.0,0.0234
1567.0,0.0228
1566.0,0.0222
1565.0,0.0216
1564.0,0.0211
1563.0,0.0208
1562.0,0.0206
1561.0,0.0201
1560.0,0.0197
1559.0,0.0196
1558.0,0.0194
1557.0,0.0191
1556.0,0.019
1555.0,0.0187
1554.0,0.0184
1553.0,0.018
1552.0,0.0178
1551.0,0.0175
1550.0,0.0173
1549.0,0.017
1548.0,0.0167
1547.0,0.0165
1546.0,0.0162
1545.0,0.0161
1544.0,0.016
1543.0,0.0158
1542.0,0.0155
1541.0,0.0153
1540.0,0.0152
1539.0,0.015
1538.0,0.0148
1537.0,0.0148
1536.0,0.0149
1535.0,0.0148
1534.0,0.0149
1533.0,0.0152
1532.0,0.0153
1531.0,0.0152
1530.0,0.0151
1529.0,0.0151
1528.0,0.0151
1527.0,0.0151
1526.0,0.015
1525.0,0.0149
1524.0,0.0148
1523.0,0.0146
1522.0,0.0143
1521.0,0.0141
1520.0,0.0139
1519.0,0.0137
1518.0,0.0135
1517.0,0.0135
1516.0,0.0135
1515.0,0.0136
1514.0,0.0136
1513.0,0.0139
1512.0,0.0144
1511.0,0.0152
1510.0,0.0163
1509.0,0.0179
1508.0,0.0219
1507.0,0.029
1506.0,0.0339
1505.0,0.0347
1504.0,0.0334
1503.0,0.0311
1502.0,0.0282
1501.0,0.025
1500.0,0.022
1499.0,0.0192
1498.0,0.0168
1497.0,0.0148
1496.0,0.0133
1495.0,0.0122
1494.0,0.0114
1493.0,0.0109
1492.0,0.0106
1491.0,0.0103
1490.0,0.01
1489.0,0.0098
1488.0,0.0097
1487.0,0.0096
1486.0,0.0094
1485.0,0.0093
1484.0,0.0093
1483.0,0.0094
1482.0,0.0095
1481.0,0.0097
1480.0,0.0099
1479.0,0.0101
1478.0,0.0103
1477.0,0.0105
1476.0,0.0109
1475.0,0.011
1474.0,0.0112
1473.0,0.0116
1472.0,0.0121
1471.0,0.0124
1470.0,0.0126
1469.0,0.0131
1468.0,0.0137
1467.0,0.0146
1466.0,0.016
1465.0,0.018
1464.0,0.0201
1463.0,0.0219
1462.0,0.0233
1461.0,0.0247
1460.0,0.0263
1459.0,0.0281
1458.0,0.0308
1457.0,0.0341
1456.0,0.0361
1455.0,0.0368
1454.0,0.0372
1453.0,0.0375
1452.0,0.0375
1451.0,0.0374
1450.0,0.0371
1449.0,0.0369
1448.0,0.0367
1447.0,0.0364
1446.0,0.0362
1445.0,0.036
1444.0,0.0359
1443.0,0.0357
1442.0,0.0355
1441.0,0.0352
1440.0,0.0348
1439.0,0.0342
1438.0,0.0331
1437.0,0.0315
1436.0,0.0294
1435.0,0.0273
1434.0,0.0254
1433.0,0.0234
1432.0,0.0212
1431.0,0.019
1430.0,0.0168
1429.0,0.015
1428.0,0.0135
1427.0,0.0124
1426.0,0.0115
1425.0,0.0108
1424.0,0.0103
1423.0,0.0103
1422.0,0.0105
1421.0,0.0112
1420.0,0.0127
1419.0,0.0156
1418.0,0.0193
1417.0,0.0238
1416.0,0.0294
1415.0,0.0364
1414.0,0.0452
1413.0,0.0558
1412.0,0.0674
1411.0,0.0781
1410.0,0.0859
1409.0,0.0901
1408.0,0.0905
1407.0,0.0873
1406.0,0.0814
1405.0,0.0743
1404.0,0.0677
1403.0,0.0624
1402.0,0.0581
1401.0,0.0544
1400.0,0.0507
1399.0,0.0472
1398.0,0.0443
1397.0,0.042
1396.0,0.0398
1395.0,0.0374
1394.0,0.0352
1393.0,0.0333
1392.0,0.0316
1391.0,0.0301
1390.0,0.0286
1389.0,0.0273
1388.0,0.0261
1387.0,0.0251
1386.0,0.0244
1385.0,0.024
1384.0,0.024
1383.0,0.0243
1382.0,0.0249
1381.0,0.0259
1380.0,0.0272
1379.0,0.0287
1378.0,0.0304
1377.0,0.0321
1376.0,0.0342
1375.0,0.0366
1374.0,0.039
1373.0,0.041
1372.0,0.0423
1371.0,0.0429
1370.0,0.0428
1369.0,0.042
1368.0,0.0402
1367.0,0.0377
1366.0,0.0347
1365.0,0.0313
1364.0,0.0274
1363.0,0.0233
1362.0,0.0196
1361.0,0.0167
1360.0,0.0145
1359.0,0.0128
1358.0,0.0114
1357.0,0.0103
1356.0,0.0095
1355.0,0.009
1354.0,0.0086
1353.0,0.0085
1352.0,0.0086
1351.0,0.009
1350.0,0.0096
1349.0,0.0106
1348.0,0.0118
1347.0,0.0132
1346.0,0.0148
1345.0,0.0166
1344.0,0.0184
1343.0,0.02
1342.0,0.0214
1341.0,0.0224
1340.0,0.0229
1339.0,0.0225
1338.0,0.0212
1337.0,0.0194
1336.0,0.0173
1335.0,0.0152
1334.0,0.0132
1333.0,0.0117
1332.0,0.0107
1331.0,0.0101
1330.0,0.0099
1329.0,0.0102
1328.0,0.0108
1327.0,0.0117
1326.0,0.0128
1325.0,0.0141
1324.0,0.0156
1323.0,0.0172
1322.0,0.0188
1321.0,0.0205
1320.0,0.0222
1319.0,0.0239
1318.0,0.0255
1317.0,0.0272
1316.0,0.0288
1315.0,0.0306
1314.0,0.0325
1313.0,0.0346
1312.0,0.0369
1311.0,0.0393
1310.0,0.0417
1309.0,0.0444
1308.0,0.0471
1307.0,0.0497
1306.0,0.0523
1305.0,0.0548
1304.0,0.0576
1303.0,0.0607
1302.0,0.0644
1301.0,0.0687
1300.0,0.0738
1299.0,0.0795
1298.0,0.0856
1297.0,0.0921
1296.0,0.0988
1295.0,0.1055
1294.0,0.1121
1293.0,0.1185
1292.0,0.1248
1291.0,0.1308
1290.0,0.1365
1289.0,0.1419
1288.0,0.1471
1287.0,0.1518
1286.0,0.156
1285.0,0.1598
1284.0,0.1632
1283.0,0.1661
1282.0,0.1685
1281.0,0.1706
1280.0,0.1724
1279.0,0.174
1278.0,0.1755
1277.0,0.1772
1276.0,0.1793
1275.0,0.182
1274.0,0.1855
1273.0,0.1902
1272.0,0.1963
1271.0,0.2035
1270.0,0.2116
1269.0,0.2205
1268.0,0.2299
1267.0,0.2394
1266.0,0.2486
1265.0,0.2576
1264.0,0.266
1263.0,0.2735
1262.0,0.2798
1261.0,0.2849
1260.0,0.2889
1259.0,0.2913
1258.0,0.2924
1257.0,0.293
1256.0,0.2934
1255.0,0.2939
1254.0,0.2947
1253.0,0.2964
1252.0,0.299
1251.0,0.3022
1250.0,0.3059
1249.0,0.3101
1248.0,0.315
1247.0,0.32
1246.0,0.3249
1245.0,0.3299
1244.0,0.3349
1243.0,0.3391
1242.0,0.3423
1241.0,0.3445
1240.0,0.3455
1239.0,0.3446
1238.0,0.3416
1237.0,0.3366
1236.0,0.3298
1235.0,0.3209
1234.0,0.3103
1233.0,0.2989
1232.0,0.2871
1231.0,0.2751
1230.0,0.2631
1229.0,0.2518
1228.0,0.241
1227.0,0.2307
1226.0,0.2207
1225.0,0.2112
1224.0,0.2023
1223.0,0.1936
1222.0,0.1854
1221.0,0.1776
1220.0,0.1704
1219.0,0.1637
1218.0,0.1573
1217.0,0.1514
1216.0,0.146
1215.0,0.1409
1214.0,0.1361
1213.0,0.1316
1212.0,0.1275
1211.0,0.1236
1210.0,0.12
1209.0,0.1166
1208.0,0.1135
1207.0,0.1104
1206.0,0.1075
1205.0,0.1048
1204.0,0.1023
1203.0,0.0999
1202.0,0.0976
1201.0,0.0953
1200.0,0.0932
1199.0,0.0911
1198.0,0.0891
1197.0,0.0871
1196.0,0.0852
1195.0,0.0834
1194.0,0.0816
1193.0,0.0798
1192.0,0.0781
1191.0,0.0765
1190.0,0.0751
1189.0,0.0738
1188.0,0.0728
1187.0,0.072
1186.0,0.0714
1185.0,0.071
1184.0,0.071
1183.0,0.0713
1182.0,0.0719
1181.0,0.0728
1180.0,0.074
1179.0,0.0754
1178.0,0.0766
1177.0,0.0777
1176.0,0.0786
1175.0,0.079
1174.0,0.0788
1173.0,0.0781
1172.0,0.0767
1171.0,0.0747
1170.0,0.0722
1169.0,0.0695
1168.0,0.0665
1167.0,0.0637
1166.0,0.061
1165.0,0.0587
1164.0,0.0567
1163.0,0.0551
1162.0,0.0537
1161.0,0.0526
1160.0,0.0517
1159.0,0.051
1158.0,0.0505
1157.0,0.0504
1156.0,0.0507
1155.0,0.0513
1154.0,0.0524
1153.0,0.054
1152.0,0.056
1151.0,0.0585
1150.0,0.0615
1149.0,0.0649
1148.0,0.0689
1147.0,0.0732
1146.0,0.0779
1145.0,0.0828
1144.0,0.0879
1143.0,0.0931
1142.0,0.0982
1141.0,0.1031
1140.0,0.1078
1139.0,0.1121
1138.0,0.116
1137.0,0.1196
1136.0,0.123
1135.0,0.1262
1134.0,0.1292
1133.0,0.1321
1132.0,0.1353
1131.0,0.1387
1130.0,0.1425
1129.0,0.1469
1128.0,0.1521
1127.0,0.1579
1126.0,0.1642
1125.0,0.1712
1124.0,0.1787
1123.0,0.1862
1122.0,0.1934
1121.0,0.2
1120.0,0.2057
1119.0,0.2101
1118.0,0.2126
1117.0,0.2135
1116.0,0.2127
1115.0,0.2103
1114.0,0.2071
1113.0,0.2038
1112.0,0.2013
1111.0,0.2003
1110.0,0.2012
1109.0,0.2045
1108.0,0.2103
1107.0,0.2179
1106.0,0.2271
1105.0,0.2376
1104.0,0.2493
1103.0,0.2617
1102.0,0.2742
1101.0,0.2867
1100.0,0.2989
1099.0,0.31
1098.0,0.3196
1097.0,0.3277
1096.0,0.3343
1095.0,0.339
1094.0,0.3416
1093.0,0.3424
1092.0,0.3416
1091.0,0.3388
1090.0,0.3343
1089.0,0.3288
1088.0,0.3227
1087.0,0.3158
1086.0,0.3084
1085.0,0.3007
1084.0,0.2929
1083.0,0.2845
1082.0,0.2755
1081.0,0.2662
1080.0,0.2564
1079.0,0.2463
1078.0,0.2359
1077.0,0.2257
1076.0,0.2159
1075.0,0.2063
1074.0,0.1971
1073.0,0.1884
1072.0,0.1803
1071.0,0.1727
1070.0,0.1656
1069.0,0.1592
1068.0,0.1535
1067.0,0.1482
1066.0,0.1434
1065.0,0.139
1064.0,0.1351
1063.0,0.1315
1062.0,0.1282
1061.0,0.1254
1060.0,0.1232
1059.0,0.1216
1058.0,0.1205
1057.0,0.1201
1056.0,0.1204
1055.0,0.1213
1054.0,0.1226
1053.0,0.1246
1052.0,0.1269
1051.0,0.1296
1050.0,0.1323
1049.0,0.1353
1048.0,0.1384
1047.0,0.1414
1046.0,0.144
1045.0,0.1463
1044.0,0.1482
1043.0,0.1495
1042.0,0.1501
1041.0,0.1502
1040.0,0.1497
1039.0,0.1487
1038.0,0.1472
1037.0,0.1455
1036.0,0.1437
1035.0,0.1419
1034.0,0.1402
1033.0,0.1386
1032.0,0.1371
1031.0,0.1355
1030.0,0.1338
1029.0,0.1322
1028.0,0.1306
1027.0,0.1293
1026.0,0.1285
1025.0,0.1291
1024.0,0.1319
1023.0,0.1377
1022.0,0.1472
1021.0,0.1608
1020.0,0.1776
1019.0,0.1958
1018.0,0.2121
1017.0,0.2228
1016.0,0.2254
1015.0,0.219
1014.0,0.2058
1013.0,0.1896
1012.0,0.1738
1011.0,0.1601
1010.0,0.1489
1009.0,0.14
1008.0,0.1327
1007.0,0.1267
1006.0,0.1216
1005.0,0.1175
1004.0,0.114
1003.0,0.1111
1002.0,0.1085
1001.0,0.1061
1000.0,0.1041
999.0,0.1022
998.0,0.1006
997.0,0.0991
996.0,0.0978
995.0,0.0966
994.0,0.0954
993.0,0.0944
992.0,0.0935
991.0,0.0928
990.0,0.0922
989.0,0.0917
988.0,0.0912
987.0,0.0908
986.0,0.0904
985.0,0.09
984.0,0.0899
983.0,0.0898
982.0,0.0897
981.0,0.0896
980.0,0.0896
979.0,0.0896
978.0,0.0895
977.0,0.0895
976.0,0.0894
975.0,0.0892
974.0,0.0889
973.0,0.0887
972.0,0.0884
971.0,0.0879
970.0,0.0873
969.0,0.0865
968.0,0.0856
967.0,0.0846
966.0,0.0835
965.0,0.0824
964.0,0.0813
963.0,0.0803
962.0,0.0792
961.0,0.0783
960.0,0.0774
959.0,0.0766
958.0,0.0757
957.0,0.075
956.0,0.0744
955.0,0.0738
954.0,0.0732
953.0,0.0727
952.0,0.0722
951.0,0.0716
950.0,0.0711
949.0,0.0706
948.0,0.0703
947.0,0.0699
946.0,0.0696
945.0,0.0693
944.0,0.069
943.0,0.0687
942.0,0.0685
941.0,0.0683
940.0,0.0681
939.0,0.0678
938.0,0.0674
937.0,0.0672
936.0,0.0671
935.0,0.0669
934.0,0.0666
933.0,0.0662
932.0,0.0659
931.0,0.0655
930.0,0.0652
929.0,0.0649
928.0,0.0647
927.0,0.0644
926.0,0.064
925.0,0.0636
924.0,0.0631
923.0,0.0627
922.0,0.0622
921.0,0.0619
920.0,0.0617
919.0,0.0615
918.0,0.0614
917.0,0.0613
916.0,0.0613
915.0,0.0615
914.0,0.0619
913.0,0.0626
912.0,0.0634
911.0,0.0643
910.0,0.0656
909.0,0.0672
908.0,0.0691
907.0,0.0714
906.0,0.0739
905.0,0.0765
904.0,0.0792
903.0,0.0817
902.0,0.084
901.0,0.086
900.0,0.0877
899.0,0.0892
898.0,0.0902
897.0,0.0911
896.0,0.0917
895.0,0.0921
894.0,0.0923
893.0,0.0924
892.0,0.0924
891.0,0.0925
890.0,0.0927
889.0,0.0932
888.0,0.094
887.0,0.095
886.0,0.0961
885.0,0.0976
884.0,0.0995
883.0,0.1018
882.0,0.1048
881.0,0.1084
880.0,0.1128
879.0,0.1178
878.0,0.1231
877.0,0.1286
876.0,0.1341
875.0,0.1389
874.0,0.1425
873.0,0.1445
872.0,0.1445
871.0,0.1423
870.0,0.1381
869.0,0.1326
868.0,0.1265
867.0,0.1205
866.0,0.1148
865.0,0.1098
864.0,0.1055
863.0,0.1018
862.0,0.0988
861.0,0.0965
860.0,0.0948
859.0,0.0934
858.0,0.0924
857.0,0.0918
856.0,0.0916
855.0,0.0916
854.0,0.0917
853.0,0.0916
852.0,0.0916
851.0,0.0914
850.0,0.0911
849.0,0.091
848.0,0.091
847.0,0.0911
846.0,0.0912
845.0,0.0914
844.0,0.0918
843.0,0.0921
842.0,0.0923
841.0,0.0923
840.0,0.0922
839.0,0.0919
838.0,0.0914
837.0,0.0907
836.0,0.0899
835.0,0.0889
834.0,0.0878
833.0,0.0868
832.0,0.0857
831.0,0.0847
830.0,0.0837
829.0,0.0829
828.0,0.0823
827.0,0.0817
826.0,0.0811
825.0,0.0805
824.0,0.0799
823.0,0.0795
822.0,0.0791
821.0,0.0787
820.0,0.0785
819.0,0.0782
818.0,0.078
817.0,0.0779
816.0,0.0778
815.0,0.0778
814.0,0.0778
813.0,0.0779
812.0,0.0779
811.0,0.0779
810.0,0.0778
809.0,0.0776
808.0,0.0776
807.0,0.0775
806.0,0.0772
805.0,0.0768
804.0,0.0763
803.0,0.0757
802.0,0.0751
801.0,0.0745
800.0,0.0743
799.0,0.0748
798.0,0.0765
797.0,0.0795
796.0,0.0833
795.0,0.087
794.0,0.0896
793.0,0.0906
792.0,0.09
791.0,0.0879
790.0,0.0849
789.0,0.0815
788.0,0.0781
787.0,0.0748
786.0,0.0718
785.0,0.0692
784.0,0.0671
783.0,0.0653
782.0,0.0637
781.0,0.0623
780.0,0.0612
779.0,0.0599
778.0,0.0588
777.0,0.0577
776.0,0.0569
775.0,0.0559
774.0,0.0548
773.0,0.0536
772.0,0.0525
771.0,0.0514
770.0,0.0504
769.0,0.0494
768.0,0.0483
767.0,0.0472
766.0,0.0461
765.0,0.0452
764.0,0.0442
763.0,0.043
762.0,0.0417
761.0,0.0405
760.0,0.0394
759.0,0.0385
758.0,0.0376
757.0,0.0367
756.0,0.0358
755.0,0.0347
754.0,0.0335
753.0,0.0324
752.0,0.0313
751.0,0.03
750.0,0.0287
749.0,0.0278
748.0,0.0273
747.0,0.0273
746.0,0.0278
745.0,0.0291
744.0,0.0318
743.0,0.0361
742.0,0.0426
741.0,0.052
740.0,0.0643
739.0,0.0794
738.0,0.0969
737.0,0.1164
736.0,0.1373
735.0,0.1589
734.0,0.1809
733.0,0.204
732.0,0.2287
731.0,0.2552
730.0,0.2839
729.0,0.3155
728.0,0.3498
727.0,0.3845
726.0,0.4156
725.0,0.4381
724.0,0.4465
723.0,0.4371
722.0,0.4109
721.0,0.3738
720.0,0.3338
719.0,0.2978
718.0,0.2682
717.0,0.2443
716.0,0.225
715.0,0.2094
714.0,0.1974
713.0,0.1884
712.0,0.1816
711.0,0.1761
710.0,0.1711
709.0,0.1665
708.0,0.1621
707.0,0.1578
706.0,0.1537
705.0,0.1502
704.0,0.147
703.0,0.1436
702.0,0.1395
701.0,0.1351
700.0,0.1307
699.0,0.1263
698.0,0.1219
697.0,0.1177
696.0,0.1145
695.0,0.112
694.0,0.11
693.0,0.1082
692.0,0.1062
691.0,0.1042
690.0,0.1024
689.0,0.1012
688.0,0.1006
687.0,0.1002
686.0,0.0996
685.0,0.099
684.0,0.0986
683.0,0.0989
682.0,0.0996
681.0,0.1004
680.0,0.1006
679.0,0.0999
678.0,0.0985
677.0,0.0966
676.0,0.0949
675.0,0.0934
674.0,0.0922
673.0,0.0914
672.0,0.0914
671.0,0.0917
670.0,0.0916
669.0,0.0913
668.0,0.091
667.0,0.0904
666.0,0.0896
665.0,0.0881
664.0,0.0862
663.0,0.0844
662.0,0.0834
661.0,0.0831
660.0,0.083
659.0,0.0827
658.0,0.0827
657.0,0.083
656.0,0.0834
655.0,0.0834
654.0,0.0829
653.0,0.0821
652.0,0.0814
651.0,0.0804
650.0,0.0794
649.0,0.0785
648.0,0.078
647.0,0.0775
646.0,0.077
645.0,0.0766
644.0,0.0765
643.0,0.0765
642.0,0.0767
641.0,0.0772
640.0,0.0778
639.0,0.0784
638.0,0.0789
637.0,0.0798
636.0,0.0813
635.0,0.0829
634.0,0.0846
633.0,0.0862
632.0,0.087
631.0,0.0862
630.0,0.0841
629.0,0.0818
628.0,0.0801
627.0,0.0789
626.0,0.0779
625.0,0.0775
624.0,0.0774
623.0,0.0774
622.0,0.0771
621.0,0.0767
620.0,0.0764
619.0,0.076
618.0,0.0755
617.0,0.0756
616.0,0.0762
615.0,0.0767
614.0,0.077
613.0,0.0772
612.0,0.0776
611.0,0.0776
610.0,0.0768
609.0,0.0757
608.0,0.0752
607.0,0.0752
606.0,0.0751
605.0,0.0745
604.0,0.0735
603.0,0.0724
602.0,0.0715
601.0,0.0715
600.0,0.0722
