cm-1,A
4000.0,0.0062
3999.0,0.0062
3998.0,0.0062
3997.0,0.0061
3996.0,0.0061
3995.0,0.0061
3994.0,0.006
3993.0,0.006
3992.0,0.0061
3991.0,0.0061
3990.0,0.0061
3989.0,0.0061
3988.0,0.0061
3987.0,0.006
3986.0,0.006
3985.0,0.006
3984.0,0.0061
3983.0,0.0061
3982.0,0.0061
3981.0,0.006
3980.0,0.006
3979.0,0.006
3978.0,0.006
3977.0,0.0061
3976.0,0.0061
3975.0,0.0061
3974.0,0.0062
3973.0,0.0062
3972.0,0.0063
3971.0,0.0064
3970.0,0.0064
3969.0,0.0064
3968.0,0.0064
3967.0,0.0064
3966.0,0.0064
3965.0,0.0064
3964.0,0.0064
3963.0,0.0064
3962.0,0.0064
3961.0,0.0064
3960.0,0.0063
3959.0,0.0063
3958.0,0.0062
3957.0,0.0062
3956.0,0.0061
3955.0,0.0062
3954.0,0.0062
3953.0,0.0062
3952.0,0.0062
3951.0,0.0062
3950.0,0.0062
3949.0,0.0063
3948.0,0.0063
3947.0,0.0063
3946.0,0.0063
3945.0,0.0064
3944.0,0.0064
3943.0,0.0064
3942.0,0.0064
3941.0,0.0063
3940.0,0.0063
3939.0,0.0063
3938.0,0.0062
3937.0,0.0062
3936.0,0.0062
3935.0,0.0062
3934.0,0.0062
3933.0,0.0062
3932.0,0.0063
3931.0,0.0063
3930.0,0.0064
3929.0,0.0064
3928.0,0.0064
3927.0,0.0064
3926.0,0.0063
3925.0,0.0062
3924.0,0.0061
3923.0,0.0062
3922.0,0.0062
3921.0,0.0063
3920.0,0.0065
3919.0,0.0066
3918.0,0.0067
3917.0,0.0067
3916.0,0.0066
3915.0,0.0066
3914.0,0.0065
3913.0,0.0065
3912.0,0.0064
3911.0,0.0063
3910.0,0.0064
3909.0,0.0065
3908.0,0.0066
3907.0,0.0067
3906.0,0.0067
3905.0,0.0066
3904.0,0.0065
3903.0,0.0064
3902.0,0.0064
3901.0,0.0064
3900.0,0.0064
3899.0,0.0064
3898.0,0.0064
3897.0,0.0065
3896.0,0.0066
3895.0,0.0066
3894.0,0.0066
3893.0,0.0066
3892.0,0.0066
3891.0,0.0067
3890.0,0.0067
3889.0,0.0068
3888.0,0.0067
3887.0,0.0065
3886.0,0.0064
3885.0,0.0064
3884.0,0.0065
3883.0,0.0067
3882.0,0.0067
3881.0,0.0067
3880.0,0.0068
3879.0,0.0069
3878.0,0.007
3877.0,0.007
3876.0,0.007
3875.0,0.007
3874.0,0.007
3873.0,0.007
3872.0,0.007
3871.0,0.007
3870.0,0.007
3869.0,0.007
3868.0,0.007
3867.0,0.0069
3866.0,0.0068
3865.0,0.0066
3864.0,0.0066
3863.0,0.0066
3862.0,0.0067
3861.0,0.0068
3860.0,0.0068
3859.0,0.0068
3858.0,0.0068
3857.0,0.0068
3856.0,0.0067
3855.0,0.0067
3854.0,0.0067
3853.0,0.0067
3852.0,0.0067
3851.0,0.0068
3850.0,0.0068
3849.0,0.0068
3848.0,0.0068
3847.0,0.0069
3846.0,0.0069
3845.0,0.0069
3844.0,0.0068
3843.0,0.0067
3842.0,0.0067
3841.0,0.0067
3840.0,0.0067
3839.0,0.0068
3838.0,0.0068
3837.0,0.0068
3836.0,0.0069
3835.0,0.0069
3834.0,0.007
3833.0,0.0069
3832.0,0.0069
3831.0,0.0069
3830.0,0.0069
3829.0,0.0069
3828.0,0.0069
3827.0,0.0069
3826.0,0.0068
3825.0,0.0068
3824.0,0.0069
3823.0,0.0069
3822.0,0.0069
3821.0,0.0068
3820.0,0.0069
3819.0,0.0069
3818.0,0.0069
3817.0,0.0069
3816.0,0.0069
3815.0,0.007
3814.0,0.0071
3813.0,0.0072
3812.0,0.0072
3811.0,0.0072
3810.0,0.0072
3809.0,0.0072
3808.0,0.0072
3807.0,0.0072
3806.0,0.0073
3805.0,0.0074
3804.0,0.0075
3803.0,0.0075
3802.0,0.0073
3801.0,0.0072
3800.0,0.0072
3799.0,0.0072
3798.0,0.0073
3797.0,0.0072
3796.0,0.007
3795.0,0.0069
3794.0,0.0069
3793.0,0.0069
3792.0,0.007
3791.0,0.007
3790.0,0.0071
3789.0,0.0071
3788.0,0.0071
3787.0,0.0071
3786.0,0.0072
3785.0,0.0072
3784.0,0.0072
3783.0,0.0072
3782.0,0.0071
3781.0,0.0071
3780.0,0.0072
3779.0,0.0072
3778.0,0.0073
3777.0,0.0073
3776.0,0.0072
3775.0,0.0071
3774.0,0.0071
3773.0,0.0071
3772.0,0.0071
3771.0,0.0071
3770.0,0.0071
3769.0,0.0071
3768.0,0.0071
3767.0,0.0072
3766.0,0.0073
3765.0,0.0074
3764.0,0.0075
3763.0,0.0076
3762.0,0.0075
3761.0,0.0074
3760.0,0.0073
3759.0,0.0072
3758.0,0.0072
3757.0,0.0072
3756.0,0.0072
3755.0,0.0072
3754.0,0.0071
3753.0,0.0071
3752.0,0.0073
3751.0,0.0074
3750.0,0.0075
3749.0,0.0075
3748.0,0.0076
3747.0,0.0076
3746.0,0.0077
3745.0,0.0076
3744.0,0.0074
3743.0,0.0074
3742.0,0.0074
3741.0,0.0074
3740.0,0.0073
3739.0,0.0073
3738.0,0.0074
3737.0,0.0074
3736.0,0.0074
3735.0,0.0074
3734.0,0.0074
3733.0,0.0074
3732.0,0.0074
3731.0,0.0074
3730.0,0.0073
3729.0,0.0073
3728.0,0.0072
3727.0,0.0072
3726.0,0.0071
3725.0,0.0071
3724.0,0.0071
3723.0,0.007
3722.0,0.0071
3721.0,0.0072
3720.0,0.0072
3719.0,0.0073
3718.0,0.0073
3717.0,0.0074
3716.0,0.0076
3715.0,0.0077
3714.0,0.0077
3713.0,0.0078
3712.0,0.0078
3711.0,0.0077
3710.0,0.0076
3709.0,0.0074
3708.0,0.0073
3707.0,0.0072
3706.0,0.0072
3705.0,0.0072
3704.0,0.0072
3703.0,0.0071
3702.0,0.007
3701.0,0.007
3700.0,0.0071
3699.0,0.0072
3698.0,0.0073
3697.0,0.0074
3696.0,0.0075
3695.0,0.0075
3694.0,0.0074
3693.0,0.0073
3692.0,0.0072
3691.0,0.0073
3690.0,0.0074
3689.0,0.0075
3688.0,0.0075
3687.0,0.0075
3686.0,0.0075
3685.0,0.0075
3684.0,0.0075
3683.0,0.0075
3682.0,0.0075
3681.0,0.0075
3680.0,0.0075
3679.0,0.0076
3678.0,0.0077
3677.0,0.0078
3676.0,0.0077
3675.0,0.0075
3674.0,0.0075
3673.0,0.0075
3672.0,0.0076
3671.0,0.0076
3670.0,0.0076
3669.0,0.0076
3668.0,0.0077
3667.0,0.0077
3666.0,0.0077
3665.0,0.0077
3664.0,0.0077
3663.0,0.0077
3662.0,0.0076
3661.0,0.0076
3660.0,0.0077
3659.0,0.0078
3658.0,0.0078
3657.0,0.0078
3656.0,0.0078
3655.0,0.0078
3654.0,0.0079
3653.0,0.0079
3652.0,0.0078
3651.0,0.0078
3650.0,0.0078
3649.0,0.0077
3648.0,0.0076
3647.0,0.0076
3646.0,0.0077
3645.0,0.0078
3644.0,0.0078
3643.0,0.0079
3642.0,0.0079
3641.0,0.0078
3640.0,0.0078
3639.0,0.0078
3638.0,0.0078
3637.0,0.0079
3636.0,0.0079
3635.0,0.0079
3634.0,0.0078
3633.0,0.0078
3632.0,0.0078
3631.0,0.008
3630.0,0.0081
3629.0,0.0082
3628.0,0.0081
3627.0,0.008
3626.0,0.0079
3625.0,0.0079
3624.0,0.0078
3623.0,0.0077
3622.0,0.0076
3621.0,0.0074
3620.0,0.0074
3619.0,0.0074
3618.0,0.0075
3617.0,0.0076
3616.0,0.0078
3615.0,0.0078
3614.0,0.0078
3613.0,0.0078
3612.0,0.0078
3611.0,0.0078
3610.0,0.0078
3609.0,0.0079
3608.0,0.0079
3607.0,0.0078
3606.0,0.0078
3605.0,0.0078
3604.0,0.0078
3603.0,0.0079
3602.0,0.0079
3601.0,0.0079
3600.0,0.0078
3599.0,0.0078
3598.0,0.0078
3597.0,0.0078
3596.0,0.0079
3595.0,0.008
3594.0,0.008
3593.0,0.008
3592.0,0.0079
3591.0,0.0078
3590.0,0.0076
3589.0,0.0076
3588.0,0.0076
3587.0,0.0077
3586.0,0.0078
3585.0,0.008
3584.0,0.008
3583.0,0.008
3582.0,0.008
3581.0,0.008
3580.0,0.008
3579.0,0.008
3578.0,0.008
3577.0,0.008
3576.0,0.008
3575.0,0.0079
3574.0,0.0079
3573.0,0.008
3572.0,0.0081
3571.0,0.0082
3570.0,0.0083
3569.0,0.0083
3568.0,0.0082
3567.0,0.008
3566.0,0.0079
3565.0,0.0079
3564.0,0.0081
3563.0,0.0081
3562.0,0.0082
3561.0,0.0082
3560.0,0.0081
3559.0,0.008
3558.0,0.0078
3557.0,0.0077
3556.0,0.0077
3555.0,0.0076
3554.0,0.0076
3553.0,0.0076
3552.0,0.0076
3551.0,0.0077
3550.0,0.0077
3549.0,0.0078
3548.0,0.0078
3547.0,0.0078
3546.0,0.0078
3545.0,0.0079
3544.0,0.0079
3543.0,0.0079
3542.0,0.008
3541.0,0.0079
3540.0,0.0079
3539.0,0.0079
3538.0,0.0079
3537.0,0.0079
3536.0,0.0079
3535.0,0.0079
3534.0,0.0078
3533.0,0.0078
3532.0,0.0077
3531.0,0.0077
3530.0,0.0078
3529.0,0.0078
3528.0,0.0079
3527.0,0.008
3526.0,0.0081
3525.0,0.0082
3524.0,0.0081
3523.0,0.0081
3522.0,0.0081
3521.0,0.0081
3520.0,0.0082
3519.0,0.0082
3518.0,0.0082
3517.0,0.0082
3516.0,0.0082
3515.0,0.0081
3514.0,0.0081
3513.0,0.0081
3512.0,0.0081
3511.0,0.0082
3510.0,0.0082
3509.0,0.0081
3508.0,0.0081
3507.0,0.0081
3506.0,0.0081
3505.0,0.0082
3504.0,0.0083
3503.0,0.0083
3502.0,0.0083
3501.0,0.0082
3500.0,0.0082
3499.0,0.0082
3498.0,0.0082
3497.0,0.0083
3496.0,0.0084
3495.0,0.0084
3494.0,0.0085
3493.0,0.0085
3492.0,0.0085
3491.0,0.0085
3490.0,0.0085
3489.0,0.0085
3488.0,0.0085
3487.0,0.0085
3486.0,0.0084
3485.0,0.0084
3484.0,0.0084
3483.0,0.0084
3482.0,0.0084
3481.0,0.0084
3480.0,0.0084
3479.0,0.0084
3478.0,0.0084
3477.0,0.0084
3476.0,0.0085
3475.0,0.0085
3474.0,0.0086
3473.0,0.0086
3472.0,0.0086
3471.0,0.0086
3470.0,0.0086
3469.0,0.0087
3468.0,0.0087
3467.0,0.0087
3466.0,0.0086
3465.0,0.0086
3464.0,0.0086
3463.0,0.0086
3462.0,0.0087
3461.0,0.0087
3460.0,0.0087
3459.0,0.0088
3458.0,0.0088
3457.0,0.0088
3456.0,0.0089
3455.0,0.0089
3454.0,0.0089
3453.0,0.0088
3452.0,0.0088
3451.0,0.0088
3450.0,0.0089
3449.0,0.0089
3448.0,0.0089
3447.0,0.0089
3446.0,0.0089
3445.0,0.0089
3444.0,0.0089
3443.0,0.0088
3442.0,0.0088
3441.0,0.0088
3440.0,0.0087
3439.0,0.0087
3438.0,0.0088
3437.0,0.0088
3436.0,0.0087
3435.0,0.0087
3434.0,0.0086
3433.0,0.0086
3432.0,0.0085
3431.0,0.0085
3430.0,0.0085
3429.0,0.0086
3428.0,0.0086
3427.0,0.0086
3426.0,0.0086
3425.0,0.0085
3424.0,0.0084
3423.0,0.0083
3422.0,0.0083
3421.0,0.0084
3420.0,0.0084
3419.0,0.0085
3418.0,0.0086
3417.0,0.0086
3416.0,0.0085
3415.0,0.0084
3414.0,0.0083
3413.0,0.0083
3412.0,0.0082
3411.0,0.0082
3410.0,0.0081
3409.0,0.0081
3408.0,0.008
3407.0,0.008
3406.0,0.008
3405.0,0.0081
3404.0,0.0082
3403.0,0.0082
3402.0,0.0083
3401.0,0.0083
3400.0,0.0082
3399.0,0.0082
3398.0,0.0081
3397.0,0.008
3396.0,0.0081
3395.0,0.0082
3394.0,0.0083
3393.0,0.0083
3392.0,0.0082
3391.0,0.0081
3390.0,0.008
3389.0,0.0079
3388.0,0.0079
3387.0,0.008
3386.0,0.008
3385.0,0.0081
3384.0,0.0082
3383.0,0.0082
3382.0,0.0083
3381.0,0.0083
3380.0,0.0083
3379.0,0.0083
3378.0,0.0082
3377.0,0.0082
3376.0,0.0082
3375.0,0.0083
3374.0,0.0083
3373.0,0.0083
3372.0,0.0083
3371.0,0.0082
3370.0,0.0081
3369.0,0.0081
3368.0,0.0082
3367.0,0.0082
3366.0,0.0083
3365.0,0.0083
3364.0,0.0083
3363.0,0.0083
3362.0,0.0083
3361.0,0.0083
3360.0,0.0083
3359.0,0.0082
3358.0,0.0081
3357.0,0.0081
3356.0,0.0081
3355.0,0.0082
3354.0,0.0083
3353.0,0.0085
3352.0,0.0085
3351.0,0.0085
3350.0,0.0085
3349.0,0.0085
3348.0,0.0085
3347.0,0.0084
3346.0,0.0084
3345.0,0.0083
3344.0,0.0083
3343.0,0.0084
3342.0,0.0084
3341.0,0.0085
3340.0,0.0085
3339.0,0.0085
3338.0,0.0085
3337.0,0.0085
3336.0,0.0085
3335.0,0.0086
3334.0,0.0086
3333.0,0.0086
3332.0,0.0086
3331.0,0.0086
3330.0,0.0086
3329.0,0.0086
3328.0,0.0085
3327.0,0.0084
3326.0,0.0084
3325.0,0.0084
3324.0,0.0084
3323.0,0.0084
3322.0,0.0084
3321.0,0.0084
3320.0,0.0085
3319.0,0.0086
3318.0,0.0086
3317.0,0.0086
3316.0,0.0086
3315.0,0.0086
3314.0,0.0085
3313.0,0.0085
3312.0,0.0085
3311.0,0.0085
3310.0,0.0084
3309.0,0.0083
3308.0,0.0084
3307.0,0.0085
3306.0,0.0086
3305.0,0.0087
3304.0,0.0087
3303.0,0.0088
3302.0,0.0088
3301.0,0.0088
3300.0,0.0088
3299.0,0.0088
3298.0,0.0088
3297.0,0.0088
3296.0,0.0087
3295.0,0.0086
3294.0,0.0086
3293.0,0.0086
3292.0,0.0086
3291.0,0.0086
3290.0,0.0085
3289.0,0.0085
3288.0,0.0085
3287.0,0.0086
3286.0,0.0087
3285.0,0.0088
3284.0,0.0088
3283.0,0.0087
3282.0,0.0087
3281.0,0.0086
3280.0,0.0086
3279.0,0.0085
3278.0,0.0084
3277.0,0.0083
3276.0,0.0082
3275.0,0.0082
3274.0,0.0082
3273.0,0.0082
3272.0,0.0083
3271.0,0.0083
3270.0,0.0083
3269.0,0.0084
3268.0,0.0085
3267.0,0.0086
3266.0,0.0086
3265.0,0.0085
3264.0,0.0084
3263.0,0.0084
3262.0,0.0084
3261.0,0.0085
3260.0,0.0086
3259.0,0.0086
3258.0,0.0086
3257.0,0.0086
3256.0,0.0087
3255.0,0.0087
3254.0,0.0086
3253.0,0.0085
3252.0,0.0084
3251.0,0.0084
3250.0,0.0084
3249.0,0.0084
3248.0,0.0084
3247.0,0.0084
3246.0,0.0083
3245.0,0.0082
3244.0,0.0082
3243.0,0.0083
3242.0,0.0084
3241.0,0.0085
3240.0,0.0086
3239.0,0.0087
3238.0,0.0087
3237.0,0.0086
3236.0,0.0086
3235.0,0.0086
3234.0,0.0086
3233.0,0.0086
3232.0,0.0086
3231.0,0.0085
3230.0,0.0084
3229.0,0.0084
3228.0,0.0083
3227.0,0.0082
3226.0,0.0082
3225.0,0.0082
3224.0,0.0083
3223.0,0.0083
3222.0,0.0082
3221.0,0.0081
3220.0,0.0081
3219.0,0.0082
3218.0,0.0083
3217.0,0.0084
3216.0,0.0084
3215.0,0.0084
3214.0,0.0084
3213.0,0.0083
3212.0,0.0083
3211.0,0.0083
3210.0,0.0085
3209.0,0.0086
3208.0,0.0087
3207.0,0.0087
3206.0,0.0086
3205.0,0.0085
3204.0,0.0083
3203.0,0.0082
3202.0,0.0082
3201.0,0.0083
3200.0,0.0085
3199.0,0.0086
3198.0,0.0086
3197.0,0.0087
3196.0,0.0087
3195.0,0.0087
3194.0,0.0086
3193.0,0.0086
3192.0,0.0085
3191.0,0.0085
3190.0,0.0085
3189.0,0.0085
3188.0,0.0085
3187.0,0.0084
3186.0,0.0083
3185.0,0.0082
3184.0,0.0083
3183.0,0.0083
3182.0,0.0084
3181.0,0.0083
3180.0,0.0083
3179.0,0.0083
3178.0,0.0084
3177.0,0.0085
3176.0,0.0086
3175.0,0.0086
3174.0,0.0086
3173.0,0.0085
3172.0,0.0084
3171.0,0.0082
3170.0,0.0081
3169.0,0.0081
3168.0,0.0081
3167.0,0.0082
3166.0,0.0082
3165.0,0.0083
3164.0,0.0084
3163.0,0.0085
3162.0,0.0086
3161.0,0.0086
3160.0,0.0086
3159.0,0.0085
3158.0,0.0084
3157.0,0.0083
3156.0,0.0082
3155.0,0.0083
3154.0,0.0083
3153.0,0.0084
3152.0,0.0085
3151.0,0.0085
3150.0,0.0085
3149.0,0.0084
3148.0,0.0083
3147.0,0.0083
3146.0,0.0083
3145.0,0.0083
3144.0,0.0083
3143.0,0.0083
3142.0,0.0083
3141.0,0.0082
3140.0,0.0081
3139.0,0.0081
3138.0,0.008
3137.0,0.0079
3136.0,0.0079
3135.0,0.0079
3134.0,0.008
3133.0,0.008
3132.0,0.008
3131.0,0.008
3130.0,0.0081
3129.0,0.0081
3128.0,0.0082
3127.0,0.0083
3126.0,0.0083
3125.0,0.0083
3124.0,0.0082
3123.0,0.0081
3122.0,0.008
3121.0,0.008
3120.0,0.008
3119.0,0.0079
3118.0,0.0079
3117.0,0.0079
3116.0,0.008
3115.0,0.008
3114.0,0.0081
3113.0,0.0081
3112.0,0.0082
3111.0,0.0083
3110.0,0.0084
3109.0,0.0084
3108.0,0.0084
3107.0,0.0084
3106.0,0.0084
3105.0,0.0084
3104.0,0.0084
3103.0,0.0085
3102.0,0.0085
3101.0,0.0085
3100.0,0.0085
3099.0,0.0085
3098.0,0.0085
3097.0,0.0085
3096.0,0.0085
3095.0,0.0085
3094.0,0.0085
3093.0,0.0085
3092.0,0.0085
3091.0,0.0087
3090.0,0.0089
3089.0,0.0091
3088.0,0.0093
3087.0,0.0096
3086.0,0.0098
3085.0,0.0101
3084.0,0.0102
3083.0,0.0103
3082.0,0.0104
3081.0,0.0104
3080.0,0.0104
3079.0,0.0103
3078.0,0.0101
3077.0,0.01
3076.0,0.0098
3075.0,0.0097
3074.0,0.0097
3073.0,0.0096
3072.0,0.0096
3071.0,0.0096
3070.0,0.0096
3069.0,0.0097
3068.0,0.0098
3067.0,0.01
3066.0,0.0102
3065.0,0.0105
3064.0,0.0108
3063.0,0.0111
3062.0,0.0114
3061.0,0.0116
3060.0,0.0117
3059.0,0.0117
3058.0,0.0117
3057.0,0.0115
3056.0,0.0114
3055.0,0.0113
3054.0,0.0112
3053.0,0.011
3052.0,0.0108
3051.0,0.0106
3050.0,0.0104
3049.0,0.0102
3048.0,0.01
3047.0,0.01
3046.0,0.0099
3045.0,0.0099
3044.0,0.0098
3043.0,0.0098
3042.0,0.0097
3041.0,0.0097
3040.0,0.0097
3039.0,0.0098
3038.0,0.01
3037.0,0.0102
3036.0,0.0105
3035.0,0.0108
3034.0,0.0111
3033.0,0.0116
3032.0,0.0121
3031.0,0.0127
3030.0,0.0134
3029.0,0.0141
3028.0,0.0147
3027.0,0.0153
3026.0,0.0157
3025.0,0.0159
3024.0,0.016
3023.0,0.0158
3022.0,0.0154
3021.0,0.015
3020.0,0.0145
3019.0,0.014
3018.0,0.0135
3017.0,0.013
3016.0,0.0126
3015.0,0.0121
3014.0,0.0118
3013.0,0.0115
3012.0,0.0113
3011.0,0.0112
3010.0,0.0111
3009.0,0.0111
3008.0,0.0111
3007.0,0.011
3006.0,0.011
3005.0,0.0111
3004.0,0.0111
3003.0,0.0112
3002.0,0.0112
3001.0,0.0112
3000.0,0.0112
2999.0,0.0111
2998.0,0.011
2997.0,0.0108
2996.0,0.0106
2995.0,0.0105
2994.0,0.0103
2993.0,0.0102
2992.0,0.0101
2991.0,0.01
2990.0,0.0099
2989.0,0.0099
2988.0,0.0098
2987.0,0.0097
2986.0,0.0096
2985.0,0.0096
2984.0,0.0096
2983.0,0.0097
2982.0,0.0097
2981.0,0.0096
2980.0,0.0095
2979.0,0.0094
2978.0,0.0093
2977.0,0.0093
2976.0,0.0093
2975.0,0.0093
2974.0,0.0094
2973.0,0.0094
2972.0,0.0094
2971.0,0.0094
2970.0,0.0094
2969.0,0.0094
2968.0,0.0095
2967.0,0.0095
2966.0,0.0096
2965.0,0.0096
2964.0,0.0096
2963.0,0.0097
2962.0,0.0097
2961.0,0.0098
2960.0,0.0099
2959.0,0.0099
2958.0,0.0099
2957.0,0.0099
2956.0,0.0099
2955.0,0.01
2954.0,0.01
2953.0,0.0101
2952.0,0.0102
2951.0,0.0104
2950.0,0.0105
2949.0,0.0106
2948.0,0.0107
2947.0,0.0108
2946.0,0.011
2945.0,0.0112
2944.0,0.0114
2943.0,0.0115
2942.0,0.0117
2941.0,0.012
2940.0,0.0122
2939.0,0.0126
2938.0,0.0129
2937.0,0.0133
2936.0,0.0137
2935.0,0.0141
2934.0,0.0146
2933.0,0.0151
2932.0,0.0155
2931.0,0.0159
2930.0,0.0163
2929.0,0.0168
2928.0,0.0173
2927.0,0.0178
2926.0,0.0182
2925.0,0.0185
2924.0,0.0187
2923.0,0.0188
2922.0,0.019
2921.0,0.0191
2920.0,0.0192
2919.0,0.0192
2918.0,0.0192
2917.0,0.0192
2916.0,0.0191
2915.0,0.019
2914.0,0.0189
2913.0,0.0187
2912.0,0.0185
2911.0,0.0183
2910.0,0.0182
2909.0,0.018
2908.0,0.0178
2907.0,0.0176
2906.0,0.0174
2905.0,0.0172
2904.0,0.0171
2903.0,0.0169
2902.0,0.0168
2901.0,0.0166
2900.0,0.0163
2899.0,0.0161
2898.0,0.0159
2897.0,0.0157
2896.0,0.0154
2895.0,0.0152
2894.0,0.0151
2893.0,0.0149
2892.0,0.0148
2891.0,0.0148
2890.0,0.0147
2889.0,0.0146
2888.0,0.0145
2887.0,0.0144
2886.0,0.0143
2885.0,0.0141
2884.0,0.014
2883.0,0.0139
2882.0,0.0139
2881.0,0.0138
2880.0,0.0137
2879.0,0.0136
2878.0,0.0135
2877.0,0.0134
2876.0,0.0133
2875.0,0.0132
2874.0,0.0132
2873.0,0.0131
2872.0,0.0131
2871.0,0.0131
2870.0,0.0131
2869.0,0.0131
2868.0,0.0131
2867.0,0.0131
2866.0,0.0132
2865.0,0.0132
2864.0,0.0133
2863.0,0.0134
2862.0,0.0135
2861.0,0.0136
2860.0,0.0138
2859.0,0.014
2858.0,0.0142
2857.0,0.0144
2856.0,0.0146
2855.0,0.0147
2854.0,0.0149
2853.0,0.015
2852.0,0.0151
2851.0,0.0153
2850.0,0.0155
2849.0,0.0156
2848.0,0.0156
2847.0,0.0156
2846.0,0.0155
2845.0,0.0154
2844.0,0.0153
2843.0,0.0151
2842.0,0.0148
2841.0,0.0146
2840.0,0.0143
2839.0,0.014
2838.0,0.0137
2837.0,0.0135
2836.0,0.0133
2835.0,0.0131
2834.0,0.013
2833.0,0.0129
2832.0,0.0128
2831.0,0.0127
2830.0,0.0126
2829.0,0.0125
2828.0,0.0124
2827.0,0.0123
2826.0,0.0123
2825.0,0.0123
2824.0,0.0123
2823.0,0.0122
2822.0,0.0122
2821.0,0.0121
2820.0,0.012
2819.0,0.0119
2818.0,0.0119
2817.0,0.0119
2816.0,0.0119
2815.0,0.0119
2814.0,0.0119
2813.0,0.0118
2812.0,0.0119
2811.0,0.0119
2810.0,0.0119
2809.0,0.0119
2808.0,0.0119
2807.0,0.0119
2806.0,0.0119
2805.0,0.0118
2804.0,0.0118
2803.0,0.0118
2802.0,0.0117
2801.0,0.0117
2800.0,0.0117
2799.0,0.0117
2798.0,0.0117
2797.0,0.0117
2796.0,0.0117
2795.0,0.0117
2794.0,0.0117
2793.0,0.0117
2792.0,0.0117
2791.0,0.0117
2790.0,0.0117
2789.0,0.0116
2788.0,0.0116
2787.0,0.0115
2786.0,0.0115
2785.0,0.0115
2784.0,0.0115
2783.0,0.0115
2782.0,0.0115
2781.0,0.0115
2780.0,0.0115
2779.0,0.0115
2778.0,0.0115
2777.0,0.0114
2776.0,0.0114
2775.0,0.0114
2774.0,0.0114
2773.0,0.0114
2772.0,0.0114
2771.0,0.0114
2770.0,0.0114
2769.0,0.0114
2768.0,0.0113
2767.0,0.0113
2766.0,0.0113
2765.0,0.0113
2764.0,0.0114
2763.0,0.0114
2762.0,0.0114
2761.0,0.0113
2760.0,0.0113
2759.0,0.0113
2758.0,0.0113
2757.0,0.0114
2756.0,0.0114
2755.0,0.0114
2754.0,0.0114
2753.0,0.0113
2752.0,0.0113
2751.0,0.0112
2750.0,0.0112
2749.0,0.0112
2748.0,0.0113
2747.0,0.0113
2746.0,0.0112
2745.0,0.0112
2744.0,0.0111
2743.0,0.0111
2742.0,0.0111
2741.0,0.0112
2740.0,0.0112
2739.0,0.0113
2738.0,0.0113
2737.0,0.0113
2736.0,0.0113
2735.0,0.0112
2734.0,0.0111
2733.0,0.0111
2732.0,0.0111
2731.0,0.0112
2730.0,0.0113
2729.0,0.0113
2728.0,0.0114
2727.0,0.0113
2726.0,0.0113
2725.0,0.0112
2724.0,0.0112
2723.0,0.0112
2722.0,0.0112
2721.0,0.0112
2720.0,0.0113
2719.0,0.0112
2718.0,0.0112
2717.0,0.0111
2716.0,0.0111
2715.0,0.0111
2714.0,0.0112
2713.0,0.0112
2712.0,0.0113
2711.0,0.0113
2710.0,0.0113
2709.0,0.0113
2708.0,0.0113
2707.0,0.0113
2706.0,0.0113
2705.0,0.0112
2704.0,0.0112
2703.0,0.0112
2702.0,0.0112
2701.0,0.0112
2700.0,0.0112
2699.0,0.0112
2698.0,0.0112
2697.0,0.0112
2696.0,0.0112
2695.0,0.0112
2694.0,0.0112
2693.0,0.0112
2692.0,0.0112
2691.0,0.0111
2690.0,0.011
2689.0,0.011
2688.0,0.011
2687.0,0.0111
2686.0,0.0112
2685.0,0.0113
2684.0,0.0112
2683.0,0.0112
2682.0,0.0111
2681.0,0.0111
2680.0,0.0111
2679.0,0.0112
2678.0,0.0112
2677.0,0.0113
2676.0,0.0113
2675.0,0.0113
2674.0,0.0113
2673.0,0.0112
2672.0,0.0111
2671.0,0.0111
2670.0,0.0111
2669.0,0.0111
2668.0,0.0112
2667.0,0.0112
2666.0,0.0111
2665.0,0.0111
2664.0,0.0111
2663.0,0.0111
2662.0,0.0111
2661.0,0.0112
2660.0,0.0112
2659.0,0.0112
2658.0,0.0112
2657.0,0.0112
2656.0,0.0111
2655.0,0.0111
2654.0,0.0111
2653.0,0.0111
2652.0,0.0111
2651.0,0.0111
2650.0,0.0111
2649.0,0.0111
2648.0,0.0111
2647.0,0.0111
2646.0,0.0111
2645.0,0.0111
2644.0,0.0111
2643.0,0.0111
2642.0,0.0111
2641.0,0.0112
2640.0,0.0112
2639.0,0.0112
2638.0,0.0112
2637.0,0.0112
2636.0,0.0112
2635.0,0.0112
2634.0,0.0112
2633.0,0.0112
2632.0,0.0112
2631.0,0.0113
2630.0,0.0113
2629.0,0.0113
2628.0,0.0112
2627.0,0.0112
2626.0,0.0112
2625.0,0.0112
2624.0,0.0112
2623.0,0.0112
2622.0,0.0112
2621.0,0.0112
2620.0,0.0112
2619.0,0.0112
2618.0,0.0112
2617.0,0.0112
2616.0,0.0111
2615.0,0.0111
2614.0,0.011
2613.0,0.011
2612.0,0.0111
2611.0,0.0111
2610.0,0.0112
2609.0,0.0112
2608.0,0.0112
2607.0,0.0112
2606.0,0.0112
2605.0,0.0113
2604.0,0.0113
2603.0,0.0113
2602.0,0.0112
2601.0,0.0111
2600.0,0.0111
2599.0,0.011
2598.0,0.011
2597.0,0.0111
2596.0,0.0111
2595.0,0.0111
2594.0,0.0111
2593.0,0.0111
2592.0,0.0111
2591.0,0.0111
2590.0,0.0111
2589.0,0.0112
2588.0,0.0112
2587.0,0.0112
2586.0,0.0112
2585.0,0.0112
2584.0,0.0111
2583.0,0.0111
2582.0,0.0111
2581.0,0.0111
2580.0,0.0112
2579.0,0.0112
2578.0,0.0113
2577.0,0.0113
2576.0,0.0113
2575.0,0.0112
2574.0,0.0112
2573.0,0.0111
2572.0,0.0111
2571.0,0.0111
2570.0,0.0112
2569.0,0.0112
2568.0,0.0112
2567.0,0.0112
2566.0,0.0112
2565.0,0.0111
2564.0,0.0111
2563.0,0.011
2562.0,0.011
2561.0,0.011
2560.0,0.011
2559.0,0.011
2558.0,0.011
2557.0,0.011
2556.0,0.0111
2555.0,0.0111
2554.0,0.0112
2553.0,0.0112
2552.0,0.0111
2551.0,0.0111
2550.0,0.0111
2549.0,0.0111
2548.0,0.0111
2547.0,0.0111
2546.0,0.0111
2545.0,0.0111
2544.0,0.0111
2543.0,0.0111
2542.0,0.0111
2541.0,0.0111
2540.0,0.0111
2539.0,0.0111
2538.0,0.0111
2537.0,0.0111
2536.0,0.0111
2535.0,0.0111
2534.0,0.0112
2533.0,0.0112
2532.0,0.0112
2531.0,0.0112
2530.0,0.0112
2529.0,0.0112
2528.0,0.0112
2527.0,0.0112
2526.0,0.0112
2525.0,0.0112
2524.0,0.0112
2523.0,0.0112
2522.0,0.0111
2521.0,0.0111
2520.0,0.0111
2519.0,0.0112
2518.0,0.0112
2517.0,0.0112
2516.0,0.0112
2515.0,0.0112
2514.0,0.0113
2513.0,0.0113
2512.0,0.0113
2511.0,0.0112
2510.0,0.0112
2509.0,0.0112
2508.0,0.0111
2507.0,0.0112
2506.0,0.0112
2505.0,0.0111
2504.0,0.0111
2503.0,0.0111
2502.0,0.0111
2501.0,0.0111
2500.0,0.0111
2499.0,0.0111
2498.0,0.0111
2497.0,0.0111
2496.0,0.0111
2495.0,0.0111
2494.0,0.011
2493.0,0.011
2492.0,0.011
2491.0,0.011
2490.0,0.011
2489.0,0.011
2488.0,0.011
2487.0,0.011
2486.0,0.011
2485.0,0.011
2484.0,0.011
2483.0,0.011
2482.0,0.011
2481.0,0.011
2480.0,0.011
2479.0,0.011
2478.0,0.011
2477.0,0.0111
2476.0,0.0111
2475.0,0.0111
2474.0,0.0111
2473.0,0.0111
2472.0,0.0111
2471.0,0.0111
2470.0,0.0111
2469.0,0.011
2468.0,0.011
2467.0,0.011
2466.0,0.011
2465.0,0.011
2464.0,0.0111
2463.0,0.0111
2462.0,0.0111
2461.0,0.0111
2460.0,0.0111
2459.0,0.0111
2458.0,0.0111
2457.0,0.0111
2456.0,0.011
2455.0,0.011
2454.0,0.011
2453.0,0.0111
2452.0,0.0111
2451.0,0.0111
2450.0,0.0111
2449.0,0.011
2448.0,0.011
2447.0,0.011
2446.0,0.011
2445.0,0.011
2444.0,0.011
2443.0,0.011
2442.0,0.011
2441.0,0.011
2440.0,0.011
2439.0,0.011
2438.0,0.0109
2437.0,0.0109
2436.0,0.0109
2435.0,0.0109
2434.0,0.0109
2433.0,0.0109
2432.0,0.0109
2431.0,0.0109
2430.0,0.0109
2429.0,0.011
2428.0,0.011
2427.0,0.011
2426.0,0.011
2425.0,0.011
2424.0,0.011
2423.0,0.011
2422.0,0.011
2421.0,0.011
2420.0,0.0109
2419.0,0.0109
2418.0,0.0109
2417.0,0.0109
2416.0,0.0109
2415.0,0.0109
2414.0,0.011
2413.0,0.011
2412.0,0.011
2411.0,0.011
2410.0,0.011
2409.0,0.011
2408.0,0.0109
2407.0,0.0109
2406.0,0.0109
2405.0,0.0109
2404.0,0.011
2403.0,0.011
2402.0,0.011
2401.0,0.011
2400.0,0.011
2399.0,0.011
2398.0,0.011
2397.0,0.011
2396.0,0.0109
2395.0,0.0109
2394.0,0.011
2393.0,0.011
2392.0,0.0111
2391.0,0.0111
2390.0,0.0112
2389.0,0.0112
2388.0,0.0113
2387.0,0.0113
2386.0,0.0114
2385.0,0.0114
2384.0,0.0113
2383.0,0.0112
2382.0,0.011
2381.0,0.0107
2380.0,0.0104
2379.0,0.01
2378.0,0.0098
2377.0,0.0097
2376.0,0.0098
2375.0,0.0101
2374.0,0.0105
2373.0,0.0109
2372.0,0.0111
2371.0,0.0111
2370.0,0.0109
2369.0,0.0105
2368.0,0.01
2367.0,0.0097
2366.0,0.0096
2365.0,0.0095
2364.0,0.0095
2363.0,0.0099
2362.0,0.0107
2361.0,0.0114
2360.0,0.0115
2359.0,0.011
2358.0,0.0101
2357.0,0.0092
2356.0,0.0087
2355.0,0.0087
2354.0,0.0088
2353.0,0.0089
2352.0,0.0095
2351.0,0.011
2350.0,0.0127
2349.0,0.0132
2348.0,0.012
2347.0,0.01
2346.0,0.0089
2345.0,0.0091
2344.0,0.0101
2343.0,0.0106
2342.0,0.0103
2341.0,0.0098
2340.0,0.0095
2339.0,0.0095
2338.0,0.0097
2337.0,0.01
2336.0,0.0101
2335.0,0.0103
2334.0,0.0102
2333.0,0.0101
2332.0,0.0097
2331.0,0.0095
2330.0,0.0094
2329.0,0.0095
2328.0,0.0097
2327.0,0.0099
2326.0,0.01
2325.0,0.01
2324.0,0.0101
2323.0,0.0102
2322.0,0.0103
2321.0,0.0104
2320.0,0.0104
2319.0,0.0105
2318.0,0.0106
2317.0,0.0109
2316.0,0.0109
2315.0,0.0108
2314.0,0.0106
2313.0,0.0106
2312.0,0.0106
2311.0,0.0107
2310.0,0.0108
2309.0,0.0108
2308.0,0.0107
2307.0,0.0107
2306.0,0.0107
2305.0,0.0107
2304.0,0.0108
2303.0,0.0109
2302.0,0.0109
2301.0,0.011
2300.0,0.0111
2299.0,0.0111
2298.0,0.0112
2297.0,0.0112
2296.0,0.0112
2295.0,0.0113
2294.0,0.0112
2293.0,0.0112
2292.0,0.0111
2291.0,0.0111
2290.0,0.011
2289.0,0.011
2288.0,0.011
2287.0,0.0111
2286.0,0.0111
2285.0,0.0111
2284.0,0.0111
2283.0,0.0112
2282.0,0.0112
2281.0,0.0112
2280.0,0.0112
2279.0,0.0112
2278.0,0.0111
2277.0,0.0111
2276.0,0.011
2275.0,0.011
2274.0,0.0109
2273.0,0.0109
2272.0,0.0109
2271.0,0.0109
2270.0,0.011
2269.0,0.011
2268.0,0.011
2267.0,0.011
2266.0,0.011
2265.0,0.011
2264.0,0.011
2263.0,0.011
2262.0,0.011
2261.0,0.011
2260.0,0.011
2259.0,0.0111
2258.0,0.0111
2257.0,0.0111
2256.0,0.0111
2255.0,0.0111
2254.0,0.0112
2253.0,0.0112
2252.0,0.0111
2251.0,0.0111
2250.0,0.0111
2249.0,0.0111
2248.0,0.0111
2247.0,0.0111
2246.0,0.0111
2245.0,0.0111
2244.0,0.0111
2243.0,0.0111
2242.0,0.0111
2241.0,0.0111
2240.0,0.0111
2239.0,0.0111
2238.0,0.0111
2237.0,0.0111
2236.0,0.0111
2235.0,0.0111
2234.0,0.0111
2233.0,0.0111
2232.0,0.0111
2231.0,0.0111
2230.0,0.0111
2229.0,0.0111
2228.0,0.0111
2227.0,0.011
2226.0,0.011
2225.0,0.011
2224.0,0.0111
2223.0,0.0111
2222.0,0.0111
2221.0,0.0112
2220.0,0.0112
2219.0,0.0113
2218.0,0.0113
2217.0,0.0113
2216.0,0.0112
2215.0,0.0112
2214.0,0.0112
2213.0,0.0112
2212.0,0.0112
2211.0,0.0111
2210.0,0.0111
2209.0,0.0111
2208.0,0.011
2207.0,0.011
2206.0,0.0111
2205.0,0.0111
2204.0,0.0112
2203.0,0.0112
2202.0,0.0111
2201.0,0.0111
2200.0,0.0112
2199.0,0.0112
2198.0,0.0112
2197.0,0.0112
2196.0,0.0112
2195.0,0.0112
2194.0,0.0112
2193.0,0.0112
2192.0,0.0111
2191.0,0.0111
2190.0,0.0111
2189.0,0.0111
2188.0,0.0111
2187.0,0.0111
2186.0,0.0112
2185.0,0.0112
2184.0,0.0112
2183.0,0.0112
2182.0,0.0112
2181.0,0.0112
2180.0,0.0112
2179.0,0.0112
2178.0,0.0112
2177.0,0.0112
2176.0,0.0112
2175.0,0.0112
2174.0,0.0112
2173.0,0.0112
2172.0,0.0112
2171.0,0.0113
2170.0,0.0113
2169.0,0.0113
2168.0,0.0112
2167.0,0.0113
2166.0,0.0113
2165.0,0.0113
2164.0,0.0114
2163.0,0.0114
2162.0,0.0114
2161.0,0.0113
2160.0,0.0113
2159.0,0.0112
2158.0,0.0112
2157.0,0.0113
2156.0,0.0113
2155.0,0.0113
2154.0,0.0113
2153.0,0.0113
2152.0,0.0113
2151.0,0.0113
2150.0,0.0113
2149.0,0.0113
2148.0,0.0113
2147.0,0.0113
2146.0,0.0113
2145.0,0.0114
2144.0,0.0114
2143.0,0.0114
2142.0,0.0115
2141.0,0.0115
2140.0,0.0114
2139.0,0.0114
2138.0,0.0114
2137.0,0.0114
2136.0,0.0114
2135.0,0.0114
2134.0,0.0114
2133.0,0.0114
2132.0,0.0114
2131.0,0.0114
2130.0,0.0114
2129.0,0.0114
2128.0,0.0114
2127.0,0.0113
2126.0,0.0113
2125.0,0.0113
2124.0,0.0113
2123.0,0.0114
2122.0,0.0114
2121.0,0.0115
2120.0,0.0114
2119.0,0.0113
2118.0,0.0113
2117.0,0.0113
2116.0,0.0114
2115.0,0.0114
2114.0,0.0114
2113.0,0.0114
2112.0,0.0114
2111.0,0.0114
2110.0,0.0114
2109.0,0.0114
2108.0,0.0114
2107.0,0.0114
2106.0,0.0114
2105.0,0.0114
2104.0,0.0114
2103.0,0.0114
2102.0,0.0113
2101.0,0.0113
2100.0,0.0113
2099.0,0.0113
2098.0,0.0114
2097.0,0.0114
2096.0,0.0114
2095.0,0.0114
2094.0,0.0115
2093.0,0.0115
2092.0,0.0115
2091.0,0.0115
2090.0,0.0115
2089.0,0.0115
2088.0,0.0115
2087.0,0.0115
2086.0,0.0115
2085.0,0.0115
2084.0,0.0115
2083.0,0.0114
2082.0,0.0114
2081.0,0.0114
2080.0,0.0114
2079.0,0.0114
2078.0,0.0115
2077.0,0.0116
2076.0,0.0116
2075.0,0.0116
2074.0,0.0116
2073.0,0.0116
2072.0,0.0116
2071.0,0.0116
2070.0,0.0116
2069.0,0.0116
2068.0,0.0116
2067.0,0.0115
2066.0,0.0115
2065.0,0.0115
2064.0,0.0115
2063.0,0.0115
2062.0,0.0115
2061.0,0.0115
2060.0,0.0115
2059.0,0.0115
2058.0,0.0115
2057.0,0.0115
2056.0,0.0115
2055.0,0.0115
2054.0,0.0115
2053.0,0.0115
2052.0,0.0115
2051.0,0.0115
2050.0,0.0116
2049.0,0.0116
2048.0,0.0116
2047.0,0.0116
2046.0,0.0116
2045.0,0.0116
2044.0,0.0116
2043.0,0.0116
2042.0,0.0116
2041.0,0.0116
2040.0,0.0116
2039.0,0.0116
2038.0,0.0115
2037.0,0.0115
2036.0,0.0115
2035.0,0.0115
2034.0,0.0116
2033.0,0.0116
2032.0,0.0116
2031.0,0.0116
2030.0,0.0115
2029.0,0.0115
2028.0,0.0114
2027.0,0.0114
2026.0,0.0115
2025.0,0.0116
2024.0,0.0116
2023.0,0.0117
2022.0,0.0117
2021.0,0.0117
2020.0,0.0117
2019.0,0.0117
2018.0,0.0117
2017.0,0.0117
2016.0,0.0117
2015.0,0.0117
2014.0,0.0117
2013.0,0.0117
2012.0,0.0117
2011.0,0.0117
2010.0,0.0117
2009.0,0.0117
2008.0,0.0117
2007.0,0.0117
2006.0,0.0116
2005.0,0.0116
2004.0,0.0116
2003.0,0.0115
2002.0,0.0115
2001.0,0.0116
2000.0,0.0116
1999.0,0.0117
1998.0,0.0117
1997.0,0.0117
1996.0,0.0116
1995.0,0.0116
1994.0,0.0116
1993.0,0.0116
1992.0,0.0117
1991.0,0.0117
1990.0,0.0117
1989.0,0.0118
1988.0,0.0118
1987.0,0.0117
1986.0,0.0117
1985.0,0.0117
1984.0,0.0117
1983.0,0.0117
1982.0,0.0117
1981.0,0.0117
1980.0,0.0118
1979.0,0.0118
1978.0,0.0118
1977.0,0.0118
1976.0,0.0118
1975.0,0.0117
1974.0,0.0117
1973.0,0.0117
1972.0,0.0117
1971.0,0.0118
1970.0,0.0118
1969.0,0.0119
1968.0,0.0119
1967.0,0.012
1966.0,0.012
1965.0,0.012
1964.0,0.0121
1963.0,0.0121
1962.0,0.0121
1961.0,0.0122
1960.0,0.0122
1959.0,0.0123
1958.0,0.0123
1957.0,0.0124
1956.0,0.0124
1955.0,0.0124
1954.0,0.0124
1953.0,0.0125
1952.0,0.0125
1951.0,0.0126
1950.0,0.0126
1949.0,0.0127
1948.0,0.0128
1947.0,0.0128
1946.0,0.0129
1945.0,0.013
1944.0,0.0131
1943.0,0.0131
1942.0,0.0131
1941.0,0.0131
1940.0,0.0132
1939.0,0.0131
1938.0,0.0131
1937.0,0.0131
1936.0,0.013
1935.0,0.013
1934.0,0.013
1933.0,0.0129
1932.0,0.0128
1931.0,0.0128
1930.0,0.0127
1929.0,0.0126
1928.0,0.0125
1927.0,0.0125
1926.0,0.0125
1925.0,0.0124
1924.0,0.0124
1923.0,0.0124
1922.0,0.0123
1921.0,0.0123
1920.0,0.0123
1919.0,0.0123
1918.0,0.0123
1917.0,0.0123
1916.0,0.0123
1915.0,0.0122
1914.0,0.0122
1913.0,0.0122
1912.0,0.0122
1911.0,0.0122
1910.0,0.0122
1909.0,0.0121
1908.0,0.0121
1907.0,0.0121
1906.0,0.0121
1905.0,0.0122
1904.0,0.0122
1903.0,0.0122
1902.0,0.0121
1901.0,0.0121
1900.0,0.0121
1899.0,0.0121
1898.0,0.0121
1897.0,0.0122
1896.0,0.0123
1895.0,0.0124
1894.0,0.0124
1893.0,0.0125
1892.0,0.0125
1891.0,0.0125
1890.0,0.0125
1889.0,0.0125
1888.0,0.0126
1887.0,0.0126
1886.0,0.0127
1885.0,0.0128
1884.0,0.0128
1883.0,0.0127
1882.0,0.0127
1881.0,0.0127
1880.0,0.0127
1879.0,0.0128
1878.0,0.0128
1877.0,0.0129
1876.0,0.0129
1875.0,0.013
1874.0,0.013
1873.0,0.0131
1872.0,0.0131
1871.0,0.0132
1870.0,0.0132
1869.0,0.0132
1868.0,0.0132
1867.0,0.0132
1866.0,0.0132
1865.0,0.0132
1864.0,0.0132
1863.0,0.0132
1862.0,0.0132
1861.0,0.0131
1860.0,0.0131
1859.0,0.013
1858.0,0.0129
1857.0,0.0129
1856.0,0.0128
1855.0,0.0128
1854.0,0.0128
1853.0,0.0128
1852.0,0.0127
1851.0,0.0127
1850.0,0.0126
1849.0,0.0126
1848.0,0.0125
1847.0,0.0125
1846.0,0.0125
1845.0,0.0125
1844.0,0.0124
1843.0,0.0124
1842.0,0.0124
1841.0,0.0124
1840.0,0.0125
1839.0,0.0125
1838.0,0.0125
1837.0,0.0124
1836.0,0.0124
1835.0,0.0123
1834.0,0.0124
1833.0,0.0124
1832.0,0.0124
1831.0,0.0124
1830.0,0.0124
1829.0,0.0123
1828.0,0.0123
1827.0,0.0123
1826.0,0.0124
1825.0,0.0124
1824.0,0.0125
1823.0,0.0125
1822.0,0.0126
1821.0,0.0126
1820.0,0.0127
1819.0,0.0127
1818.0,0.0127
1817.0,0.0127
1816.0,0.0127
1815.0,0.0127
1814.0,0.0127
1813.0,0.0128
1812.0,0.0128
1811.0,0.0128
1810.0,0.0128
1809.0,0.0129
1808.0,0.0131
1807.0,0.0132
1806.0,0.0133
1805.0,0.0134
1804.0,0.0134
1803.0,0.0134
1802.0,0.0134
1801.0,0.0134
1800.0,0.0134
1799.0,0.0134
1798.0,0.0134
1797.0,0.0134
1796.0,0.0134
1795.0,0.0133
1794.0,0.0133
1793.0,0.0132
1792.0,0.0131
1791.0,0.0131
1790.0,0.013
1789.0,0.013
1788.0,0.013
1787.0,0.0129
1786.0,0.0129
1785.0,0.0128
1784.0,0.0128
1783.0,0.0128
1782.0,0.0127
1781.0,0.0127
1780.0,0.0128
1779.0,0.0128
1778.0,0.0128
1777.0,0.0127
1776.0,0.0127
1775.0,0.0127
1774.0,0.0127
1773.0,0.0127
1772.0,0.0127
1771.0,0.0126
1770.0,0.0125
1769.0,0.0125
1768.0,0.0125
1767.0,0.0126
1766.0,0.0126
1765.0,0.0126
1764.0,0.0126
1763.0,0.0126
1762.0,0.0126
1761.0,0.0127
1760.0,0.0127
1759.0,0.0128
1758.0,0.0128
1757.0,0.0129
1756.0,0.013
1755.0,0.0131
1754.0,0.0131
1753.0,0.0132
1752.0,0.0132
1751.0,0.0133
1750.0,0.0133
1749.0,0.0134
1748.0,0.0134
1747.0,0.0135
1746.0,0.0135
1745.0,0.0135
1744.0,0.0136
1743.0,0.0136
1742.0,0.0136
1741.0,0.0136
1740.0,0.0135
1739.0,0.0136
1738.0,0.0136
1737.0,0.0136
1736.0,0.0136
1735.0,0.0135
1734.0,0.0135
1733.0,0.0134
1732.0,0.0133
1731.0,0.0133
1730.0,0.0133
1729.0,0.0133
1728.0,0.0133
1727.0,0.0132
1726.0,0.0132
1725.0,0.0132
1724.0,0.0132
1723.0,0.0132
1722.0,0.0131
1721.0,0.0131
1720.0,0.0131
1719.0,0.0131
1718.0,0.0131
1717.0,0.0132
1716.0,0.0131
1715.0,0.0131
1714.0,0.013
1713.0,0.013
1712.0,0.0129
1711.0,0.0129
1710.0,0.0128
1709.0,0.0129
1708.0,0.0129
1707.0,0.0128
1706.0,0.0128
1705.0,0.0129
1704.0,0.0129
1703.0,0.013
1702.0,0.013
1701.0,0.0131
1700.0,0.0132
1699.0,0.0132
1698.0,0.0132
1697.0,0.0131
1696.0,0.0131
1695.0,0.013
1694.0,0.013
1693.0,0.013
1692.0,0.0129
1691.0,0.0129
1690.0,0.0129
1689.0,0.0129
1688.0,0.013
1687.0,0.013
1686.0,0.013
1685.0,0.0131
1684.0,0.0132
1683.0,0.0132
1682.0,0.0132
1681.0,0.0133
1680.0,0.0133
1679.0,0.0133
1678.0,0.0134
1677.0,0.0134
1676.0,0.0134
1675.0,0.0135
1674.0,0.0135
1673.0,0.0135
1672.0,0.0135
1671.0,0.0135
1670.0,0.0136
1669.0,0.0137
1668.0,0.0138
1667.0,0.0138
1666.0,0.0138
1665.0,0.0138
1664.0,0.0137
1663.0,0.0137
1662.0,0.0137
1661.0,0.0137
1660.0,0.0137
1659.0,0.0137
1658.0,0.0137
1657.0,0.0137
1656.0,0.0136
1655.0,0.0136
1654.0,0.0136
1653.0,0.0137
1652.0,0.0135
1651.0,0.0135
1650.0,0.0135
1649.0,0.0134
1648.0,0.0133
1647.0,0.0133
1646.0,0.0133
1645.0,0.0133
1644.0,0.0134
1643.0,0.0134
1642.0,0.0134
1641.0,0.0133
1640.0,0.0133
1639.0,0.0132
1638.0,0.0131
1637.0,0.0131
1636.0,0.0131
1635.0,0.0131
1634.0,0.0131
1633.0,0.0131
1632.0,0.0131
1631.0,0.0131
1630.0,0.0131
1629.0,0.013
1628.0,0.013
1627.0,0.013
1626.0,0.0129
1625.0,0.0128
1624.0,0.0127
1623.0,0.0126
1622.0,0.0125
1621.0,0.0124
1620.0,0.0124
1619.0,0.0124
1618.0,0.0124
1617.0,0.0124
1616.0,0.0124
1615.0,0.0124
1614.0,0.0124
1613.0,0.0124
1612.0,0.0125
1611.0,0.0127
1610.0,0.013
1609.0,0.0135
1608.0,0.0142
1607.0,0.0151
1606.0,0.0162
1605.0,0.0175
1604.0,0.019
1603.0,0.0204
1602.0,0.0215
1601.0,0.0221
1600.0,0.0222
1599.0,0.0218
1598.0,0.021
1597.0,0.0201
1596.0,0.0192
1595.0,0.0184
1594.0,0.0178
1593.0,0.0173
1592.0,0.0169
1591.0,0.0165
1590.0,0.0162
1589.0,0.016
1588.0,0.016
1587.0,0.0161
1586.0,0.0164
1585.0,0.0168
1584.0,0.0171
1583.0,0.0173
1582.0,0.0172
1581.0,0.0169
1580.0,0.0166
1579.0,0.0162
1578.0,0.0158
1577.0,0.0153
1576.0,0.015
1575.0,0.0148
1574.0,0.0147
1573.0,0.0146
1572.0,0.0145
1571.0,0.0144
1570.0,0.0142
1569.0,0.014
1568.0,0.0139
1567.0,0.0139
1566.0,0.0139
1565.0,0.0138
1564.0,0.0138
1563.0,0.0138
1562.0,0.0138
1561.0,0.0137
1560.0,0.0139
1559.0,0.0141
1558.0,0.014
1557.0,0.0138
1556.0,0.0138
1555.0,0.0138
1554.0,0.0138
1553.0,0.0137
1552.0,0.0137
1551.0,0.0137
1550.0,0.0138
1549.0,0.0139
1548.0,0.014
1547.0,0.014
1546.0,0.014
1545.0,0.0141
1544.0,0.0142
1543.0,0.0143
1542.0,0.0145
1541.0,0.0145
1540.0,0.0141
1539.0,0.0137
1538.0,0.0136
1537.0,0.0137
1536.0,0.0137
1535.0,0.0138
1534.0,0.0137
1533.0,0.0136
1532.0,0.0135
1531.0,0.0134
1530.0,0.0133
1529.0,0.0132
1528.0,0.0131
1527.0,0.0131
1526.0,0.0131
1525.0,0.013
1524.0,0.0129
1523.0,0.0128
1522.0,0.0126
1521.0,0.0125
1520.0,0.0124
1519.0,0.0124
1518.0,0.0124
1517.0,0.0123
1516.0,0.0124
1515.0,0.0124
1514.0,0.0124
1513.0,0.0123
1512.0,0.0122
1511.0,0.0121
1510.0,0.012
1509.0,0.012
1508.0,0.0119
1507.0,0.0118
1506.0,0.0114
1505.0,0.0114
1504.0,0.0114
1503.0,0.0115
1502.0,0.0116
1501.0,0.0118
1500.0,0.0123
1499.0,0.0133
1498.0,0.0156
1497.0,0.0197
1496.0,0.0253
1495.0,0.0305
1494.0,0.0345
1493.0,0.037
1492.0,0.0378
1491.0,0.0362
1490.0,0.0328
1489.0,0.0291
1488.0,0.0263
1487.0,0.0243
1486.0,0.0228
1485.0,0.0216
1484.0,0.0206
1483.0,0.0197
1482.0,0.0189
1481.0,0.0182
1480.0,0.0177
1479.0,0.0172
1478.0,0.0168
1477.0,0.0165
1476.0,0.0162
1475.0,0.016
1474.0,0.0157
1473.0,0.0156
1472.0,0.0155
1471.0,0.0154
1470.0,0.0154
1469.0,0.0153
1468.0,0.0153
1467.0,0.0153
1466.0,0.0152
1465.0,0.015
1464.0,0.0149
1463.0,0.0148
1462.0,0.0147
1461.0,0.0146
1460.0,0.0147
1459.0,0.0152
1458.0,0.0172
1457.0,0.0216
1456.0,0.0265
1455.0,0.0307
1454.0,0.0343
1453.0,0.0373
1452.0,0.039
1451.0,0.0392
1450.0,0.0383
1449.0,0.0367
1448.0,0.0351
1447.0,0.0336
1446.0,0.0325
1445.0,0.0315
1444.0,0.0305
1443.0,0.0295
1442.0,0.0285
1441.0,0.0277
1440.0,0.027
1439.0,0.0263
1438.0,0.0255
1437.0,0.0246
1436.0,0.0237
1435.0,0.023
1434.0,0.0224
1433.0,0.0218
1432.0,0.0213
1431.0,0.0207
1430.0,0.0203
1429.0,0.0199
1428.0,0.0195
1427.0,0.0192
1426.0,0.0189
1425.0,0.0187
1424.0,0.0185
1423.0,0.0183
1422.0,0.0182
1421.0,0.0181
1420.0,0.018
1419.0,0.0179
1418.0,0.0178
1417.0,0.0177
1416.0,0.0176
1415.0,0.0175
1414.0,0.0174
1413.0,0.0173
1412.0,0.0172
1411.0,0.0172
1410.0,0.0171
1409.0,0.0171
1408.0,0.017
1407.0,0.017
1406.0,0.0169
1405.0,0.0169
1404.0,0.0169
1403.0,0.0169
1402.0,0.0168
1401.0,0.0167
1400.0,0.0167
1399.0,0.0166
1398.0,0.0166
1397.0,0.0167
1396.0,0.0167
1395.0,0.0167
1394.0,0.0168
1393.0,0.0168
1392.0,0.0169
1391.0,0.017
1390.0,0.0171
1389.0,0.0172
1388.0,0.0174
1387.0,0.0177
1386.0,0.0179
1385.0,0.0181
1384.0,0.0183
1383.0,0.0185
1382.0,0.0187
1381.0,0.0188
1380.0,0.019
1379.0,0.0192
1378.0,0.0195
1377.0,0.0197
1376.0,0.0198
1375.0,0.02
1374.0,0.0201
1373.0,0.0202
1372.0,0.0202
1371.0,0.0202
1370.0,0.0203
1369.0,0.0203
1368.0,0.0203
1367.0,0.0203
1366.0,0.0203
1365.0,0.0202
1364.0,0.0202
1363.0,0.0202
1362.0,0.0202
1361.0,0.0202
1360.0,0.0201
1359.0,0.02
1358.0,0.02
1357.0,0.0199
1356.0,0.0198
1355.0,0.0198
1354.0,0.0197
1353.0,0.0197
1352.0,0.0196
1351.0,0.0196
1350.0,0.0196
1349.0,0.0196
1348.0,0.0196
1347.0,0.0196
1346.0,0.0196
1345.0,0.0196
1344.0,0.0195
1343.0,0.0194
1342.0,0.0193
1341.0,0.0191
1340.0,0.019
1339.0,0.019
1338.0,0.019
1337.0,0.019
1336.0,0.019
1335.0,0.0191
1334.0,0.0192
1333.0,0.0193
1332.0,0.0195
1331.0,0.0197
1330.0,0.0199
1329.0,0.0199
1328.0,0.0199
1327.0,0.0199
1326.0,0.0198
1325.0,0.0197
1324.0,0.0196
1323.0,0.0196
1322.0,0.0196
1321.0,0.0196
1320.0,0.0196
1319.0,0.0196
1318.0,0.0196
1317.0,0.0196
1316.0,0.0197
1315.0,0.0197
1314.0,0.0198
1313.0,0.0199
1312.0,0.02
1311.0,0.0201
1310.0,0.0201
1309.0,0.0201
1308.0,0.02
1307.0,0.02
1306.0,0.0199
1305.0,0.0199
1304.0,0.0198
1303.0,0.0197
1302.0,0.0196
1301.0,0.0196
1300.0,0.0195
1299.0,0.0194
1298.0,0.0193
1297.0,0.0193
1296.0,0.0192
1295.0,0.0192
1294.0,0.0192
1293.0,0.0192
1292.0,0.0192
1291.0,0.0192
1290.0,0.0191
1289.0,0.0191
1288.0,0.019
1287.0,0.0189
1286.0,0.0188
1285.0,0.0187
1284.0,0.0187
1283.0,0.0188
1282.0,0.0188
1281.0,0.0188
1280.0,0.0188
1279.0,0.0188
1278.0,0.0187
1277.0,0.0187
1276.0,0.0186
1275.0,0.0185
1274.0,0.0184
1273.0,0.0184
1272.0,0.0184
1271.0,0.0184
1270.0,0.0184
1269.0,0.0183
1268.0,0.0183
1267.0,0.0183
1266.0,0.0183
1265.0,0.0183
1264.0,0.0183
1263.0,0.0182
1262.0,0.0182
1261.0,0.0181
1260.0,0.0181
1259.0,0.0181
1258.0,0.018
1257.0,0.018
1256.0,0.018
1255.0,0.018
1254.0,0.018
1253.0,0.018
1252.0,0.018
1251.0,0.018
1250.0,0.018
1249.0,0.0181
1248.0,0.0181
1247.0,0.0181
1246.0,0.0181
1245.0,0.018
1244.0,0.018
1243.0,0.018
1242.0,0.0179
1241.0,0.0179
1240.0,0.0179
1239.0,0.0179
1238.0,0.0179
1237.0,0.0179
1236.0,0.0179
1235.0,0.0179
1234.0,0.0179
1233.0,0.0179
1232.0,0.0179
1231.0,0.0179
1230.0,0.0179
1229.0,0.0179
1228.0,0.0179
1227.0,0.0179
1226.0,0.018
1225.0,0.018
1224.0,0.018
1223.0,0.0179
1222.0,0.0179
1221.0,0.0179
1220.0,0.0178
1219.0,0.0178
1218.0,0.0178
1217.0,0.0178
1216.0,0.0178
1215.0,0.0179
1214.0,0.0179
1213.0,0.0179
1212.0,0.018
1211.0,0.018
1210.0,0.0181
1209.0,0.0181
1208.0,0.0182
1207.0,0.0182
1206.0,0.0183
1205.0,0.0184
1204.0,0.0185
1203.0,0.0186
1202.0,0.0188
1201.0,0.0189
1200.0,0.0191
1199.0,0.0192
1198.0,0.0193
1197.0,0.0193
1196.0,0.0193
1195.0,0.0194
1194.0,0.0194
1193.0,0.0194
1192.0,0.0195
1191.0,0.0195
1190.0,0.0195
1189.0,0.0195
1188.0,0.0196
1187.0,0.0197
1186.0,0.0199
1185.0,0.0201
1184.0,0.0205
1183.0,0.0209
1182.0,0.0212
1181.0,0.0213
1180.0,0.0213
1179.0,0.0211
1178.0,0.0208
1177.0,0.0205
1176.0,0.0202
1175.0,0.0199
1174.0,0.0196
1173.0,0.0194
1172.0,0.0193
1171.0,0.0192
1170.0,0.0191
1169.0,0.019
1168.0,0.0189
1167.0,0.0189
1166.0,0.0189
1165.0,0.0188
1164.0,0.0188
1163.0,0.0189
1162.0,0.019
1161.0,0.0192
1160.0,0.0195
1159.0,0.0199
1158.0,0.0203
1157.0,0.0207
1156.0,0.0212
1155.0,0.0215
1154.0,0.0217
1153.0,0.0217
1152.0,0.0214
1151.0,0.021
1150.0,0.0205
1149.0,0.0201
1148.0,0.0197
1147.0,0.0194
1146.0,0.0191
1145.0,0.0188
1144.0,0.0185
1143.0,0.0183
1142.0,0.0181
1141.0,0.0179
1140.0,0.0177
1139.0,0.0175
1138.0,0.0174
1137.0,0.0172
1136.0,0.0172
1135.0,0.0171
1134.0,0.017
1133.0,0.0168
1132.0,0.0167
1131.0,0.0167
1130.0,0.0166
1129.0,0.0166
1128.0,0.0166
1127.0,0.0166
1126.0,0.0166
1125.0,0.0166
1124.0,0.0166
1123.0,0.0165
1122.0,0.0165
1121.0,0.0165
1120.0,0.0165
1119.0,0.0165
1118.0,0.0165
1117.0,0.0165
1116.0,0.0165
1115.0,0.0165
1114.0,0.0165
1113.0,0.0165
1112.0,0.0164
1111.0,0.0164
1110.0,0.0164
1109.0,0.0164
1108.0,0.0164
1107.0,0.0164
1106.0,0.0164
1105.0,0.0164
1104.0,0.0165
1103.0,0.0165
1102.0,0.0166
1101.0,0.0167
1100.0,0.0168
1099.0,0.017
1098.0,0.0172
1097.0,0.0173
1096.0,0.0175
1095.0,0.0176
1094.0,0.0177
1093.0,0.0177
1092.0,0.0178
1091.0,0.0179
1090.0,0.018
1089.0,0.0182
1088.0,0.0184
1087.0,0.0185
1086.0,0.0186
1085.0,0.0187
1084.0,0.0188
1083.0,0.019
1082.0,0.0192
1081.0,0.0195
1080.0,0.0197
1079.0,0.0199
1078.0,0.0201
1077.0,0.0204
1076.0,0.0208
1075.0,0.0212
1074.0,0.0216
1073.0,0.0221
1072.0,0.0225
1071.0,0.0229
1070.0,0.0233
1069.0,0.0236
1068.0,0.0237
1067.0,0.0237
1066.0,0.0236
1065.0,0.0234
1064.0,0.0232
1063.0,0.023
1062.0,0.0227
1061.0,0.0224
1060.0,0.0221
1059.0,0.0218
1058.0,0.0216
1057.0,0.0215
1056.0,0.0213
1055.0,0.0212
1054.0,0.021
1053.0,0.0208
1052.0,0.0207
1051.0,0.0205
1050.0,0.0203
1049.0,0.0202
1048.0,0.02
1047.0,0.0199
1046.0,0.0199
1045.0,0.0198
1044.0,0.0197
1043.0,0.0196
1042.0,0.0195
1041.0,0.0194
1040.0,0.0194
1039.0,0.0194
1038.0,0.0196
1037.0,0.0199
1036.0,0.0205
1035.0,0.0214
1034.0,0.0227
1033.0,0.0243
1032.0,0.026
1031.0,0.0276
1030.0,0.0292
1029.0,0.0304
1028.0,0.0311
1027.0,0.0312
1026.0,0.0308
1025.0,0.03
1024.0,0.0292
1023.0,0.0284
1022.0,0.0277
1021.0,0.0271
1020.0,0.0265
1019.0,0.0261
1018.0,0.0257
1017.0,0.0253
1016.0,0.025
1015.0,0.0247
1014.0,0.0244
1013.0,0.0242
1012.0,0.0239
1011.0,0.0237
1010.0,0.0235
1009.0,0.0233
1008.0,0.0232
1007.0,0.0232
1006.0,0.0233
1005.0,0.0235
1004.0,0.0238
1003.0,0.0239
1002.0,0.0238
1001.0,0.0236
1000.0,0.0232
999.0,0.0229
998.0,0.0226
997.0,0.0224
996.0,0.0222
995.0,0.022
994.0,0.0218
993.0,0.0217
992.0,0.0216
991.0,0.0216
990.0,0.0217
989.0,0.0218
988.0,0.0219
987.0,0.022
986.0,0.0221
985.0,0.0222
984.0,0.0223
983.0,0.0224
982.0,0.0226
981.0,0.0227
980.0,0.0228
979.0,0.0228
978.0,0.0228
977.0,0.0228
976.0,0.0226
975.0,0.0225
974.0,0.0223
973.0,0.0223
972.0,0.0223
971.0,0.0224
970.0,0.0225
969.0,0.0227
968.0,0.023
967.0,0.0233
966.0,0.0235
965.0,0.0237
964.0,0.0237
963.0,0.0237
962.0,0.0237
961.0,0.0235
960.0,0.0233
959.0,0.023
958.0,0.0228
957.0,0.0226
956.0,0.0224
955.0,0.0223
954.0,0.0223
953.0,0.0223
952.0,0.0223
951.0,0.0223
950.0,0.0223
949.0,0.0223
948.0,0.0225
947.0,0.0227
946.0,0.0229
945.0,0.0231
944.0,0.0232
943.0,0.0232
942.0,0.0232
941.0,0.0233
940.0,0.0232
939.0,0.0231
938.0,0.0229
937.0,0.0226
936.0,0.0224
935.0,0.0223
934.0,0.0221
933.0,0.0219
932.0,0.0217
931.0,0.0215
930.0,0.0214
929.0,0.0214
928.0,0.0214
927.0,0.0215
926.0,0.0215
925.0,0.0215
924.0,0.0215
923.0,0.0216
922.0,0.0217
921.0,0.0219
920.0,0.022
919.0,0.0221
918.0,0.0222
917.0,0.0224
916.0,0.0227
915.0,0.0232
914.0,0.0238
913.0,0.0246
912.0,0.0254
911.0,0.0263
910.0,0.0271
909.0,0.028
908.0,0.0287
907.0,0.0293
906.0,0.0297
905.0,0.0298
904.0,0.0297
903.0,0.0293
902.0,0.0287
901.0,0.028
900.0,0.0272
899.0,0.0265
898.0,0.0259
897.0,0.0253
896.0,0.0248
895.0,0.0244
894.0,0.0241
893.0,0.0239
892.0,0.0237
891.0,0.0235
890.0,0.0233
889.0,0.0232
888.0,0.0231
887.0,0.0229
886.0,0.0227
885.0,0.0225
884.0,0.0225
883.0,0.0224
882.0,0.0223
881.0,0.0222
880.0,0.0222
879.0,0.0222
878.0,0.0223
877.0,0.0223
876.0,0.0222
875.0,0.022
874.0,0.0219
873.0,0.0218
872.0,0.0217
871.0,0.0215
870.0,0.0214
869.0,0.0214
868.0,0.0214
867.0,0.0214
866.0,0.0215
865.0,0.0215
864.0,0.0214
863.0,0.0214
862.0,0.0213
861.0,0.0211
860.0,0.021
859.0,0.0208
858.0,0.0207
857.0,0.0208
856.0,0.0208
855.0,0.0208
854.0,0.0208
853.0,0.0209
852.0,0.021
851.0,0.0213
850.0,0.0217
849.0,0.022
848.0,0.0223
847.0,0.0225
846.0,0.0226
845.0,0.0229
844.0,0.0233
843.0,0.0236
842.0,0.0238
841.0,0.0238
840.0,0.0236
839.0,0.0234
838.0,0.0231
837.0,0.0228
836.0,0.0226
835.0,0.0223
834.0,0.022
833.0,0.0216
832.0,0.0213
831.0,0.021
830.0,0.0208
829.0,0.0206
828.0,0.0206
827.0,0.0206
826.0,0.0206
825.0,0.0204
824.0,0.0201
823.0,0.0197
822.0,0.0195
821.0,0.0194
820.0,0.0195
819.0,0.0195
818.0,0.0195
817.0,0.0195
816.0,0.0194
815.0,0.0193
814.0,0.0191
813.0,0.0191
812.0,0.0191
811.0,0.0192
810.0,0.0192
809.0,0.0191
808.0,0.0189
807.0,0.0187
806.0,0.0186
805.0,0.0185
804.0,0.0185
803.0,0.0185
802.0,0.0182
801.0,0.0179
800.0,0.0177
799.0,0.0176
798.0,0.0175
797.0,0.0175
796.0,0.0176
795.0,0.0178
794.0,0.018
793.0,0.018
792.0,0.018
791.0,0.018
790.0,0.0181
789.0,0.0183
788.0,0.0187
787.0,0.019
786.0,0.0192
785.0,0.0194
784.0,0.0196
783.0,0.0198
782.0,0.0201
781.0,0.0206
780.0,0.0212
779.0,0.022
778.0,0.023
777.0,0.0241
776.0,0.0254
775.0,0.0269
774.0,0.0286
773.0,0.0304
772.0,0.0325
771.0,0.0349
770.0,0.0376
769.0,0.0404
768.0,0.0432
767.0,0.0458
766.0,0.0484
765.0,0.0508
764.0,0.0533
763.0,0.0558
762.0,0.0583
761.0,0.0609
760.0,0.0634
759.0,0.0658
758.0,0.068
757.0,0.0699
756.0,0.0714
755.0,0.0724
754.0,0.073
753.0,0.0733
752.0,0.0736
751.0,0.0738
750.0,0.074
749.0,0.0743
748.0,0.0746
747.0,0.0744
746.0,0.0734
745.0,0.0715
744.0,0.0687
743.0,0.0653
742.0,0.0617
741.0,0.0581
740.0,0.0546
739.0,0.0514
738.0,0.0485
737.0,0.0459
736.0,0.0434
735.0,0.0408
734.0,0.0382
733.0,0.0356
732.0,0.0333
731.0,0.0313
730.0,0.0294
729.0,0.0278
728.0,0.0262
727.0,0.0248
726.0,0.0237
725.0,0.0228
724.0,0.0219
723.0,0.021
722.0,0.02
721.0,0.0191
720.0,0.0182
719.0,0.0175
718.0,0.0168
717.0,0.0162
716.0,0.0155
715.0,0.0151
714.0,0.015
713.0,0.0155
712.0,0.0164
711.0,0.0181
710.0,0.0209
709.0,0.0253
708.0,0.0316
707.0,0.04
706.0,0.0507
705.0,0.0638
704.0,0.079
703.0,0.0962
702.0,0.1148
701.0,0.1346
700.0,0.1553
699.0,0.176
698.0,0.1954
697.0,0.2117
696.0,0.2219
695.0,0.2225
694.0,0.2122
693.0,0.1938
692.0,0.1722
691.0,0.1511
690.0,0.1328
689.0,0.1187
688.0,0.1085
687.0,0.1006
686.0,0.0937
685.0,0.0874
684.0,0.0824
683.0,0.079
682.0,0.0766
681.0,0.0742
680.0,0.0711
679.0,0.0677
678.0,0.0646
677.0,0.0625
676.0,0.0614
675.0,0.0608
674.0,0.0603
673.0,0.0595
672.0,0.0586
671.0,0.0577
670.0,0.0567
669.0,0.0555
668.0,0.053
667.0,0.0513
666.0,0.0507
665.0,0.0501
664.0,0.0498
663.0,0.05
662.0,0.0502
661.0,0.0501
660.0,0.0495
659.0,0.0486
658.0,0.0477
657.0,0.047
656.0,0.0463
655.0,0.0454
654.0,0.0447
653.0,0.0442
652.0,0.0438
651.0,0.0433
650.0,0.0429
649.0,0.0426
648.0,0.0424
647.0,0.0424
646.0,0.0425
645.0,0.0426
644.0,0.0421
643.0,0.0411
642.0,0.0404
641.0,0.0407
640.0,0.0419
639.0,0.0428
638.0,0.043
637.0,0.0429
636.0,0.0433
635.0,0.0441
634.0,0.0446
633.0,0.0443
632.0,0.0437
631.0,0.0431
630.0,0.0426
629.0,0.0423
628.0,0.042
627.0,0.0419
626.0,0.0422
625.0,0.0429
624.0,0.0436
623.0,0.0441
622.0,0.0448
621.0,0.0456
620.0,0.0461
619.0,0.0458
618.0,0.0449
617.0,0.0442
616.0,0.0442
615.0,0.0443
614.0,0.0445
613.0,0.0445
612.0,0.044
611.0,0.043
610.0,0.0419
609.0,0.0416
608.0,0.0421
607.0,0.0429
606.0,0.0434
605.0,0.0434
604.0,0.0428
603.0,0.0419
602.0,0.0412
601.0,0.0413
600.0,0.0421
