cm-1,A
4000.0,-0.0043
3999.0,-0.0043
3998.0,-0.0043
3997.0,-0.0043
3996.0,-0.0042
3995.0,-0.0041
3994.0,-0.0041
3993.0,-0.0041
3992.0,-0.0041
3991.0,-0.0041
3990.0,-0.0041
3989.0,-0.004
3988.0,-0.0041
3987.0,-0.0041
3986.0,-0.0042
3985.0,-0.0042
3984.0,-0.0042
3983.0,-0.0042
3982.0,-0.0041
3981.0,-0.0041
3980.0,-0.004
3979.0,-0.004
3978.0,-0.0039
3977.0,-0.0039
3976.0,-0.004
3975.0,-0.0041
3974.0,-0.0042
3973.0,-0.0042
3972.0,-0.0043
3971.0,-0.0043
3970.0,-0.0043
3969.0,-0.0042
3968.0,-0.0042
3967.0,-0.0042
3966.0,-0.0041
3965.0,-0.0041
3964.0,-0.0041
3963.0,-0.0041
3962.0,-0.0041
3961.0,-0.0041
3960.0,-0.0041
3959.0,-0.0041
3958.0,-0.0041
3957.0,-0.0042
3956.0,-0.0042
3955.0,-0.0042
3954.0,-0.0043
3953.0,-0.0042
3952.0,-0.0041
3951.0,-0.004
3950.0,-0.0039
3949.0,-0.0039
3948.0,-0.0039
3947.0,-0.004
3946.0,-0.0041
3945.0,-0.0042
3944.0,-0.0043
3943.0,-0.0044
3942.0,-0.0044
3941.0,-0.0043
3940.0,-0.0041
3939.0,-0.004
3938.0,-0.004
3937.0,-0.004
3936.0,-0.0041
3935.0,-0.0041
3934.0,-0.0041
3933.0,-0.004
3932.0,-0.0039
3931.0,-0.0039
3930.0,-0.0039
3929.0,-0.004
3928.0,-0.004
3927.0,-0.0041
3926.0,-0.0041
3925.0,-0.0041
3924.0,-0.004
3923.0,-0.0039
3922.0,-0.0039
3921.0,-0.0039
3920.0,-0.0039
3919.0,-0.0039
3918.0,-0.004
3917.0,-0.004
3916.0,-0.004
3915.0,-0.004
3914.0,-0.004
3913.0,-0.0041
3912.0,-0.0041
3911.0,-0.0041
3910.0,-0.0041
3909.0,-0.0041
3908.0,-0.0041
3907.0,-0.0041
3906.0,-0.0041
3905.0,-0.0041
3904.0,-0.0041
3903.0,-0.0041
3902.0,-0.0041
3901.0,-0.0042
3900.0,-0.0042
3899.0,-0.0042
3898.0,-0.0042
3897.0,-0.0041
3896.0,-0.0041
3895.0,-0.0041
3894.0,-0.0041
3893.0,-0.0041
3892.0,-0.0041
3891.0,-0.0041
3890.0,-0.0041
3889.0,-0.0041
3888.0,-0.004
3887.0,-0.0039
3886.0,-0.004
3885.0,-0.004
3884.0,-0.0041
3883.0,-0.0041
3882.0,-0.004
3881.0,-0.0041
3880.0,-0.0041
3879.0,-0.0041
3878.0,-0.0041
3877.0,-0.004
3876.0,-0.0039
3875.0,-0.0039
3874.0,-0.0039
3873.0,-0.004
3872.0,-0.004
3871.0,-0.0041
3870.0,-0.0041
3869.0,-0.0041
3868.0,-0.0041
3867.0,-0.0042
3866.0,-0.0042
3865.0,-0.0043
3864.0,-0.0043
3863.0,-0.0043
3862.0,-0.0043
3861.0,-0.0042
3860.0,-0.0042
3859.0,-0.0041
3858.0,-0.004
3857.0,-0.0039
3856.0,-0.0038
3855.0,-0.0037
3854.0,-0.0038
3853.0,-0.004
3852.0,-0.0042
3851.0,-0.0043
3850.0,-0.0043
3849.0,-0.0042
3848.0,-0.0042
3847.0,-0.0042
3846.0,-0.0043
3845.0,-0.0043
3844.0,-0.0042
3843.0,-0.0042
3842.0,-0.0041
3841.0,-0.0042
3840.0,-0.0043
3839.0,-0.0043
3838.0,-0.0043
3837.0,-0.0042
3836.0,-0.0041
3835.0,-0.0041
3834.0,-0.0041
3833.0,-0.0042
3832.0,-0.0043
3831.0,-0.0044
3830.0,-0.0044
3829.0,-0.0043
3828.0,-0.0042
3827.0,-0.0042
3826.0,-0.0041
3825.0,-0.0041
3824.0,-0.004
3823.0,-0.0038
3822.0,-0.0038
3821.0,-0.0038
3820.0,-0.004
3819.0,-0.0042
3818.0,-0.0042
3817.0,-0.0042
3816.0,-0.0042
3815.0,-0.0042
3814.0,-0.0043
3813.0,-0.0043
3812.0,-0.0043
3811.0,-0.0043
3810.0,-0.0043
3809.0,-0.0043
3808.0,-0.0043
3807.0,-0.0043
3806.0,-0.0043
3805.0,-0.0042
3804.0,-0.004
3803.0,-0.0039
3802.0,-0.0039
3801.0,-0.004
3800.0,-0.0041
3799.0,-0.0041
3798.0,-0.004
3797.0,-0.0041
3796.0,-0.0041
3795.0,-0.0042
3794.0,-0.0043
3793.0,-0.0044
3792.0,-0.0044
3791.0,-0.0044
3790.0,-0.0044
3789.0,-0.0044
3788.0,-0.0044
3787.0,-0.0044
3786.0,-0.0043
3785.0,-0.0042
3784.0,-0.0042
3783.0,-0.0042
3782.0,-0.0042
3781.0,-0.0043
3780.0,-0.0043
3779.0,-0.0043
3778.0,-0.0042
3777.0,-0.0042
3776.0,-0.0042
3775.0,-0.0042
3774.0,-0.0043
3773.0,-0.0043
3772.0,-0.0043
3771.0,-0.0044
3770.0,-0.0044
3769.0,-0.0044
3768.0,-0.0044
3767.0,-0.0043
3766.0,-0.0043
3765.0,-0.0043
3764.0,-0.0043
3763.0,-0.0043
3762.0,-0.0043
3761.0,-0.0042
3760.0,-0.0042
3759.0,-0.0042
3758.0,-0.0041
3757.0,-0.0041
3756.0,-0.0041
3755.0,-0.004
3754.0,-0.0039
3753.0,-0.0038
3752.0,-0.0038
3751.0,-0.0039
3750.0,-0.004
3749.0,-0.0041
3748.0,-0.0042
3747.0,-0.0042
3746.0,-0.0042
3745.0,-0.0042
3744.0,-0.0042
3743.0,-0.0042
3742.0,-0.0042
3741.0,-0.0042
3740.0,-0.0043
3739.0,-0.0044
3738.0,-0.0045
3737.0,-0.0046
3736.0,-0.0045
3735.0,-0.0044
3734.0,-0.0045
3733.0,-0.0046
3732.0,-0.0048
3731.0,-0.005
3730.0,-0.005
3729.0,-0.005
3728.0,-0.005
3727.0,-0.0049
3726.0,-0.0047
3725.0,-0.0046
3724.0,-0.0045
3723.0,-0.0045
3722.0,-0.0045
3721.0,-0.0045
3720.0,-0.0044
3719.0,-0.0043
3718.0,-0.0042
3717.0,-0.0041
3716.0,-0.0041
3715.0,-0.004
3714.0,-0.004
3713.0,-0.0041
3712.0,-0.0042
3711.0,-0.0043
3710.0,-0.0044
3709.0,-0.0044
3708.0,-0.0043
3707.0,-0.0042
3706.0,-0.004
3705.0,-0.0039
3704.0,-0.0037
3703.0,-0.0036
3702.0,-0.0037
3701.0,-0.0037
3700.0,-0.0038
3699.0,-0.0038
3698.0,-0.0037
3697.0,-0.0037
3696.0,-0.0036
3695.0,-0.0036
3694.0,-0.0035
3693.0,-0.0034
3692.0,-0.0032
3691.0,-0.003
3690.0,-0.0029
3689.0,-0.0028
3688.0,-0.0029
3687.0,-0.0029
3686.0,-0.0029
3685.0,-0.0028
3684.0,-0.0027
3683.0,-0.0026
3682.0,-0.0024
3681.0,-0.0022
3680.0,-0.0021
3679.0,-0.0019
3678.0,-0.0018
3677.0,-0.0016
3676.0,-0.0016
3675.0,-0.0015
3674.0,-0.0015
3673.0,-0.0014
3672.0,-0.0013
3671.0,-0.0013
3670.0,-0.0012
3669.0,-0.0011
3668.0,-0.0009
3667.0,-0.0007
3666.0,-0.0005
3665.0,-0.0003
3664.0,-0.0002
3663.0,-0.0001
3662.0,-0.0001
3661.0,-0.0
3660.0,0.0001
3659.0,0.0003
3658.0,0.0005
3657.0,0.0008
3656.0,0.0011
3655.0,0.0013
3654.0,0.0016
3653.0,0.0019
3652.0,0.0021
3651.0,0.0022
3650.0,0.0024
3649.0,0.0026
3648.0,0.0029
3647.0,0.0031
3646.0,0.0033
3645.0,0.0034
3644.0,0.0035
3643.0,0.0037
3642.0,0.0039
3641.0,0.0041
3640.0,0.0043
3639.0,0.0045
3638.0,0.0048
3637.0,0.005
3636.0,0.0052
3635.0,0.0054
3634.0,0.0055
3633.0,0.0056
3632.0,0.0057
3631.0,0.006
3630.0,0.0064
3629.0,0.0069
3628.0,0.0073
3627.0,0.0075
3626.0,0.0078
3625.0,0.008
3624.0,0.0082
3623.0,0.0085
3622.0,0.0088
3621.0,0.009
3620.0,0.0093
3619.0,0.0097
3618.0,0.01
3617.0,0.0104
3616.0,0.0108
3615.0,0.0112
3614.0,0.0116
3613.0,0.0119
3612.0,0.0122
3611.0,0.0124
3610.0,0.0126
3609.0,0.0128
3608.0,0.0131
3607.0,0.0136
3606.0,0.014
3605.0,0.0143
3604.0,0.0145
3603.0,0.0147
3602.0,0.0148
3601.0,0.015
3600.0,0.0153
3599.0,0.0156
3598.0,0.016
3597.0,0.0162
3596.0,0.0165
3595.0,0.0167
3594.0,0.0169
3593.0,0.0171
3592.0,0.0173
3591.0,0.0174
3590.0,0.0176
3589.0,0.0178
3588.0,0.0183
3587.0,0.0188
3586.0,0.0192
3585.0,0.0196
3584.0,0.0199
3583.0,0.0202
3582.0,0.0205
3581.0,0.0208
3580.0,0.0212
3579.0,0.0215
3578.0,0.0218
3577.0,0.022
3576.0,0.0222
3575.0,0.0224
3574.0,0.0227
3573.0,0.0229
3572.0,0.0232
3571.0,0.0235
3570.0,0.0238
3569.0,0.0241
3568.0,0.0244
3567.0,0.0249
3566.0,0.0253
3565.0,0.0258
3564.0,0.0261
3563.0,0.0263
3562.0,0.0264
3561.0,0.0265
3560.0,0.0268
3559.0,0.0271
3558.0,0.0275
3557.0,0.0279
3556.0,0.0281
3555.0,0.0283
3554.0,0.0285
3553.0,0.0288
3552.0,0.029
3551.0,0.0293
3550.0,0.0296
3549.0,0.0298
3548.0,0.0301
3547.0,0.0304
3546.0,0.0308
3545.0,0.0312
3544.0,0.0315
3543.0,0.0317
3542.0,0.0319
3541.0,0.0321
3540.0,0.0324
3539.0,0.0327
3538.0,0.033
3537.0,0.0333
3536.0,0.0336
3535.0,0.0339
3534.0,0.0342
3533.0,0.0345
3532.0,0.0348
3531.0,0.0351
3530.0,0.0354
3529.0,0.0356
3528.0,0.036
3527.0,0.0363
3526.0,0.0366
3525.0,0.0369
3524.0,0.0372
3523.0,0.0375
3522.0,0.038
3521.0,0.0383
3520.0,0.0386
3519.0,0.0388
3518.0,0.039
3517.0,0.0393
3516.0,0.0397
3515.0,0.04
3514.0,0.0404
3513.0,0.0407
3512.0,0.041
3511.0,0.0413
3510.0,0.0416
3509.0,0.0419
3508.0,0.0422
3507.0,0.0424
3506.0,0.0427
3505.0,0.0431
3504.0,0.0435
3503.0,0.0439
3502.0,0.0443
3501.0,0.0446
3500.0,0.0448
3499.0,0.0451
3498.0,0.0455
3497.0,0.0458
3496.0,0.0462
3495.0,0.0466
3494.0,0.047
3493.0,0.0474
3492.0,0.0477
3491.0,0.048
3490.0,0.0484
3489.0,0.0487
3488.0,0.049
3487.0,0.0494
3486.0,0.0497
3485.0,0.05
3484.0,0.0503
3483.0,0.0507
3482.0,0.0511
3481.0,0.0516
3480.0,0.052
3479.0,0.0523
3478.0,0.0527
3477.0,0.053
3476.0,0.0533
3475.0,0.0536
3474.0,0.054
3473.0,0.0543
3472.0,0.0547
3471.0,0.0551
3470.0,0.0555
3469.0,0.0559
3468.0,0.0564
3467.0,0.0567
3466.0,0.0571
3465.0,0.0574
3464.0,0.0578
3463.0,0.0582
3462.0,0.0587
3461.0,0.0591
3460.0,0.0595
3459.0,0.0598
3458.0,0.0601
3457.0,0.0604
3456.0,0.0607
3455.0,0.0611
3454.0,0.0615
3453.0,0.0619
3452.0,0.0624
3451.0,0.0628
3450.0,0.0633
3449.0,0.0637
3448.0,0.0641
3447.0,0.0645
3446.0,0.065
3445.0,0.0653
3444.0,0.0657
3443.0,0.0662
3442.0,0.0666
3441.0,0.0671
3440.0,0.0675
3439.0,0.0678
3438.0,0.0681
3437.0,0.0684
3436.0,0.0688
3435.0,0.0692
3434.0,0.0696
3433.0,0.0701
3432.0,0.0705
3431.0,0.0709
3430.0,0.0712
3429.0,0.0716
3428.0,0.072
3427.0,0.0725
3426.0,0.073
3425.0,0.0734
3424.0,0.0738
3423.0,0.0741
3422.0,0.0744
3421.0,0.0748
3420.0,0.0753
3419.0,0.0759
3418.0,0.0764
3417.0,0.0769
3416.0,0.0773
3415.0,0.0777
3414.0,0.0781
3413.0,0.0785
3412.0,0.0788
3411.0,0.0792
3410.0,0.0796
3409.0,0.0801
3408.0,0.0806
3407.0,0.0811
3406.0,0.0814
3405.0,0.0817
3404.0,0.082
3403.0,0.0824
3402.0,0.0828
3401.0,0.0832
3400.0,0.0836
3399.0,0.084
3398.0,0.0843
3397.0,0.0847
3396.0,0.0851
3395.0,0.0856
3394.0,0.0861
3393.0,0.0864
3392.0,0.0868
3391.0,0.0871
3390.0,0.0875
3389.0,0.0879
3388.0,0.0883
3387.0,0.0887
3386.0,0.0891
3385.0,0.0895
3384.0,0.0899
3383.0,0.0903
3382.0,0.0907
3381.0,0.0911
3380.0,0.0914
3379.0,0.0917
3378.0,0.092
3377.0,0.0922
3376.0,0.0926
3375.0,0.093
3374.0,0.0934
3373.0,0.0939
3372.0,0.0943
3371.0,0.0946
3370.0,0.0949
3369.0,0.0951
3368.0,0.0954
3367.0,0.0956
3366.0,0.0959
3365.0,0.0962
3364.0,0.0964
3363.0,0.0967
3362.0,0.097
3361.0,0.0972
3360.0,0.0975
3359.0,0.0977
3358.0,0.0979
3357.0,0.098
3356.0,0.0982
3355.0,0.0985
3354.0,0.0988
3353.0,0.0991
3352.0,0.0993
3351.0,0.0995
3350.0,0.0997
3349.0,0.0999
3348.0,0.1002
3347.0,0.1004
3346.0,0.1006
3345.0,0.1006
3344.0,0.1007
3343.0,0.1008
3342.0,0.101
3341.0,0.1013
3340.0,0.1015
3339.0,0.1017
3338.0,0.1019
3337.0,0.102
3336.0,0.1021
3335.0,0.1022
3334.0,0.1024
3333.0,0.1025
3332.0,0.1027
3331.0,0.1028
3330.0,0.1028
3329.0,0.1029
3328.0,0.103
3327.0,0.1031
3326.0,0.1031
3325.0,0.103
3324.0,0.103
3323.0,0.1031
3322.0,0.1032
3321.0,0.1033
3320.0,0.1034
3319.0,0.1034
3318.0,0.1034
3317.0,0.1034
3316.0,0.1034
3315.0,0.1034
3314.0,0.1035
3313.0,0.1036
3312.0,0.1037
3311.0,0.1038
3310.0,0.1038
3309.0,0.1038
3308.0,0.1037
3307.0,0.1036
3306.0,0.1035
3305.0,0.1033
3304.0,0.1031
3303.0,0.1031
3302.0,0.1032
3301.0,0.1033
3300.0,0.1034
3299.0,0.1033
3298.0,0.1032
3297.0,0.1031
3296.0,0.1031
3295.0,0.103
3294.0,0.1031
3293.0,0.1031
3292.0,0.103
3291.0,0.103
3290.0,0.1029
3289.0,0.1028
3288.0,0.1027
3287.0,0.1026
3286.0,0.1026
3285.0,0.1026
3284.0,0.1026
3283.0,0.1027
3282.0,0.1027
3281.0,0.1028
3280.0,0.1028
3279.0,0.1028
3278.0,0.1027
3277.0,0.1027
3276.0,0.1026
3275.0,0.1026
3274.0,0.1026
3273.0,0.1026
3272.0,0.1026
3271.0,0.1026
3270.0,0.1026
3269.0,0.1025
3268.0,0.1025
3267.0,0.1025
3266.0,0.1026
3265.0,0.1028
3264.0,0.1028
3263.0,0.1028
3262.0,0.1026
3261.0,0.1024
3260.0,0.1022
3259.0,0.1022
3258.0,0.1023
3257.0,0.1025
3256.0,0.1025
3255.0,0.1026
3254.0,0.1027
3253.0,0.1029
3252.0,0.103
3251.0,0.1031
3250.0,0.1032
3249.0,0.1033
3248.0,0.1033
3247.0,0.1033
3246.0,0.1033
3245.0,0.1032
3244.0,0.1031
3243.0,0.103
3242.0,0.103
3241.0,0.1031
3240.0,0.1031
3239.0,0.1032
3238.0,0.1033
3237.0,0.1034
3236.0,0.1035
3235.0,0.1035
3234.0,0.1035
3233.0,0.1035
3232.0,0.1033
3231.0,0.1032
3230.0,0.1031
3229.0,0.1031
3228.0,0.103
3227.0,0.1029
3226.0,0.1028
3225.0,0.1026
3224.0,0.1024
3223.0,0.1023
3222.0,0.1022
3221.0,0.1021
3220.0,0.1019
3219.0,0.1017
3218.0,0.1016
3217.0,0.1014
3216.0,0.1014
3215.0,0.1014
3214.0,0.1014
3213.0,0.1014
3212.0,0.1012
3211.0,0.1011
3210.0,0.1009
3209.0,0.1008
3208.0,0.1006
3207.0,0.1004
3206.0,0.1003
3205.0,0.1001
3204.0,0.1001
3203.0,0.1
3202.0,0.0998
3201.0,0.0996
3200.0,0.0993
3199.0,0.0991
3198.0,0.0989
3197.0,0.0987
3196.0,0.0986
3195.0,0.0984
3194.0,0.0981
3193.0,0.0977
3192.0,0.0974
3191.0,0.0972
3190.0,0.0969
3189.0,0.0966
3188.0,0.0963
3187.0,0.096
3186.0,0.0957
3185.0,0.0955
3184.0,0.0954
3183.0,0.0951
3182.0,0.0949
3181.0,0.0947
3180.0,0.0944
3179.0,0.0942
3178.0,0.0939
3177.0,0.0936
3176.0,0.0933
3175.0,0.0929
3174.0,0.0925
3173.0,0.0922
3172.0,0.092
3171.0,0.0918
3170.0,0.0917
3169.0,0.0914
3168.0,0.091
3167.0,0.0907
3166.0,0.0903
3165.0,0.0899
3164.0,0.0896
3163.0,0.0893
3162.0,0.0889
3161.0,0.0886
3160.0,0.0883
3159.0,0.088
3158.0,0.0878
3157.0,0.0875
3156.0,0.0873
3155.0,0.087
3154.0,0.0868
3153.0,0.0865
3152.0,0.0861
3151.0,0.0857
3150.0,0.0853
3149.0,0.0848
3148.0,0.0843
3147.0,0.084
3146.0,0.0837
3145.0,0.0834
3144.0,0.0832
3143.0,0.0829
3142.0,0.0826
3141.0,0.0822
3140.0,0.0818
3139.0,0.0815
3138.0,0.0811
3137.0,0.0809
3136.0,0.0806
3135.0,0.0803
3134.0,0.08
3133.0,0.0796
3132.0,0.0793
3131.0,0.079
3130.0,0.0787
3129.0,0.0783
3128.0,0.0779
3127.0,0.0775
3126.0,0.0771
3125.0,0.0767
3124.0,0.0764
3123.0,0.0761
3122.0,0.0759
3121.0,0.0757
3120.0,0.0754
3119.0,0.075
3118.0,0.0745
3117.0,0.0741
3116.0,0.0737
3115.0,0.0734
3114.0,0.0731
3113.0,0.0727
3112.0,0.0723
3111.0,0.072
3110.0,0.0717
3109.0,0.0714
3108.0,0.071
3107.0,0.0707
3106.0,0.0704
3105.0,0.07
3104.0,0.0697
3103.0,0.0693
3102.0,0.0689
3101.0,0.0686
3100.0,0.0683
3099.0,0.068
3098.0,0.0677
3097.0,0.0674
3096.0,0.067
3095.0,0.0667
3094.0,0.0663
3093.0,0.0659
3092.0,0.0655
3091.0,0.0651
3090.0,0.0648
3089.0,0.0646
3088.0,0.0643
3087.0,0.064
3086.0,0.0637
3085.0,0.0634
3084.0,0.0631
3083.0,0.0628
3082.0,0.0624
3081.0,0.0621
3080.0,0.0619
3079.0,0.0616
3078.0,0.0612
3077.0,0.0608
3076.0,0.0604
3075.0,0.06
3074.0,0.0597
3073.0,0.0594
3072.0,0.0592
3071.0,0.0589
3070.0,0.0585
3069.0,0.0582
3068.0,0.0578
3067.0,0.0574
3066.0,0.0571
3065.0,0.0567
3064.0,0.0564
3063.0,0.0561
3062.0,0.0558
3061.0,0.0556
3060.0,0.0553
3059.0,0.055
3058.0,0.0547
3057.0,0.0544
3056.0,0.0542
3055.0,0.0539
3054.0,0.0535
3053.0,0.0532
3052.0,0.053
3051.0,0.0527
3050.0,0.0524
3049.0,0.052
3048.0,0.0517
3047.0,0.0515
3046.0,0.0512
3045.0,0.0509
3044.0,0.0506
3043.0,0.0503
3042.0,0.05
3041.0,0.0497
3040.0,0.0494
3039.0,0.0491
3038.0,0.0489
3037.0,0.0486
3036.0,0.0484
3035.0,0.0481
3034.0,0.0478
3033.0,0.0476
3032.0,0.0473
3031.0,0.0471
3030.0,0.0468
3029.0,0.0465
3028.0,0.0462
3027.0,0.046
3026.0,0.0457
3025.0,0.0454
3024.0,0.0452
3023.0,0.0449
3022.0,0.0446
3021.0,0.0443
3020.0,0.0441
3019.0,0.0439
3018.0,0.0437
3017.0,0.0435
3016.0,0.0432
3015.0,0.043
3014.0,0.0428
3013.0,0.0426
3012.0,0.0423
3011.0,0.042
3010.0,0.0417
3009.0,0.0414
3008.0,0.0413
3007.0,0.0411
3006.0,0.0409
3005.0,0.0406
3004.0,0.0404
3003.0,0.0402
3002.0,0.04
3001.0,0.0399
3000.0,0.0396
2999.0,0.0394
2998.0,0.0391
2997.0,0.0388
2996.0,0.0386
2995.0,0.0384
2994.0,0.0382
2993.0,0.038
2992.0,0.0378
2991.0,0.0376
2990.0,0.0374
2989.0,0.0371
2988.0,0.0369
2987.0,0.0367
2986.0,0.0365
2985.0,0.0364
2984.0,0.0362
2983.0,0.036
2982.0,0.0357
2981.0,0.0355
2980.0,0.0352
2979.0,0.035
2978.0,0.0349
2977.0,0.0348
2976.0,0.0346
2975.0,0.0344
2974.0,0.0342
2973.0,0.034
2972.0,0.0338
2971.0,0.0336
2970.0,0.0333
2969.0,0.0331
2968.0,0.0329
2967.0,0.0328
2966.0,0.0327
2965.0,0.0325
2964.0,0.0324
2963.0,0.0322
2962.0,0.032
2961.0,0.0318
2960.0,0.0317
2959.0,0.0315
2958.0,0.0314
2957.0,0.0312
2956.0,0.0311
2955.0,0.0309
2954.0,0.0308
2953.0,0.0307
2952.0,0.0305
2951.0,0.0303
2950.0,0.03
2949.0,0.0298
2948.0,0.0296
2947.0,0.0295
2946.0,0.0293
2945.0,0.0292
2944.0,0.029
2943.0,0.0289
2942.0,0.0288
2941.0,0.0286
2940.0,0.0284
2939.0,0.0281
2938.0,0.0279
2937.0,0.0277
2936.0,0.0276
2935.0,0.0276
2934.0,0.0275
2933.0,0.0274
2932.0,0.0273
2931.0,0.0271
2930.0,0.027
2929.0,0.0268
2928.0,0.0267
2927.0,0.0265
2926.0,0.0264
2925.0,0.0262
2924.0,0.026
2923.0,0.0258
2922.0,0.0256
2921.0,0.0255
2920.0,0.0255
2919.0,0.0254
2918.0,0.0253
2917.0,0.0252
2916.0,0.0251
2915.0,0.0249
2914.0,0.0247
2913.0,0.0246
2912.0,0.0244
2911.0,0.0243
2910.0,0.0242
2909.0,0.0241
2908.0,0.0239
2907.0,0.0238
2906.0,0.0237
2905.0,0.0235
2904.0,0.0234
2903.0,0.0233
2902.0,0.0232
2901.0,0.0231
2900.0,0.0229
2899.0,0.0227
2898.0,0.0226
2897.0,0.0226
2896.0,0.0225
2895.0,0.0224
2894.0,0.0223
2893.0,0.0223
2892.0,0.0222
2891.0,0.022
2890.0,0.0219
2889.0,0.0217
2888.0,0.0216
2887.0,0.0215
2886.0,0.0214
2885.0,0.0213
2884.0,0.0212
2883.0,0.0211
2882.0,0.021
2881.0,0.0209
2880.0,0.0208
2879.0,0.0207
2878.0,0.0206
2877.0,0.0204
2876.0,0.0203
2875.0,0.0202
2874.0,0.0202
2873.0,0.0201
2872.0,0.02
2871.0,0.0199
2870.0,0.0197
2869.0,0.0196
2868.0,0.0196
2867.0,0.0195
2866.0,0.0195
2865.0,0.0194
2864.0,0.0193
2863.0,0.0192
2862.0,0.0191
2861.0,0.0191
2860.0,0.0191
2859.0,0.0191
2858.0,0.0189
2857.0,0.0187
2856.0,0.0186
2855.0,0.0184
2854.0,0.0184
2853.0,0.0183
2852.0,0.0183
2851.0,0.0183
2850.0,0.0182
2849.0,0.0181
2848.0,0.0179
2847.0,0.0178
2846.0,0.0177
2845.0,0.0176
2844.0,0.0175
2843.0,0.0174
2842.0,0.0173
2841.0,0.0172
2840.0,0.0171
2839.0,0.017
2838.0,0.0169
2837.0,0.0168
2836.0,0.0168
2835.0,0.0167
2834.0,0.0166
2833.0,0.0165
2832.0,0.0164
2831.0,0.0163
2830.0,0.0163
2829.0,0.0163
2828.0,0.0163
2827.0,0.0162
2826.0,0.0161
2825.0,0.016
2824.0,0.0159
2823.0,0.0158
2822.0,0.0157
2821.0,0.0156
2820.0,0.0155
2819.0,0.0153
2818.0,0.0152
2817.0,0.0151
2816.0,0.015
2815.0,0.015
2814.0,0.015
2813.0,0.0149
2812.0,0.0149
2811.0,0.0149
2810.0,0.0148
2809.0,0.0148
2808.0,0.0147
2807.0,0.0146
2806.0,0.0146
2805.0,0.0146
2804.0,0.0146
2803.0,0.0146
2802.0,0.0145
2801.0,0.0145
2800.0,0.0144
2799.0,0.0143
2798.0,0.0142
2797.0,0.0142
2796.0,0.0141
2795.0,0.0141
2794.0,0.014
2793.0,0.0138
2792.0,0.0137
2791.0,0.0136
2790.0,0.0136
2789.0,0.0136
2788.0,0.0136
2787.0,0.0136
2786.0,0.0136
2785.0,0.0135
2784.0,0.0134
2783.0,0.0134
2782.0,0.0134
2781.0,0.0134
2780.0,0.0133
2779.0,0.0132
2778.0,0.0132
2777.0,0.0132
2776.0,0.0132
2775.0,0.0131
2774.0,0.0129
2773.0,0.0128
2772.0,0.0128
2771.0,0.0128
2770.0,0.0128
2769.0,0.0127
2768.0,0.0127
2767.0,0.0126
2766.0,0.0126
2765.0,0.0125
2764.0,0.0125
2763.0,0.0125
2762.0,0.0125
2761.0,0.0125
2760.0,0.0125
2759.0,0.0124
2758.0,0.0124
2757.0,0.0124
2756.0,0.0123
2755.0,0.0123
2754.0,0.0122
2753.0,0.0122
2752.0,0.0121
2751.0,0.0121
2750.0,0.012
2749.0,0.0119
2748.0,0.0119
2747.0,0.0118
2746.0,0.0118
2745.0,0.0118
2744.0,0.0118
2743.0,0.0118
2742.0,0.0118
2741.0,0.0117
2740.0,0.0117
2739.0,0.0116
2738.0,0.0116
2737.0,0.0115
2736.0,0.0115
2735.0,0.0115
2734.0,0.0114
2733.0,0.0113
2732.0,0.0113
2731.0,0.0112
2730.0,0.0112
2729.0,0.0112
2728.0,0.0111
2727.0,0.0111
2726.0,0.0111
2725.0,0.0111
2724.0,0.011
2723.0,0.011
2722.0,0.0109
2721.0,0.0109
2720.0,0.0108
2719.0,0.0108
2718.0,0.0108
2717.0,0.0108
2716.0,0.0108
2715.0,0.0108
2714.0,0.0107
2713.0,0.0106
2712.0,0.0106
2711.0,0.0105
2710.0,0.0105
2709.0,0.0105
2708.0,0.0106
2707.0,0.0106
2706.0,0.0106
2705.0,0.0105
2704.0,0.0105
2703.0,0.0104
2702.0,0.0104
2701.0,0.0103
2700.0,0.0103
2699.0,0.0102
2698.0,0.0102
2697.0,0.0102
2696.0,0.0102
2695.0,0.0102
2694.0,0.0101
2693.0,0.0101
2692.0,0.01
2691.0,0.01
2690.0,0.01
2689.0,0.01
2688.0,0.0099
2687.0,0.0099
2686.0,0.0099
2685.0,0.0099
2684.0,0.0099
2683.0,0.0099
2682.0,0.0099
2681.0,0.0098
2680.0,0.0098
2679.0,0.0097
2678.0,0.0097
2677.0,0.0096
2676.0,0.0096
2675.0,0.0096
2674.0,0.0095
2673.0,0.0095
2672.0,0.0095
2671.0,0.0094
2670.0,0.0094
2669.0,0.0094
2668.0,0.0095
2667.0,0.0095
2666.0,0.0094
2665.0,0.0094
2664.0,0.0094
2663.0,0.0094
2662.0,0.0093
2661.0,0.0093
2660.0,0.0092
2659.0,0.0092
2658.0,0.0092
2657.0,0.0092
2656.0,0.0092
2655.0,0.0091
2654.0,0.0091
2653.0,0.0091
2652.0,0.0091
2651.0,0.0092
2650.0,0.0092
2649.0,0.0092
2648.0,0.0091
2647.0,0.009
2646.0,0.009
2645.0,0.009
2644.0,0.009
2643.0,0.009
2642.0,0.009
2641.0,0.009
2640.0,0.009
2639.0,0.0089
2638.0,0.0089
2637.0,0.0088
2636.0,0.0088
2635.0,0.0087
2634.0,0.0087
2633.0,0.0087
2632.0,0.0087
2631.0,0.0087
2630.0,0.0087
2629.0,0.0087
2628.0,0.0088
2627.0,0.0088
2626.0,0.0087
2625.0,0.0087
2624.0,0.0087
2623.0,0.0087
2622.0,0.0087
2621.0,0.0087
2620.0,0.0087
2619.0,0.0087
2618.0,0.0087
2617.0,0.0087
2616.0,0.0086
2615.0,0.0085
2614.0,0.0085
2613.0,0.0085
2612.0,0.0086
2611.0,0.0086
2610.0,0.0086
2609.0,0.0085
2608.0,0.0085
2607.0,0.0085
2606.0,0.0085
2605.0,0.0085
2604.0,0.0085
2603.0,0.0085
2602.0,0.0085
2601.0,0.0084
2600.0,0.0084
2599.0,0.0083
2598.0,0.0082
2597.0,0.0082
2596.0,0.0082
2595.0,0.0082
2594.0,0.0082
2593.0,0.0082
2592.0,0.0081
2591.0,0.0081
2590.0,0.0082
2589.0,0.0082
2588.0,0.0083
2587.0,0.0083
2586.0,0.0083
2585.0,0.0083
2584.0,0.0083
2583.0,0.0083
2582.0,0.0082
2581.0,0.0082
2580.0,0.0082
2579.0,0.0081
2578.0,0.0081
2577.0,0.0081
2576.0,0.0081
2575.0,0.0081
2574.0,0.0081
2573.0,0.0081
2572.0,0.0081
2571.0,0.0082
2570.0,0.0082
2569.0,0.0082
2568.0,0.0082
2567.0,0.0081
2566.0,0.0081
2565.0,0.0081
2564.0,0.0081
2563.0,0.0081
2562.0,0.0082
2561.0,0.0082
2560.0,0.0082
2559.0,0.0081
2558.0,0.0081
2557.0,0.0081
2556.0,0.0081
2555.0,0.0081
2554.0,0.0081
2553.0,0.008
2552.0,0.008
2551.0,0.008
2550.0,0.008
2549.0,0.008
2548.0,0.008
2547.0,0.0079
2546.0,0.0079
2545.0,0.0079
2544.0,0.008
2543.0,0.008
2542.0,0.008
2541.0,0.0079
2540.0,0.008
2539.0,0.0081
2538.0,0.0081
2537.0,0.0081
2536.0,0.0081
2535.0,0.0081
2534.0,0.008
2533.0,0.008
2532.0,0.0081
2531.0,0.0081
2530.0,0.0081
2529.0,0.0081
2528.0,0.008
2527.0,0.008
2526.0,0.0081
2525.0,0.0081
2524.0,0.0081
2523.0,0.0081
2522.0,0.008
2521.0,0.008
2520.0,0.008
2519.0,0.0079
2518.0,0.0079
2517.0,0.0079
2516.0,0.008
2515.0,0.0081
2514.0,0.0081
2513.0,0.0081
2512.0,0.008
2511.0,0.008
2510.0,0.008
2509.0,0.0079
2508.0,0.008
2507.0,0.008
2506.0,0.0081
2505.0,0.0081
2504.0,0.0081
2503.0,0.0081
2502.0,0.0081
2501.0,0.0081
2500.0,0.0081
2499.0,0.0081
2498.0,0.0081
2497.0,0.0081
2496.0,0.0081
2495.0,0.0081
2494.0,0.0081
2493.0,0.0081
2492.0,0.0081
2491.0,0.0082
2490.0,0.0082
2489.0,0.0083
2488.0,0.0084
2487.0,0.0084
2486.0,0.0083
2485.0,0.0082
2484.0,0.0082
2483.0,0.0082
2482.0,0.0082
2481.0,0.0083
2480.0,0.0083
2479.0,0.0083
2478.0,0.0083
2477.0,0.0083
2476.0,0.0083
2475.0,0.0083
2474.0,0.0083
2473.0,0.0083
2472.0,0.0083
2471.0,0.0083
2470.0,0.0083
2469.0,0.0084
2468.0,0.0084
2467.0,0.0085
2466.0,0.0085
2465.0,0.0085
2464.0,0.0086
2463.0,0.0086
2462.0,0.0086
2461.0,0.0085
2460.0,0.0084
2459.0,0.0084
2458.0,0.0085
2457.0,0.0086
2456.0,0.0086
2455.0,0.0086
2454.0,0.0086
2453.0,0.0085
2452.0,0.0085
2451.0,0.0085
2450.0,0.0085
2449.0,0.0085
2448.0,0.0086
2447.0,0.0086
2446.0,0.0086
2445.0,0.0086
2444.0,0.0087
2443.0,0.0087
2442.0,0.0088
2441.0,0.0089
2440.0,0.0089
2439.0,0.0089
2438.0,0.0088
2437.0,0.0088
2436.0,0.0088
2435.0,0.0089
2434.0,0.0089
2433.0,0.0089
2432.0,0.009
2431.0,0.009
2430.0,0.009
2429.0,0.009
2428.0,0.009
2427.0,0.009
2426.0,0.009
2425.0,0.009
2424.0,0.009
2423.0,0.009
2422.0,0.009
2421.0,0.009
2420.0,0.009
2419.0,0.009
2418.0,0.0091
2417.0,0.0091
2416.0,0.0092
2415.0,0.0092
2414.0,0.0093
2413.0,0.0093
2412.0,0.0094
2411.0,0.0093
2410.0,0.0093
2409.0,0.0093
2408.0,0.0093
2407.0,0.0094
2406.0,0.0094
2405.0,0.0095
2404.0,0.0095
2403.0,0.0096
2402.0,0.0096
2401.0,0.0096
2400.0,0.0096
2399.0,0.0096
2398.0,0.0096
2397.0,0.0096
2396.0,0.0097
2395.0,0.0097
2394.0,0.0097
2393.0,0.0097
2392.0,0.0098
2391.0,0.0098
2390.0,0.0098
2389.0,0.0097
2388.0,0.0095
2387.0,0.0093
2386.0,0.0091
2385.0,0.0089
2384.0,0.0088
2383.0,0.0087
2382.0,0.0087
2381.0,0.0087
2380.0,0.0089
2379.0,0.009
2378.0,0.0091
2377.0,0.0091
2376.0,0.0091
2375.0,0.0089
2374.0,0.0085
2373.0,0.0083
2372.0,0.0083
2371.0,0.0084
2370.0,0.0085
2369.0,0.0086
2368.0,0.0086
2367.0,0.0086
2366.0,0.0085
2365.0,0.0084
2364.0,0.0083
2363.0,0.0081
2362.0,0.0081
2361.0,0.0086
2360.0,0.009
2359.0,0.0087
2358.0,0.008
2357.0,0.0075
2356.0,0.0075
2355.0,0.0079
2354.0,0.0083
2353.0,0.0087
2352.0,0.0089
2351.0,0.0088
2350.0,0.0086
2349.0,0.0084
2348.0,0.0083
2347.0,0.0084
2346.0,0.0086
2345.0,0.009
2344.0,0.0092
2343.0,0.0091
2342.0,0.0088
2341.0,0.0085
2340.0,0.0083
2339.0,0.008
2338.0,0.0077
2337.0,0.0076
2336.0,0.0079
2335.0,0.0085
2334.0,0.0093
2333.0,0.0102
2332.0,0.0108
2331.0,0.0107
2330.0,0.0099
2329.0,0.0088
2328.0,0.0079
2327.0,0.0076
2326.0,0.0079
2325.0,0.0082
2324.0,0.0085
2323.0,0.0088
2322.0,0.0092
2321.0,0.0096
2320.0,0.0097
2319.0,0.0096
2318.0,0.0094
2317.0,0.0093
2316.0,0.0093
2315.0,0.0093
2314.0,0.0093
2313.0,0.0093
2312.0,0.0092
2311.0,0.009
2310.0,0.0089
2309.0,0.0088
2308.0,0.0089
2307.0,0.009
2306.0,0.0092
2305.0,0.0093
2304.0,0.0094
2303.0,0.0094
2302.0,0.0094
2301.0,0.0094
2300.0,0.0095
2299.0,0.0096
2298.0,0.0096
2297.0,0.0097
2296.0,0.0099
2295.0,0.01
2294.0,0.0102
2293.0,0.0104
2292.0,0.0105
2291.0,0.0105
2290.0,0.0106
2289.0,0.0108
2288.0,0.0109
2287.0,0.011
2286.0,0.0111
2285.0,0.0112
2284.0,0.0112
2283.0,0.0112
2282.0,0.0112
2281.0,0.0112
2280.0,0.0112
2279.0,0.0112
2278.0,0.0112
2277.0,0.0112
2276.0,0.0111
2275.0,0.0112
2274.0,0.0112
2273.0,0.0112
2272.0,0.0113
2271.0,0.0113
2270.0,0.0113
2269.0,0.0112
2268.0,0.0112
2267.0,0.0112
2266.0,0.0111
2265.0,0.0111
2264.0,0.0112
2263.0,0.0112
2262.0,0.0113
2261.0,0.0113
2260.0,0.0113
2259.0,0.0113
2258.0,0.0113
2257.0,0.0113
2256.0,0.0113
2255.0,0.0114
2254.0,0.0114
2253.0,0.0115
2252.0,0.0115
2251.0,0.0115
2250.0,0.0115
2249.0,0.0115
2248.0,0.0116
2247.0,0.0116
2246.0,0.0115
2245.0,0.0115
2244.0,0.0115
2243.0,0.0115
2242.0,0.0115
2241.0,0.0115
2240.0,0.0115
2239.0,0.0114
2238.0,0.0115
2237.0,0.0115
2236.0,0.0115
2235.0,0.0115
2234.0,0.0114
2233.0,0.0114
2232.0,0.0114
2231.0,0.0114
2230.0,0.0114
2229.0,0.0115
2228.0,0.0116
2227.0,0.0116
2226.0,0.0116
2225.0,0.0116
2224.0,0.0116
2223.0,0.0116
2222.0,0.0116
2221.0,0.0115
2220.0,0.0115
2219.0,0.0114
2218.0,0.0114
2217.0,0.0114
2216.0,0.0113
2215.0,0.0113
2214.0,0.0113
2213.0,0.0113
2212.0,0.0114
2211.0,0.0113
2210.0,0.0113
2209.0,0.0113
2208.0,0.0113
2207.0,0.0114
2206.0,0.0114
2205.0,0.0115
2204.0,0.0115
2203.0,0.0115
2202.0,0.0114
2201.0,0.0114
2200.0,0.0113
2199.0,0.0113
2198.0,0.0112
2197.0,0.0112
2196.0,0.0111
2195.0,0.0111
2194.0,0.0111
2193.0,0.0112
2192.0,0.0112
2191.0,0.0113
2190.0,0.0113
2189.0,0.0113
2188.0,0.0112
2187.0,0.0112
2186.0,0.0112
2185.0,0.0111
2184.0,0.0111
2183.0,0.0111
2182.0,0.0111
2181.0,0.0111
2180.0,0.0112
2179.0,0.0112
2178.0,0.0112
2177.0,0.0112
2176.0,0.0111
2175.0,0.0111
2174.0,0.0111
2173.0,0.0111
2172.0,0.0111
2171.0,0.0111
2170.0,0.0111
2169.0,0.0111
2168.0,0.0112
2167.0,0.0112
2166.0,0.0112
2165.0,0.0112
2164.0,0.0112
2163.0,0.0111
2162.0,0.0111
2161.0,0.0111
2160.0,0.0111
2159.0,0.0111
2158.0,0.0111
2157.0,0.011
2156.0,0.011
2155.0,0.011
2154.0,0.011
2153.0,0.011
2152.0,0.0111
2151.0,0.0111
2150.0,0.0111
2149.0,0.0111
2148.0,0.0111
2147.0,0.0111
2146.0,0.0111
2145.0,0.0111
2144.0,0.0111
2143.0,0.0111
2142.0,0.0111
2141.0,0.0111
2140.0,0.011
2139.0,0.011
2138.0,0.011
2137.0,0.011
2136.0,0.011
2135.0,0.0109
2134.0,0.0109
2133.0,0.011
2132.0,0.011
2131.0,0.011
2130.0,0.011
2129.0,0.0109
2128.0,0.0109
2127.0,0.0109
2126.0,0.0109
2125.0,0.011
2124.0,0.011
2123.0,0.011
2122.0,0.0109
2121.0,0.0109
2120.0,0.0109
2119.0,0.0109
2118.0,0.011
2117.0,0.011
2116.0,0.011
2115.0,0.0109
2114.0,0.0109
2113.0,0.011
2112.0,0.011
2111.0,0.011
2110.0,0.011
2109.0,0.0109
2108.0,0.0109
2107.0,0.0108
2106.0,0.0109
2105.0,0.0109
2104.0,0.011
2103.0,0.011
2102.0,0.011
2101.0,0.011
2100.0,0.011
2099.0,0.011
2098.0,0.011
2097.0,0.011
2096.0,0.011
2095.0,0.011
2094.0,0.011
2093.0,0.0111
2092.0,0.0111
2091.0,0.0111
2090.0,0.0111
2089.0,0.0111
2088.0,0.011
2087.0,0.011
2086.0,0.011
2085.0,0.011
2084.0,0.011
2083.0,0.011
2082.0,0.011
2081.0,0.011
2080.0,0.011
2079.0,0.011
2078.0,0.011
2077.0,0.011
2076.0,0.011
2075.0,0.011
2074.0,0.011
2073.0,0.011
2072.0,0.011
2071.0,0.011
2070.0,0.011
2069.0,0.0109
2068.0,0.0109
2067.0,0.011
2066.0,0.011
2065.0,0.011
2064.0,0.011
2063.0,0.0109
2062.0,0.0109
2061.0,0.0108
2060.0,0.0108
2059.0,0.0108
2058.0,0.0108
2057.0,0.0108
2056.0,0.0108
2055.0,0.0108
2054.0,0.0108
2053.0,0.0108
2052.0,0.0107
2051.0,0.0107
2050.0,0.0108
2049.0,0.0108
2048.0,0.0108
2047.0,0.0107
2046.0,0.0107
2045.0,0.0107
2044.0,0.0107
2043.0,0.0106
2042.0,0.0106
2041.0,0.0105
2040.0,0.0105
2039.0,0.0104
2038.0,0.0105
2037.0,0.0105
2036.0,0.0105
2035.0,0.0105
2034.0,0.0105
2033.0,0.0105
2032.0,0.0105
2031.0,0.0105
2030.0,0.0105
2029.0,0.0105
2028.0,0.0105
2027.0,0.0105
2026.0,0.0104
2025.0,0.0104
2024.0,0.0103
2023.0,0.0102
2022.0,0.0101
2021.0,0.0101
2020.0,0.0102
2019.0,0.0102
2018.0,0.0102
2017.0,0.0102
2016.0,0.0101
2015.0,0.0101
2014.0,0.0101
2013.0,0.0101
2012.0,0.0101
2011.0,0.0101
2010.0,0.01
2009.0,0.01
2008.0,0.01
2007.0,0.01
2006.0,0.0099
2005.0,0.0099
2004.0,0.0099
2003.0,0.0098
2002.0,0.0098
2001.0,0.0098
2000.0,0.0097
1999.0,0.0097
1998.0,0.0097
1997.0,0.0097
1996.0,0.0097
1995.0,0.0096
1994.0,0.0096
1993.0,0.0096
1992.0,0.0095
1991.0,0.0096
1990.0,0.0096
1989.0,0.0096
1988.0,0.0095
1987.0,0.0095
1986.0,0.0095
1985.0,0.0094
1984.0,0.0094
1983.0,0.0094
1982.0,0.0094
1981.0,0.0094
1980.0,0.0093
1979.0,0.0093
1978.0,0.0093
1977.0,0.0093
1976.0,0.0093
1975.0,0.0093
1974.0,0.0093
1973.0,0.0092
1972.0,0.0092
1971.0,0.0091
1970.0,0.0091
1969.0,0.0091
1968.0,0.0091
1967.0,0.0091
1966.0,0.009
1965.0,0.009
1964.0,0.009
1963.0,0.009
1962.0,0.009
1961.0,0.009
1960.0,0.0089
1959.0,0.0089
1958.0,0.0089
1957.0,0.0088
1956.0,0.0088
1955.0,0.0087
1954.0,0.0087
1953.0,0.0087
1952.0,0.0088
1951.0,0.0088
1950.0,0.0088
1949.0,0.0088
1948.0,0.0088
1947.0,0.0087
1946.0,0.0087
1945.0,0.0087
1944.0,0.0087
1943.0,0.0087
1942.0,0.0087
1941.0,0.0086
1940.0,0.0086
1939.0,0.0086
1938.0,0.0085
1937.0,0.0085
1936.0,0.0084
1935.0,0.0083
1934.0,0.0083
1933.0,0.0083
1932.0,0.0083
1931.0,0.0083
1930.0,0.0083
1929.0,0.0083
1928.0,0.0083
1927.0,0.0083
1926.0,0.0083
1925.0,0.0084
1924.0,0.0084
1923.0,0.0084
1922.0,0.0084
1921.0,0.0083
1920.0,0.0083
1919.0,0.0083
1918.0,0.0083
1917.0,0.0083
1916.0,0.0083
1915.0,0.0083
1914.0,0.0083
1913.0,0.0083
1912.0,0.0083
1911.0,0.0082
1910.0,0.0081
1909.0,0.0081
1908.0,0.008
1907.0,0.0081
1906.0,0.0081
1905.0,0.0082
1904.0,0.0082
1903.0,0.0082
1902.0,0.0082
1901.0,0.0082
1900.0,0.0081
1899.0,0.0081
1898.0,0.0081
1897.0,0.0081
1896.0,0.0081
1895.0,0.0081
1894.0,0.0081
1893.0,0.0081
1892.0,0.0081
1891.0,0.0082
1890.0,0.0081
1889.0,0.0081
1888.0,0.0081
1887.0,0.0081
1886.0,0.0081
1885.0,0.0081
1884.0,0.0081
1883.0,0.0081
1882.0,0.0081
1881.0,0.008
1880.0,0.008
1879.0,0.008
1878.0,0.008
1877.0,0.008
1876.0,0.008
1875.0,0.008
1874.0,0.008
1873.0,0.008
1872.0,0.008
1871.0,0.008
1870.0,0.008
1869.0,0.008
1868.0,0.0079
1867.0,0.0079
1866.0,0.0079
1865.0,0.0079
1864.0,0.0079
1863.0,0.0079
1862.0,0.0079
1861.0,0.0079
1860.0,0.0079
1859.0,0.0079
1858.0,0.0078
1857.0,0.0078
1856.0,0.0077
1855.0,0.0077
1854.0,0.0077
1853.0,0.0077
1852.0,0.0078
1851.0,0.0078
1850.0,0.0078
1849.0,0.0078
1848.0,0.0078
1847.0,0.0078
1846.0,0.0079
1845.0,0.0079
1844.0,0.0079
1843.0,0.0078
1842.0,0.0077
1841.0,0.0076
1840.0,0.0076
1839.0,0.0076
1838.0,0.0076
1837.0,0.0076
1836.0,0.0076
1835.0,0.0076
1834.0,0.0076
1833.0,0.0075
1832.0,0.0075
1831.0,0.0074
1830.0,0.0074
1829.0,0.0074
1828.0,0.0075
1827.0,0.0076
1826.0,0.0076
1825.0,0.0076
1824.0,0.0076
1823.0,0.0075
1822.0,0.0075
1821.0,0.0075
1820.0,0.0075
1819.0,0.0075
1818.0,0.0074
1817.0,0.0074
1816.0,0.0074
1815.0,0.0074
1814.0,0.0074
1813.0,0.0074
1812.0,0.0074
1811.0,0.0074
1810.0,0.0074
1809.0,0.0074
1808.0,0.0074
1807.0,0.0074
1806.0,0.0074
1805.0,0.0074
1804.0,0.0075
1803.0,0.0075
1802.0,0.0074
1801.0,0.0074
1800.0,0.0073
1799.0,0.0073
1798.0,0.0073
1797.0,0.0073
1796.0,0.0073
1795.0,0.0073
1794.0,0.0073
1793.0,0.0073
1792.0,0.0073
1791.0,0.0073
1790.0,0.0073
1789.0,0.0074
1788.0,0.0074
1787.0,0.0075
1786.0,0.0075
1785.0,0.0075
1784.0,0.0075
1783.0,0.0075
1782.0,0.0075
1781.0,0.0075
1780.0,0.0075
1779.0,0.0075
1778.0,0.0075
1777.0,0.0074
1776.0,0.0074
1775.0,0.0074
1774.0,0.0074
1773.0,0.0075
1772.0,0.0075
1771.0,0.0075
1770.0,0.0075
1769.0,0.0076
1768.0,0.0077
1767.0,0.0077
1766.0,0.0077
1765.0,0.0077
1764.0,0.0078
1763.0,0.0078
1762.0,0.0079
1761.0,0.0079
1760.0,0.0079
1759.0,0.008
1758.0,0.0081
1757.0,0.0081
1756.0,0.0082
1755.0,0.0082
1754.0,0.0081
1753.0,0.0081
1752.0,0.0082
1751.0,0.0083
1750.0,0.0084
1749.0,0.0085
1748.0,0.0086
1747.0,0.0086
1746.0,0.0086
1745.0,0.0087
1744.0,0.0088
1743.0,0.0089
1742.0,0.0089
1741.0,0.009
1740.0,0.0091
1739.0,0.0091
1738.0,0.0091
1737.0,0.0092
1736.0,0.0094
1735.0,0.0095
1734.0,0.0096
1733.0,0.0097
1732.0,0.0099
1731.0,0.0101
1730.0,0.0102
1729.0,0.0103
1728.0,0.0105
1727.0,0.0107
1726.0,0.0109
1725.0,0.0111
1724.0,0.0113
1723.0,0.0115
1722.0,0.0116
1721.0,0.0117
1720.0,0.012
1719.0,0.0123
1718.0,0.0125
1717.0,0.0127
1716.0,0.013
1715.0,0.0133
1714.0,0.0136
1713.0,0.014
1712.0,0.0143
1711.0,0.0147
1710.0,0.015
1709.0,0.0152
1708.0,0.0156
1707.0,0.016
1706.0,0.0165
1705.0,0.017
1704.0,0.0174
1703.0,0.0178
1702.0,0.0182
1701.0,0.0188
1700.0,0.0194
1699.0,0.0198
1698.0,0.0201
1697.0,0.0207
1696.0,0.0216
1695.0,0.0224
1694.0,0.023
1693.0,0.0237
1692.0,0.0244
1691.0,0.0252
1690.0,0.026
1689.0,0.0268
1688.0,0.0275
1687.0,0.0281
1686.0,0.0288
1685.0,0.0298
1684.0,0.0312
1683.0,0.0322
1682.0,0.0329
1681.0,0.0337
1680.0,0.0346
1679.0,0.0355
1678.0,0.0362
1677.0,0.0369
1676.0,0.038
1675.0,0.0391
1674.0,0.0401
1673.0,0.0409
1672.0,0.0417
1671.0,0.0426
1670.0,0.0437
1669.0,0.0449
1668.0,0.046
1667.0,0.0468
1666.0,0.0475
1665.0,0.0482
1664.0,0.0492
1663.0,0.0502
1662.0,0.0513
1661.0,0.0522
1660.0,0.0532
1659.0,0.0541
1658.0,0.0549
1657.0,0.0555
1656.0,0.0561
1655.0,0.0567
1654.0,0.0575
1653.0,0.059
1652.0,0.0605
1651.0,0.0614
1650.0,0.0621
1649.0,0.0627
1648.0,0.0636
1647.0,0.0648
1646.0,0.0659
1645.0,0.0667
1644.0,0.0675
1643.0,0.0681
1642.0,0.0687
1641.0,0.0692
1640.0,0.0697
1639.0,0.0701
1638.0,0.0702
1637.0,0.0701
1636.0,0.0701
1635.0,0.0702
1634.0,0.0702
1633.0,0.0701
1632.0,0.07
1631.0,0.0698
1630.0,0.0693
1629.0,0.0688
1628.0,0.0683
1627.0,0.0678
1626.0,0.0674
1625.0,0.0669
1624.0,0.0663
1623.0,0.0658
1622.0,0.0653
1621.0,0.0649
1620.0,0.0646
1619.0,0.0642
1618.0,0.0634
1617.0,0.0623
1616.0,0.0615
1615.0,0.061
1614.0,0.0607
1613.0,0.0602
1612.0,0.0596
1611.0,0.0589
1610.0,0.0582
1609.0,0.0574
1608.0,0.0567
1607.0,0.056
1606.0,0.0552
1605.0,0.0545
1604.0,0.0538
1603.0,0.053
1602.0,0.0523
1601.0,0.0516
1600.0,0.051
1599.0,0.0503
1598.0,0.0496
1597.0,0.0489
1596.0,0.0481
1595.0,0.0474
1594.0,0.0468
1593.0,0.0461
1592.0,0.0454
1591.0,0.0448
1590.0,0.0441
1589.0,0.0434
1588.0,0.0428
1587.0,0.0422
1586.0,0.0416
1585.0,0.041
1584.0,0.0405
1583.0,0.0399
1582.0,0.0394
1581.0,0.0388
1580.0,0.0384
1579.0,0.0379
1578.0,0.0374
1577.0,0.0367
1576.0,0.036
1575.0,0.0354
1574.0,0.0352
1573.0,0.035
1572.0,0.0347
1571.0,0.0343
1570.0,0.0338
1569.0,0.0332
1568.0,0.0328
1567.0,0.0325
1566.0,0.0322
1565.0,0.0319
1564.0,0.0315
1563.0,0.0313
1562.0,0.0311
1561.0,0.0309
1560.0,0.0303
1559.0,0.0295
1558.0,0.029
1557.0,0.0289
1556.0,0.0288
1555.0,0.0287
1554.0,0.0285
1553.0,0.0283
1552.0,0.0282
1551.0,0.0281
1550.0,0.0279
1549.0,0.0276
1548.0,0.0275
1547.0,0.0273
1546.0,0.0272
1545.0,0.027
1544.0,0.0267
1543.0,0.0263
1542.0,0.026
1541.0,0.0256
1540.0,0.0253
1539.0,0.0252
1538.0,0.0252
1537.0,0.0252
1536.0,0.0252
1535.0,0.0251
1534.0,0.0249
1533.0,0.0247
1532.0,0.0245
1531.0,0.0244
1530.0,0.0244
1529.0,0.0243
1528.0,0.0241
1527.0,0.0239
1526.0,0.0237
1525.0,0.0235
1524.0,0.0233
1523.0,0.0232
1522.0,0.0231
1521.0,0.0229
1520.0,0.0229
1519.0,0.0228
1518.0,0.0227
1517.0,0.0226
1516.0,0.0226
1515.0,0.0225
1514.0,0.0225
1513.0,0.0224
1512.0,0.0223
1511.0,0.0222
1510.0,0.0221
1509.0,0.0221
1508.0,0.0221
1507.0,0.0219
1506.0,0.0216
1505.0,0.0214
1504.0,0.0214
1503.0,0.0215
1502.0,0.0215
1501.0,0.0215
1500.0,0.0214
1499.0,0.0213
1498.0,0.0213
1497.0,0.0212
1496.0,0.0212
1495.0,0.0212
1494.0,0.0212
1493.0,0.0212
1492.0,0.0211
1491.0,0.021
1490.0,0.021
1489.0,0.021
1488.0,0.021
1487.0,0.021
1486.0,0.021
1485.0,0.021
1484.0,0.021
1483.0,0.021
1482.0,0.021
1481.0,0.0209
1480.0,0.0209
1479.0,0.0209
1478.0,0.0209
1477.0,0.0209
1476.0,0.0209
1475.0,0.0209
1474.0,0.0209
1473.0,0.0209
1472.0,0.0209
1471.0,0.0209
1470.0,0.0209
1469.0,0.0209
1468.0,0.021
1467.0,0.021
1466.0,0.021
1465.0,0.021
1464.0,0.021
1463.0,0.0211
1462.0,0.0211
1461.0,0.0212
1460.0,0.0212
1459.0,0.0213
1458.0,0.0213
1457.0,0.0214
1456.0,0.0214
1455.0,0.0213
1454.0,0.0213
1453.0,0.0213
1452.0,0.0213
1451.0,0.0212
1450.0,0.0212
1449.0,0.0212
1448.0,0.0213
1447.0,0.0213
1446.0,0.0213
1445.0,0.0213
1444.0,0.0213
1443.0,0.0213
1442.0,0.0213
1441.0,0.0214
1440.0,0.0214
1439.0,0.0214
1438.0,0.0213
1437.0,0.0212
1436.0,0.0212
1435.0,0.0212
1434.0,0.0213
1433.0,0.0213
1432.0,0.0213
1431.0,0.0214
1430.0,0.0214
1429.0,0.0214
1428.0,0.0214
1427.0,0.0213
1426.0,0.0213
1425.0,0.0213
1424.0,0.0213
1423.0,0.0213
1422.0,0.0212
1421.0,0.0212
1420.0,0.0212
1419.0,0.0212
1418.0,0.0212
1417.0,0.0212
1416.0,0.0212
1415.0,0.0211
1414.0,0.0211
1413.0,0.0211
1412.0,0.0211
1411.0,0.0211
1410.0,0.0211
1409.0,0.0211
1408.0,0.0211
1407.0,0.0211
1406.0,0.0211
1405.0,0.0211
1404.0,0.0211
1403.0,0.0211
1402.0,0.0212
1401.0,0.0212
1400.0,0.0213
1399.0,0.0213
1398.0,0.0213
1397.0,0.0213
1396.0,0.0213
1395.0,0.0213
1394.0,0.0212
1393.0,0.0211
1392.0,0.0211
1391.0,0.021
1390.0,0.021
1389.0,0.021
1388.0,0.021
1387.0,0.021
1386.0,0.0211
1385.0,0.0212
1384.0,0.0212
1383.0,0.0213
1382.0,0.0214
1381.0,0.0215
1380.0,0.0216
1379.0,0.0217
1378.0,0.0218
1377.0,0.0219
1376.0,0.0219
1375.0,0.0218
1374.0,0.0218
1373.0,0.0217
1372.0,0.0217
1371.0,0.0216
1370.0,0.0215
1369.0,0.0214
1368.0,0.0213
1367.0,0.0212
1366.0,0.0211
1365.0,0.021
1364.0,0.0209
1363.0,0.0208
1362.0,0.0207
1361.0,0.0205
1360.0,0.0204
1359.0,0.0203
1358.0,0.0201
1357.0,0.02
1356.0,0.0199
1355.0,0.0198
1354.0,0.0197
1353.0,0.0197
1352.0,0.0197
1351.0,0.0196
1350.0,0.0196
1349.0,0.0196
1348.0,0.0195
1347.0,0.0195
1346.0,0.0194
1345.0,0.0193
1344.0,0.0192
1343.0,0.0191
1342.0,0.0191
1341.0,0.019
1340.0,0.019
1339.0,0.019
1338.0,0.0189
1337.0,0.0189
1336.0,0.0189
1335.0,0.0189
1334.0,0.0188
1333.0,0.0188
1332.0,0.0188
1331.0,0.0188
1330.0,0.0187
1329.0,0.0187
1328.0,0.0187
1327.0,0.0187
1326.0,0.0186
1325.0,0.0186
1324.0,0.0186
1323.0,0.0186
1322.0,0.0186
1321.0,0.0185
1320.0,0.0185
1319.0,0.0185
1318.0,0.0184
1317.0,0.0184
1316.0,0.0183
1315.0,0.0183
1314.0,0.0183
1313.0,0.0183
1312.0,0.0183
1311.0,0.0183
1310.0,0.0183
1309.0,0.0183
1308.0,0.0183
1307.0,0.0183
1306.0,0.0183
1305.0,0.0183
1304.0,0.0183
1303.0,0.0183
1302.0,0.0182
1301.0,0.0182
1300.0,0.0182
1299.0,0.0182
1298.0,0.0182
1297.0,0.0182
1296.0,0.0182
1295.0,0.0182
1294.0,0.0182
1293.0,0.0182
1292.0,0.0182
1291.0,0.0182
1290.0,0.0182
1289.0,0.0182
1288.0,0.0181
1287.0,0.0181
1286.0,0.0182
1285.0,0.0182
1284.0,0.0182
1283.0,0.0182
1282.0,0.0182
1281.0,0.0182
1280.0,0.0182
1279.0,0.0182
1278.0,0.0181
1277.0,0.0181
1276.0,0.0181
1275.0,0.0181
1274.0,0.0182
1273.0,0.0182
1272.0,0.0182
1271.0,0.0182
1270.0,0.0182
1269.0,0.0182
1268.0,0.0182
1267.0,0.0183
1266.0,0.0183
1265.0,0.0183
1264.0,0.0183
1263.0,0.0183
1262.0,0.0183
1261.0,0.0183
1260.0,0.0183
1259.0,0.0183
1258.0,0.0183
1257.0,0.0183
1256.0,0.0183
1255.0,0.0183
1254.0,0.0183
1253.0,0.0183
1252.0,0.0183
1251.0,0.0184
1250.0,0.0184
1249.0,0.0184
1248.0,0.0184
1247.0,0.0184
1246.0,0.0184
1245.0,0.0184
1244.0,0.0185
1243.0,0.0185
1242.0,0.0185
1241.0,0.0186
1240.0,0.0186
1239.0,0.0186
1238.0,0.0186
1237.0,0.0187
1236.0,0.0187
1235.0,0.0187
1234.0,0.0187
1233.0,0.0188
1232.0,0.0188
1231.0,0.0188
1230.0,0.0188
1229.0,0.0189
1228.0,0.0189
1227.0,0.0189
1226.0,0.019
1225.0,0.019
1224.0,0.019
1223.0,0.019
1222.0,0.0191
1221.0,0.0192
1220.0,0.0193
1219.0,0.0193
1218.0,0.0194
1217.0,0.0194
1216.0,0.0194
1215.0,0.0194
1214.0,0.0194
1213.0,0.0195
1212.0,0.0196
1211.0,0.0197
1210.0,0.0199
1209.0,0.02
1208.0,0.0201
1207.0,0.0202
1206.0,0.0203
1205.0,0.0204
1204.0,0.0206
1203.0,0.0207
1202.0,0.0208
1201.0,0.0209
1200.0,0.0211
1199.0,0.0212
1198.0,0.0213
1197.0,0.0215
1196.0,0.0218
1195.0,0.022
1194.0,0.0221
1193.0,0.0223
1192.0,0.0226
1191.0,0.0228
1190.0,0.0231
1189.0,0.0234
1188.0,0.0237
1187.0,0.0239
1186.0,0.0242
1185.0,0.0244
1184.0,0.0246
1183.0,0.0249
1182.0,0.0251
1181.0,0.0254
1180.0,0.0257
1179.0,0.0261
1178.0,0.0264
1177.0,0.0267
1176.0,0.0271
1175.0,0.0274
1174.0,0.0278
1173.0,0.0282
1172.0,0.0286
1171.0,0.029
1170.0,0.0294
1169.0,0.0298
1168.0,0.0302
1167.0,0.0306
1166.0,0.031
1165.0,0.0315
1164.0,0.0319
1163.0,0.0323
1162.0,0.0327
1161.0,0.0332
1160.0,0.0337
1159.0,0.0342
1158.0,0.0348
1157.0,0.0353
1156.0,0.0358
1155.0,0.0363
1154.0,0.0368
1153.0,0.0372
1152.0,0.0376
1151.0,0.0379
1150.0,0.0383
1149.0,0.0387
1148.0,0.0391
1147.0,0.0396
1146.0,0.04
1145.0,0.0405
1144.0,0.0409
1143.0,0.0413
1142.0,0.0418
1141.0,0.0422
1140.0,0.0426
1139.0,0.043
1138.0,0.0434
1137.0,0.0438
1136.0,0.0442
1135.0,0.0446
1134.0,0.045
1133.0,0.0454
1132.0,0.0457
1131.0,0.0461
1130.0,0.0465
1129.0,0.0469
1128.0,0.0472
1127.0,0.0476
1126.0,0.048
1125.0,0.0483
1124.0,0.0486
1123.0,0.0488
1122.0,0.0491
1121.0,0.0493
1120.0,0.0495
1119.0,0.0497
1118.0,0.0499
1117.0,0.0501
1116.0,0.0503
1115.0,0.0505
1114.0,0.0506
1113.0,0.0507
1112.0,0.0507
1111.0,0.0508
1110.0,0.0508
1109.0,0.0509
1108.0,0.0509
1107.0,0.051
1106.0,0.051
1105.0,0.051
1104.0,0.051
1103.0,0.0509
1102.0,0.0508
1101.0,0.0507
1100.0,0.0506
1099.0,0.0505
1098.0,0.0503
1097.0,0.05
1096.0,0.0498
1095.0,0.0496
1094.0,0.0495
1093.0,0.0493
1092.0,0.049
1091.0,0.0486
1090.0,0.0483
1089.0,0.048
1088.0,0.0478
1087.0,0.0475
1086.0,0.0471
1085.0,0.0468
1084.0,0.0464
1083.0,0.0459
1082.0,0.0454
1081.0,0.0448
1080.0,0.0443
1079.0,0.0438
1078.0,0.0433
1077.0,0.0428
1076.0,0.0422
1075.0,0.0417
1074.0,0.0411
1073.0,0.0406
1072.0,0.04
1071.0,0.0394
1070.0,0.0389
1069.0,0.0383
1068.0,0.0377
1067.0,0.0372
1066.0,0.0367
1065.0,0.0362
1064.0,0.0357
1063.0,0.0352
1062.0,0.0348
1061.0,0.0343
1060.0,0.0339
1059.0,0.0335
1058.0,0.0331
1057.0,0.0328
1056.0,0.0325
1055.0,0.0323
1054.0,0.032
1053.0,0.0317
1052.0,0.0314
1051.0,0.0311
1050.0,0.0308
1049.0,0.0306
1048.0,0.0304
1047.0,0.0301
1046.0,0.0298
1045.0,0.0296
1044.0,0.0294
1043.0,0.0293
1042.0,0.0291
1041.0,0.0289
1040.0,0.0288
1039.0,0.0286
1038.0,0.0285
1037.0,0.0283
1036.0,0.0281
1035.0,0.0279
1034.0,0.0276
1033.0,0.0275
1032.0,0.0273
1031.0,0.0272
1030.0,0.0271
1029.0,0.027
1028.0,0.0269
1027.0,0.0267
1026.0,0.0265
1025.0,0.0264
1024.0,0.0263
1023.0,0.0262
1022.0,0.0262
1021.0,0.0262
1020.0,0.0261
1019.0,0.0261
1018.0,0.026
1017.0,0.0259
1016.0,0.0258
1015.0,0.0257
1014.0,0.0257
1013.0,0.0256
1012.0,0.0256
1011.0,0.0255
1010.0,0.0254
1009.0,0.0253
1008.0,0.0253
1007.0,0.0252
1006.0,0.0252
1005.0,0.0252
1004.0,0.0251
1003.0,0.0251
1002.0,0.0251
1001.0,0.0251
1000.0,0.025
999.0,0.025
998.0,0.0249
997.0,0.0249
996.0,0.0249
995.0,0.0248
994.0,0.0248
993.0,0.0247
992.0,0.0247
991.0,0.0247
990.0,0.0247
989.0,0.0248
988.0,0.0248
987.0,0.0249
986.0,0.0249
985.0,0.0248
984.0,0.0248
983.0,0.0248
982.0,0.0247
981.0,0.0246
980.0,0.0245
979.0,0.0244
978.0,0.0243
977.0,0.0242
976.0,0.0241
975.0,0.0241
974.0,0.0241
973.0,0.0241
972.0,0.0242
971.0,0.0242
970.0,0.0243
969.0,0.0243
968.0,0.0243
967.0,0.0243
966.0,0.0243
965.0,0.0243
964.0,0.0243
963.0,0.0243
962.0,0.0242
961.0,0.0242
960.0,0.0241
959.0,0.0241
958.0,0.0241
957.0,0.0242
956.0,0.0242
955.0,0.0241
954.0,0.0241
953.0,0.0241
952.0,0.0241
951.0,0.0242
950.0,0.0243
949.0,0.0244
948.0,0.0245
947.0,0.0246
946.0,0.0246
945.0,0.0246
944.0,0.0245
943.0,0.0245
942.0,0.0245
941.0,0.0245
940.0,0.0246
939.0,0.0247
938.0,0.0248
937.0,0.0248
936.0,0.0248
935.0,0.0249
934.0,0.0249
933.0,0.0249
932.0,0.025
931.0,0.025
930.0,0.0251
929.0,0.0251
928.0,0.0252
927.0,0.0252
926.0,0.0253
925.0,0.0253
924.0,0.0253
923.0,0.0254
922.0,0.0254
921.0,0.0255
920.0,0.0256
919.0,0.0257
918.0,0.0257
917.0,0.0258
916.0,0.0259
915.0,0.026
914.0,0.0261
913.0,0.0261
912.0,0.0261
911.0,0.0262
910.0,0.0262
909.0,0.0263
908.0,0.0265
907.0,0.0266
906.0,0.0267
905.0,0.0268
904.0,0.0268
903.0,0.0267
902.0,0.0268
901.0,0.0269
900.0,0.027
899.0,0.0271
898.0,0.0272
897.0,0.0272
896.0,0.0273
895.0,0.0274
894.0,0.0276
893.0,0.0277
892.0,0.0279
891.0,0.028
890.0,0.0281
889.0,0.0282
888.0,0.0282
887.0,0.0282
886.0,0.0282
885.0,0.0282
884.0,0.0283
883.0,0.0284
882.0,0.0286
881.0,0.0288
880.0,0.0289
879.0,0.029
878.0,0.0291
877.0,0.0292
876.0,0.0293
875.0,0.0293
874.0,0.0293
873.0,0.0294
872.0,0.0295
871.0,0.0297
870.0,0.0298
869.0,0.03
868.0,0.0301
867.0,0.0303
866.0,0.0304
865.0,0.0304
864.0,0.0305
863.0,0.0306
862.0,0.0308
861.0,0.031
860.0,0.0311
859.0,0.0311
858.0,0.0312
857.0,0.0313
856.0,0.0315
855.0,0.0316
854.0,0.0316
853.0,0.0317
852.0,0.0318
851.0,0.032
850.0,0.0322
849.0,0.0323
848.0,0.0324
847.0,0.0324
846.0,0.0324
845.0,0.0326
844.0,0.0327
843.0,0.0329
842.0,0.0331
841.0,0.0332
840.0,0.0334
839.0,0.0335
838.0,0.0337
837.0,0.0338
836.0,0.0339
835.0,0.034
834.0,0.0343
833.0,0.0345
832.0,0.0346
831.0,0.0348
830.0,0.0349
829.0,0.0351
828.0,0.0351
827.0,0.0352
826.0,0.0353
825.0,0.0354
824.0,0.0358
823.0,0.0361
822.0,0.0366
821.0,0.0369
820.0,0.0372
819.0,0.0373
818.0,0.0375
817.0,0.0377
816.0,0.0378
815.0,0.0379
814.0,0.0381
813.0,0.0383
812.0,0.0386
811.0,0.0387
810.0,0.0389
809.0,0.0391
808.0,0.0393
807.0,0.0397
806.0,0.04
805.0,0.0403
804.0,0.0406
803.0,0.0409
802.0,0.0412
801.0,0.0415
800.0,0.0418
799.0,0.0422
798.0,0.0425
797.0,0.0428
796.0,0.043
795.0,0.0433
794.0,0.0434
793.0,0.0437
792.0,0.044
791.0,0.0445
790.0,0.045
789.0,0.0454
788.0,0.0457
787.0,0.046
786.0,0.0463
785.0,0.0467
784.0,0.0471
783.0,0.0476
782.0,0.048
781.0,0.0483
780.0,0.0485
779.0,0.0489
778.0,0.0495
777.0,0.05
776.0,0.0505
775.0,0.051
774.0,0.0515
773.0,0.0519
772.0,0.0522
771.0,0.0524
770.0,0.0526
769.0,0.0529
768.0,0.0533
767.0,0.0538
766.0,0.0544
765.0,0.055
764.0,0.0555
763.0,0.056
762.0,0.0565
761.0,0.0569
760.0,0.0573
759.0,0.0576
758.0,0.0579
757.0,0.0584
756.0,0.059
755.0,0.0597
754.0,0.0605
753.0,0.0612
752.0,0.0618
751.0,0.0622
750.0,0.0626
749.0,0.0628
748.0,0.063
747.0,0.0634
746.0,0.064
745.0,0.0647
744.0,0.0654
743.0,0.0659
742.0,0.0664
741.0,0.0668
740.0,0.0673
739.0,0.0678
738.0,0.0682
737.0,0.0688
736.0,0.0695
735.0,0.0702
734.0,0.071
733.0,0.0717
732.0,0.0723
731.0,0.0727
730.0,0.073
729.0,0.0733
728.0,0.0737
727.0,0.074
726.0,0.0743
725.0,0.0748
724.0,0.0755
723.0,0.0761
722.0,0.0766
721.0,0.077
720.0,0.0775
719.0,0.0781
718.0,0.0787
717.0,0.0794
716.0,0.0799
715.0,0.0804
714.0,0.0808
713.0,0.0812
712.0,0.0815
711.0,0.0818
710.0,0.0821
709.0,0.0823
708.0,0.0826
707.0,0.083
706.0,0.0833
705.0,0.0836
704.0,0.0839
703.0,0.0842
702.0,0.0846
701.0,0.0848
700.0,0.0851
699.0,0.0855
698.0,0.0862
697.0,0.0871
696.0,0.0878
695.0,0.0883
694.0,0.0888
693.0,0.0894
692.0,0.0899
691.0,0.0899
690.0,0.0897
689.0,0.0894
688.0,0.0895
687.0,0.0899
686.0,0.0905
685.0,0.0911
684.0,0.0913
683.0,0.091
682.0,0.0905
681.0,0.0901
680.0,0.0901
679.0,0.0904
678.0,0.0907
677.0,0.091
676.0,0.0913
675.0,0.0918
674.0,0.0921
673.0,0.0925
672.0,0.0933
671.0,0.095
670.0,0.0977
669.0,0.1015
668.0,0.1045
667.0,0.1041
666.0,0.102
665.0,0.1001
664.0,0.0989
663.0,0.098
662.0,0.0973
661.0,0.0969
660.0,0.0966
659.0,0.0964
658.0,0.0964
657.0,0.0967
656.0,0.0972
655.0,0.0977
654.0,0.0981
653.0,0.0982
652.0,0.098
651.0,0.0977
650.0,0.0974
649.0,0.0977
648.0,0.0984
647.0,0.0992
646.0,0.0995
645.0,0.0993
644.0,0.099
643.0,0.0987
642.0,0.0986
641.0,0.0989
640.0,0.0998
639.0,0.1012
638.0,0.1027
637.0,0.1042
636.0,0.1056
635.0,0.1066
634.0,0.1068
633.0,0.1062
632.0,0.1053
631.0,0.1048
630.0,0.1049
629.0,0.1052
628.0,0.1055
627.0,0.1055
626.0,0.1052
625.0,0.1047
624.0,0.1045
623.0,0.1047
622.0,0.1055
621.0,0.1064
620.0,0.1071
619.0,0.1076
618.0,0.1084
617.0,0.11
616.0,0.112
615.0,0.1136
614.0,0.1146
613.0,0.1154
612.0,0.1162
611.0,0.1168
610.0,0.117
609.0,0.117
608.0,0.1173
607.0,0.1183
606.0,0.1194
605.0,0.1204
604.0,0.121
603.0,0.1218
602.0,0.1232
601.0,0.1253
600.0,0.1279
