cm-1,A
4000.0,0.0081
3999.0,0.0081
3998.0,0.008
3997.0,0.008
3996.0,0.0081
3995.0,0.0081
3994.0,0.0082
3993.0,0.0083
3992.0,0.0082
3991.0,0.0081
3990.0,0.0081
3989.0,0.008
3988.0,0.008
3987.0,0.008
3986.0,0.0081
3985.0,0.0081
3984.0,0.0081
3983.0,0.0081
3982.0,0.008
3981.0,0.0079
3980.0,0.008
3979.0,0.008
3978.0,0.0081
3977.0,0.0081
3976.0,0.0081
3975.0,0.0081
3974.0,0.0081
3973.0,0.0081
3972.0,0.0082
3971.0,0.0083
3970.0,0.0084
3969.0,0.0084
3968.0,0.0084
3967.0,0.0083
3966.0,0.0083
3965.0,0.0082
3964.0,0.0082
3963.0,0.0081
3962.0,0.0081
3961.0,0.0081
3960.0,0.0081
3959.0,0.0081
3958.0,0.0082
3957.0,0.0082
3956.0,0.0082
3955.0,0.0082
3954.0,0.0082
3953.0,0.0083
3952.0,0.0085
3951.0,0.0086
3950.0,0.0086
3949.0,0.0086
3948.0,0.0086
3947.0,0.0086
3946.0,0.0086
3945.0,0.0086
3944.0,0.0085
3943.0,0.0085
3942.0,0.0085
3941.0,0.0084
3940.0,0.0084
3939.0,0.0083
3938.0,0.0083
3937.0,0.0084
3936.0,0.0086
3935.0,0.0086
3934.0,0.0086
3933.0,0.0085
3932.0,0.0085
3931.0,0.0085
3930.0,0.0085
3929.0,0.0086
3928.0,0.0087
3927.0,0.0087
3926.0,0.0087
3925.0,0.0087
3924.0,0.0086
3923.0,0.0086
3922.0,0.0085
3921.0,0.0085
3920.0,0.0085
3919.0,0.0085
3918.0,0.0085
3917.0,0.0085
3916.0,0.0085
3915.0,0.0086
3914.0,0.0086
3913.0,0.0086
3912.0,0.0085
3911.0,0.0085
3910.0,0.0085
3909.0,0.0086
3908.0,0.0087
3907.0,0.0088
3906.0,0.0088
3905.0,0.0088
3904.0,0.0089
3903.0,0.009
3902.0,0.0091
3901.0,0.0091
3900.0,0.0091
3899.0,0.009
3898.0,0.009
3897.0,0.009
3896.0,0.0089
3895.0,0.0089
3894.0,0.0088
3893.0,0.0087
3892.0,0.0086
3891.0,0.0085
3890.0,0.0086
3889.0,0.0088
3888.0,0.0089
3887.0,0.0088
3886.0,0.0088
3885.0,0.009
3884.0,0.0093
3883.0,0.0094
3882.0,0.0092
3881.0,0.009
3880.0,0.0089
3879.0,0.0089
3878.0,0.0089
3877.0,0.0089
3876.0,0.0087
3875.0,0.0085
3874.0,0.0087
3873.0,0.0091
3872.0,0.0092
3871.0,0.009
3870.0,0.0088
3869.0,0.0089
3868.0,0.0091
3867.0,0.0092
3866.0,0.009
3865.0,0.0089
3864.0,0.009
3863.0,0.009
3862.0,0.009
3861.0,0.0089
3860.0,0.0088
3859.0,0.0087
3858.0,0.0088
3857.0,0.0091
3856.0,0.0092
3855.0,0.009
3854.0,0.0091
3853.0,0.0094
3852.0,0.0094
3851.0,0.0094
3850.0,0.0093
3849.0,0.0092
3848.0,0.0091
3847.0,0.0091
3846.0,0.009
3845.0,0.0088
3844.0,0.0087
3843.0,0.0088
3842.0,0.009
3841.0,0.0091
3840.0,0.009
3839.0,0.0088
3838.0,0.0087
3837.0,0.0088
3836.0,0.0089
3835.0,0.009
3834.0,0.0091
3833.0,0.0091
3832.0,0.0091
3831.0,0.0091
3830.0,0.0091
3829.0,0.0092
3828.0,0.0091
3827.0,0.0089
3826.0,0.0089
3825.0,0.0091
3824.0,0.0092
3823.0,0.009
3822.0,0.0089
3821.0,0.009
3820.0,0.0094
3819.0,0.0096
3818.0,0.0096
3817.0,0.0092
3816.0,0.009
3815.0,0.0091
3814.0,0.0092
3813.0,0.0091
3812.0,0.009
3811.0,0.009
3810.0,0.009
3809.0,0.009
3808.0,0.0088
3807.0,0.0088
3806.0,0.009
3805.0,0.0093
3804.0,0.0094
3803.0,0.0093
3802.0,0.0093
3801.0,0.0096
3800.0,0.0098
3799.0,0.0099
3798.0,0.0097
3797.0,0.0095
3796.0,0.0094
3795.0,0.0093
3794.0,0.0094
3793.0,0.0093
3792.0,0.0093
3791.0,0.0094
3790.0,0.0094
3789.0,0.0095
3788.0,0.0095
3787.0,0.0095
3786.0,0.0094
3785.0,0.0093
3784.0,0.0093
3783.0,0.0094
3782.0,0.0095
3781.0,0.0095
3780.0,0.0095
3779.0,0.0095
3778.0,0.0095
3777.0,0.0095
3776.0,0.0094
3775.0,0.0094
3774.0,0.0094
3773.0,0.0095
3772.0,0.0095
3771.0,0.0095
3770.0,0.0095
3769.0,0.0097
3768.0,0.0098
3767.0,0.0097
3766.0,0.0096
3765.0,0.0095
3764.0,0.0096
3763.0,0.0097
3762.0,0.0097
3761.0,0.0097
3760.0,0.0097
3759.0,0.0098
3758.0,0.0097
3757.0,0.0096
3756.0,0.0095
3755.0,0.0094
3754.0,0.0092
3753.0,0.009
3752.0,0.009
3751.0,0.0094
3750.0,0.0095
3749.0,0.0096
3748.0,0.0099
3747.0,0.0102
3746.0,0.01
3745.0,0.0096
3744.0,0.0095
3743.0,0.0094
3742.0,0.0094
3741.0,0.0094
3740.0,0.0093
3739.0,0.0093
3738.0,0.009
3737.0,0.0085
3736.0,0.0084
3735.0,0.0087
3734.0,0.009
3733.0,0.009
3732.0,0.0089
3731.0,0.0089
3730.0,0.0089
3729.0,0.0089
3728.0,0.0089
3727.0,0.0088
3726.0,0.009
3725.0,0.0091
3724.0,0.0092
3723.0,0.0093
3722.0,0.0093
3721.0,0.0094
3720.0,0.0095
3719.0,0.0095
3718.0,0.0095
3717.0,0.0094
3716.0,0.0094
3715.0,0.0094
3714.0,0.0093
3713.0,0.0091
3712.0,0.0091
3711.0,0.0091
3710.0,0.0091
3709.0,0.009
3708.0,0.0091
3707.0,0.0091
3706.0,0.0092
3705.0,0.0093
3704.0,0.0094
3703.0,0.0094
3702.0,0.0094
3701.0,0.0095
3700.0,0.0095
3699.0,0.0094
3698.0,0.0093
3697.0,0.0093
3696.0,0.0093
3695.0,0.0094
3694.0,0.0095
3693.0,0.0096
3692.0,0.0096
3691.0,0.0098
3690.0,0.01
3689.0,0.0102
3688.0,0.0102
3687.0,0.0102
3686.0,0.0101
3685.0,0.01
3684.0,0.0099
3683.0,0.0098
3682.0,0.0097
3681.0,0.0096
3680.0,0.0097
3679.0,0.01
3678.0,0.0102
3677.0,0.0102
3676.0,0.0102
3675.0,0.0104
3674.0,0.0107
3673.0,0.0108
3672.0,0.0107
3671.0,0.0106
3670.0,0.0106
3669.0,0.0108
3668.0,0.0108
3667.0,0.0107
3666.0,0.0105
3665.0,0.0104
3664.0,0.0104
3663.0,0.0104
3662.0,0.0103
3661.0,0.0103
3660.0,0.0104
3659.0,0.0105
3658.0,0.0105
3657.0,0.0104
3656.0,0.0104
3655.0,0.0105
3654.0,0.0108
3653.0,0.011
3652.0,0.0111
3651.0,0.0112
3650.0,0.0115
3649.0,0.0118
3648.0,0.0117
3647.0,0.0115
3646.0,0.0114
3645.0,0.0113
3644.0,0.0111
3643.0,0.011
3642.0,0.0109
3641.0,0.0109
3640.0,0.0109
3639.0,0.0108
3638.0,0.0107
3637.0,0.0106
3636.0,0.0106
3635.0,0.0104
3634.0,0.0104
3633.0,0.0106
3632.0,0.0108
3631.0,0.0107
3630.0,0.0105
3629.0,0.0107
3628.0,0.0109
3627.0,0.011
3626.0,0.0108
3625.0,0.0106
3624.0,0.0105
3623.0,0.0106
3622.0,0.0108
3621.0,0.011
3620.0,0.0112
3619.0,0.0113
3618.0,0.0114
3617.0,0.0115
3616.0,0.0117
3615.0,0.0117
3614.0,0.0116
3613.0,0.0115
3612.0,0.0114
3611.0,0.0114
3610.0,0.0113
3609.0,0.0112
3608.0,0.0113
3607.0,0.0113
3606.0,0.0113
3605.0,0.0112
3604.0,0.0111
3603.0,0.011
3602.0,0.0109
3601.0,0.011
3600.0,0.0112
3599.0,0.0113
3598.0,0.0114
3597.0,0.0114
3596.0,0.0114
3595.0,0.0113
3594.0,0.0113
3593.0,0.0113
3592.0,0.0113
3591.0,0.0113
3590.0,0.0112
3589.0,0.0111
3588.0,0.0112
3587.0,0.0113
3586.0,0.0115
3585.0,0.0115
3584.0,0.0114
3583.0,0.0114
3582.0,0.0114
3581.0,0.0115
3580.0,0.0116
3579.0,0.0117
3578.0,0.0117
3577.0,0.0117
3576.0,0.0117
3575.0,0.0117
3574.0,0.0117
3573.0,0.0117
3572.0,0.0117
3571.0,0.0119
3570.0,0.0121
3569.0,0.0122
3568.0,0.0124
3567.0,0.0126
3566.0,0.0127
3565.0,0.0126
3564.0,0.0124
3563.0,0.0122
3562.0,0.0122
3561.0,0.0122
3560.0,0.0122
3559.0,0.0123
3558.0,0.0122
3557.0,0.0122
3556.0,0.0122
3555.0,0.0123
3554.0,0.0124
3553.0,0.0125
3552.0,0.0126
3551.0,0.0126
3550.0,0.0126
3549.0,0.0126
3548.0,0.0126
3547.0,0.0127
3546.0,0.0128
3545.0,0.0128
3544.0,0.0128
3543.0,0.0127
3542.0,0.0125
3541.0,0.0124
3540.0,0.0124
3539.0,0.0124
3538.0,0.0126
3537.0,0.0126
3536.0,0.0127
3535.0,0.0127
3534.0,0.0126
3533.0,0.0126
3532.0,0.0126
3531.0,0.0126
3530.0,0.0126
3529.0,0.0126
3528.0,0.0127
3527.0,0.0127
3526.0,0.0127
3525.0,0.0127
3524.0,0.0127
3523.0,0.0127
3522.0,0.0127
3521.0,0.0127
3520.0,0.0126
3519.0,0.0126
3518.0,0.0126
3517.0,0.0126
3516.0,0.0127
3515.0,0.0127
3514.0,0.0128
3513.0,0.0127
3512.0,0.0127
3511.0,0.0126
3510.0,0.0126
3509.0,0.0126
3508.0,0.0126
3507.0,0.0126
3506.0,0.0126
3505.0,0.0125
3504.0,0.0126
3503.0,0.0127
3502.0,0.0127
3501.0,0.0127
3500.0,0.0127
3499.0,0.0128
3498.0,0.0129
3497.0,0.0128
3496.0,0.0128
3495.0,0.0126
3494.0,0.0125
3493.0,0.0125
3492.0,0.0125
3491.0,0.0125
3490.0,0.0126
3489.0,0.0127
3488.0,0.0127
3487.0,0.0128
3486.0,0.0129
3485.0,0.0129
3484.0,0.0128
3483.0,0.0128
3482.0,0.0127
3481.0,0.0127
3480.0,0.0127
3479.0,0.0127
3478.0,0.0127
3477.0,0.0127
3476.0,0.0127
3475.0,0.0127
3474.0,0.0127
3473.0,0.0126
3472.0,0.0126
3471.0,0.0126
3470.0,0.0126
3469.0,0.0127
3468.0,0.0127
3467.0,0.0127
3466.0,0.0127
3465.0,0.0127
3464.0,0.0128
3463.0,0.0128
3462.0,0.0128
3461.0,0.0129
3460.0,0.0129
3459.0,0.0129
3458.0,0.013
3457.0,0.0131
3456.0,0.0133
3455.0,0.0134
3454.0,0.0134
3453.0,0.0133
3452.0,0.0133
3451.0,0.0133
3450.0,0.0133
3449.0,0.0133
3448.0,0.0133
3447.0,0.0133
3446.0,0.0134
3445.0,0.0135
3444.0,0.0136
3443.0,0.0138
3442.0,0.0139
3441.0,0.0139
3440.0,0.0139
3439.0,0.0138
3438.0,0.0137
3437.0,0.0137
3436.0,0.0137
3435.0,0.0138
3434.0,0.0139
3433.0,0.014
3432.0,0.014
3431.0,0.014
3430.0,0.0139
3429.0,0.0139
3428.0,0.0139
3427.0,0.014
3426.0,0.014
3425.0,0.0139
3424.0,0.0139
3423.0,0.0138
3422.0,0.0138
3421.0,0.0137
3420.0,0.0138
3419.0,0.0138
3418.0,0.0138
3417.0,0.0139
3416.0,0.0138
3415.0,0.0138
3414.0,0.0137
3413.0,0.0136
3412.0,0.0135
3411.0,0.0134
3410.0,0.0134
3409.0,0.0135
3408.0,0.0135
3407.0,0.0135
3406.0,0.0135
3405.0,0.0135
3404.0,0.0135
3403.0,0.0135
3402.0,0.0135
3401.0,0.0135
3400.0,0.0135
3399.0,0.0136
3398.0,0.0136
3397.0,0.0136
3396.0,0.0135
3395.0,0.0133
3394.0,0.0132
3393.0,0.0131
3392.0,0.0131
3391.0,0.0131
3390.0,0.0131
3389.0,0.0131
3388.0,0.0132
3387.0,0.0132
3386.0,0.0132
3385.0,0.0132
3384.0,0.0131
3383.0,0.0131
3382.0,0.0131
3381.0,0.0132
3380.0,0.0133
3379.0,0.0133
3378.0,0.0133
3377.0,0.0132
3376.0,0.0132
3375.0,0.0131
3374.0,0.0131
3373.0,0.0131
3372.0,0.0131
3371.0,0.0131
3370.0,0.0131
3369.0,0.0131
3368.0,0.0131
3367.0,0.0131
3366.0,0.013
3365.0,0.013
3364.0,0.013
3363.0,0.0131
3362.0,0.0132
3361.0,0.0133
3360.0,0.0133
3359.0,0.0132
3358.0,0.0131
3357.0,0.013
3356.0,0.0129
3355.0,0.0129
3354.0,0.0129
3353.0,0.013
3352.0,0.0131
3351.0,0.0132
3350.0,0.0132
3349.0,0.0132
3348.0,0.0132
3347.0,0.0132
3346.0,0.0132
3345.0,0.0132
3344.0,0.0132
3343.0,0.0132
3342.0,0.0132
3341.0,0.0132
3340.0,0.0132
3339.0,0.0132
3338.0,0.0131
3337.0,0.0131
3336.0,0.0131
3335.0,0.0131
3334.0,0.0132
3333.0,0.0132
3332.0,0.0132
3331.0,0.0132
3330.0,0.0131
3329.0,0.0131
3328.0,0.0131
3327.0,0.0131
3326.0,0.0131
3325.0,0.0131
3324.0,0.0131
3323.0,0.0131
3322.0,0.0131
3321.0,0.0132
3320.0,0.0132
3319.0,0.0132
3318.0,0.0132
3317.0,0.0132
3316.0,0.0132
3315.0,0.0131
3314.0,0.0131
3313.0,0.013
3312.0,0.0131
3311.0,0.0132
3310.0,0.0132
3309.0,0.0132
3308.0,0.0131
3307.0,0.0131
3306.0,0.0131
3305.0,0.0131
3304.0,0.0131
3303.0,0.0131
3302.0,0.013
3301.0,0.013
3300.0,0.013
3299.0,0.013
3298.0,0.013
3297.0,0.013
3296.0,0.013
3295.0,0.013
3294.0,0.013
3293.0,0.0131
3292.0,0.0131
3291.0,0.0131
3290.0,0.013
3289.0,0.013
3288.0,0.0129
3287.0,0.0129
3286.0,0.0129
3285.0,0.0129
3284.0,0.0129
3283.0,0.0129
3282.0,0.0128
3281.0,0.0128
3280.0,0.0129
3279.0,0.013
3278.0,0.0131
3277.0,0.0132
3276.0,0.0133
3275.0,0.0133
3274.0,0.0132
3273.0,0.0131
3272.0,0.0129
3271.0,0.0128
3270.0,0.0128
3269.0,0.0128
3268.0,0.0128
3267.0,0.0129
3266.0,0.0129
3265.0,0.0129
3264.0,0.0128
3263.0,0.0128
3262.0,0.0128
3261.0,0.0129
3260.0,0.0129
3259.0,0.0129
3258.0,0.0129
3257.0,0.0129
3256.0,0.0129
3255.0,0.0129
3254.0,0.0129
3253.0,0.0129
3252.0,0.0128
3251.0,0.0127
3250.0,0.0127
3249.0,0.0127
3248.0,0.0128
3247.0,0.0129
3246.0,0.0129
3245.0,0.0129
3244.0,0.0129
3243.0,0.0129
3242.0,0.0128
3241.0,0.0128
3240.0,0.0128
3239.0,0.0128
3238.0,0.0127
3237.0,0.0127
3236.0,0.0127
3235.0,0.0128
3234.0,0.0129
3233.0,0.013
3232.0,0.013
3231.0,0.013
3230.0,0.0129
3229.0,0.0129
3228.0,0.0128
3227.0,0.0128
3226.0,0.0127
3225.0,0.0127
3224.0,0.0127
3223.0,0.0127
3222.0,0.0128
3221.0,0.0128
3220.0,0.0128
3219.0,0.0128
3218.0,0.0128
3217.0,0.0129
3216.0,0.0129
3215.0,0.0129
3214.0,0.0128
3213.0,0.0128
3212.0,0.0128
3211.0,0.0128
3210.0,0.0127
3209.0,0.0127
3208.0,0.0128
3207.0,0.0128
3206.0,0.0129
3205.0,0.0129
3204.0,0.0129
3203.0,0.0128
3202.0,0.0127
3201.0,0.0127
3200.0,0.0127
3199.0,0.0127
3198.0,0.0127
3197.0,0.0127
3196.0,0.0127
3195.0,0.0126
3194.0,0.0127
3193.0,0.0127
3192.0,0.0127
3191.0,0.0128
3190.0,0.0127
3189.0,0.0127
3188.0,0.0127
3187.0,0.0127
3186.0,0.0127
3185.0,0.0126
3184.0,0.0125
3183.0,0.0125
3182.0,0.0125
3181.0,0.0125
3180.0,0.0125
3179.0,0.0125
3178.0,0.0126
3177.0,0.0126
3176.0,0.0126
3175.0,0.0126
3174.0,0.0127
3173.0,0.0128
3172.0,0.0129
3171.0,0.0129
3170.0,0.0129
3169.0,0.0128
3168.0,0.0127
3167.0,0.0126
3166.0,0.0126
3165.0,0.0126
3164.0,0.0127
3163.0,0.0128
3162.0,0.0128
3161.0,0.0128
3160.0,0.0127
3159.0,0.0126
3158.0,0.0125
3157.0,0.0125
3156.0,0.0125
3155.0,0.0126
3154.0,0.0126
3153.0,0.0127
3152.0,0.0127
3151.0,0.0127
3150.0,0.0127
3149.0,0.0128
3148.0,0.0128
3147.0,0.0128
3146.0,0.0128
3145.0,0.0127
3144.0,0.0126
3143.0,0.0125
3142.0,0.0124
3141.0,0.0124
3140.0,0.0124
3139.0,0.0125
3138.0,0.0126
3137.0,0.0126
3136.0,0.0127
3135.0,0.0127
3134.0,0.0128
3133.0,0.0128
3132.0,0.0128
3131.0,0.0128
3130.0,0.0128
3129.0,0.0128
3128.0,0.0129
3127.0,0.013
3126.0,0.013
3125.0,0.013
3124.0,0.013
3123.0,0.013
3122.0,0.013
3121.0,0.013
3120.0,0.013
3119.0,0.0131
3118.0,0.0131
3117.0,0.013
3116.0,0.013
3115.0,0.0129
3114.0,0.0129
3113.0,0.013
3112.0,0.013
3111.0,0.013
3110.0,0.0131
3109.0,0.0131
3108.0,0.0132
3107.0,0.0133
3106.0,0.0133
3105.0,0.0133
3104.0,0.0134
3103.0,0.0134
3102.0,0.0134
3101.0,0.0135
3100.0,0.0134
3099.0,0.0134
3098.0,0.0134
3097.0,0.0133
3096.0,0.0134
3095.0,0.0134
3094.0,0.0134
3093.0,0.0133
3092.0,0.0132
3091.0,0.0132
3090.0,0.0132
3089.0,0.0132
3088.0,0.0133
3087.0,0.0134
3086.0,0.0135
3085.0,0.0136
3084.0,0.0136
3083.0,0.0136
3082.0,0.0136
3081.0,0.0137
3080.0,0.0137
3079.0,0.0137
3078.0,0.0137
3077.0,0.0138
3076.0,0.0138
3075.0,0.0138
3074.0,0.0138
3073.0,0.0138
3072.0,0.0138
3071.0,0.0138
3070.0,0.0139
3069.0,0.0139
3068.0,0.014
3067.0,0.014
3066.0,0.014
3065.0,0.014
3064.0,0.014
3063.0,0.014
3062.0,0.014
3061.0,0.0139
3060.0,0.0139
3059.0,0.014
3058.0,0.0141
3057.0,0.0142
3056.0,0.0142
3055.0,0.0142
3054.0,0.0142
3053.0,0.0141
3052.0,0.0141
3051.0,0.014
3050.0,0.0139
3049.0,0.0138
3048.0,0.0137
3047.0,0.0136
3046.0,0.0135
3045.0,0.0134
3044.0,0.0134
3043.0,0.0133
3042.0,0.0132
3041.0,0.0131
3040.0,0.0131
3039.0,0.0131
3038.0,0.0131
3037.0,0.0131
3036.0,0.013
3035.0,0.013
3034.0,0.0129
3033.0,0.0129
3032.0,0.0129
3031.0,0.0129
3030.0,0.0129
3029.0,0.013
3028.0,0.013
3027.0,0.0131
3026.0,0.0131
3025.0,0.0131
3024.0,0.0131
3023.0,0.0131
3022.0,0.0132
3021.0,0.0132
3020.0,0.0133
3019.0,0.0133
3018.0,0.0134
3017.0,0.0134
3016.0,0.0135
3015.0,0.0135
3014.0,0.0136
3013.0,0.0137
3012.0,0.0138
3011.0,0.0139
3010.0,0.0139
3009.0,0.0139
3008.0,0.0139
3007.0,0.014
3006.0,0.0141
3005.0,0.0142
3004.0,0.0142
3003.0,0.0142
3002.0,0.0142
3001.0,0.0142
3000.0,0.0142
2999.0,0.0143
2998.0,0.0144
2997.0,0.0145
2996.0,0.0146
2995.0,0.0147
2994.0,0.0148
2993.0,0.0149
2992.0,0.0149
2991.0,0.015
2990.0,0.0151
2989.0,0.0152
2988.0,0.0152
2987.0,0.0153
2986.0,0.0154
2985.0,0.0155
2984.0,0.0156
2983.0,0.0158
2982.0,0.0159
2981.0,0.016
2980.0,0.0161
2979.0,0.0162
2978.0,0.0163
2977.0,0.0164
2976.0,0.0166
2975.0,0.0169
2974.0,0.0171
2973.0,0.0174
2972.0,0.0177
2971.0,0.0179
2970.0,0.0182
2969.0,0.0185
2968.0,0.0187
2967.0,0.0189
2966.0,0.0191
2965.0,0.0194
2964.0,0.0196
2963.0,0.0199
2962.0,0.02
2961.0,0.0202
2960.0,0.0203
2959.0,0.0203
2958.0,0.0204
2957.0,0.0204
2956.0,0.0204
2955.0,0.0204
2954.0,0.0204
2953.0,0.0203
2952.0,0.0201
2951.0,0.0199
2950.0,0.0197
2949.0,0.0195
2948.0,0.0193
2947.0,0.0191
2946.0,0.0188
2945.0,0.0186
2944.0,0.0184
2943.0,0.0182
2942.0,0.018
2941.0,0.0178
2940.0,0.0176
2939.0,0.0173
2938.0,0.0171
2937.0,0.0169
2936.0,0.0167
2935.0,0.0167
2934.0,0.0166
2933.0,0.0165
2932.0,0.0165
2931.0,0.0164
2930.0,0.0163
2929.0,0.0163
2928.0,0.0162
2927.0,0.0162
2926.0,0.0162
2925.0,0.0162
2924.0,0.0162
2923.0,0.0161
2922.0,0.016
2921.0,0.016
2920.0,0.0159
2919.0,0.0158
2918.0,0.0157
2917.0,0.0157
2916.0,0.0157
2915.0,0.0157
2914.0,0.0157
2913.0,0.0158
2912.0,0.0158
2911.0,0.0159
2910.0,0.0159
2909.0,0.0159
2908.0,0.0159
2907.0,0.0159
2906.0,0.0159
2905.0,0.0158
2904.0,0.0158
2903.0,0.0158
2902.0,0.0159
2901.0,0.0159
2900.0,0.0159
2899.0,0.0159
2898.0,0.0158
2897.0,0.0159
2896.0,0.0159
2895.0,0.0161
2894.0,0.0162
2893.0,0.0163
2892.0,0.0163
2891.0,0.0163
2890.0,0.0163
2889.0,0.0163
2888.0,0.0163
2887.0,0.0163
2886.0,0.0163
2885.0,0.0163
2884.0,0.0162
2883.0,0.0163
2882.0,0.0163
2881.0,0.0163
2880.0,0.0162
2879.0,0.0161
2878.0,0.0159
2877.0,0.0159
2876.0,0.0158
2875.0,0.0158
2874.0,0.0158
2873.0,0.0157
2872.0,0.0157
2871.0,0.0156
2870.0,0.0157
2869.0,0.0157
2868.0,0.0158
2867.0,0.0158
2866.0,0.0158
2865.0,0.0157
2864.0,0.0157
2863.0,0.0157
2862.0,0.0157
2861.0,0.0157
2860.0,0.0158
2859.0,0.0158
2858.0,0.0159
2857.0,0.0159
2856.0,0.0159
2855.0,0.0158
2854.0,0.0158
2853.0,0.0158
2852.0,0.0157
2851.0,0.0156
2850.0,0.0156
2849.0,0.0155
2848.0,0.0154
2847.0,0.0153
2846.0,0.0152
2845.0,0.0151
2844.0,0.015
2843.0,0.0149
2842.0,0.0149
2841.0,0.0148
2840.0,0.0147
2839.0,0.0147
2838.0,0.0146
2837.0,0.0146
2836.0,0.0145
2835.0,0.0145
2834.0,0.0144
2833.0,0.0144
2832.0,0.0145
2831.0,0.0145
2830.0,0.0145
2829.0,0.0144
2828.0,0.0143
2827.0,0.0143
2826.0,0.0143
2825.0,0.0143
2824.0,0.0143
2823.0,0.0143
2822.0,0.0142
2821.0,0.0142
2820.0,0.0142
2819.0,0.0143
2818.0,0.0143
2817.0,0.0143
2816.0,0.0143
2815.0,0.0143
2814.0,0.0144
2813.0,0.0145
2812.0,0.0144
2811.0,0.0143
2810.0,0.0142
2809.0,0.0141
2808.0,0.0141
2807.0,0.0141
2806.0,0.0142
2805.0,0.0142
2804.0,0.0142
2803.0,0.0142
2802.0,0.0142
2801.0,0.0143
2800.0,0.0143
2799.0,0.0143
2798.0,0.0143
2797.0,0.0143
2796.0,0.0143
2795.0,0.0142
2794.0,0.0142
2793.0,0.0141
2792.0,0.0141
2791.0,0.0142
2790.0,0.0142
2789.0,0.0142
2788.0,0.0142
2787.0,0.0141
2786.0,0.014
2785.0,0.014
2784.0,0.014
2783.0,0.014
2782.0,0.014
2781.0,0.014
2780.0,0.014
2779.0,0.014
2778.0,0.0139
2777.0,0.0139
2776.0,0.0139
2775.0,0.014
2774.0,0.0141
2773.0,0.0141
2772.0,0.0141
2771.0,0.014
2770.0,0.014
2769.0,0.014
2768.0,0.0139
2767.0,0.0139
2766.0,0.0138
2765.0,0.0138
2764.0,0.0138
2763.0,0.0139
2762.0,0.0139
2761.0,0.0139
2760.0,0.0139
2759.0,0.0139
2758.0,0.0139
2757.0,0.0139
2756.0,0.0139
2755.0,0.0139
2754.0,0.0139
2753.0,0.0139
2752.0,0.014
2751.0,0.014
2750.0,0.0141
2749.0,0.014
2748.0,0.014
2747.0,0.0139
2746.0,0.0139
2745.0,0.0139
2744.0,0.0139
2743.0,0.014
2742.0,0.014
2741.0,0.014
2740.0,0.014
2739.0,0.0139
2738.0,0.0139
2737.0,0.0139
2736.0,0.0138
2735.0,0.0138
2734.0,0.0138
2733.0,0.0138
2732.0,0.0139
2731.0,0.0139
2730.0,0.0138
2729.0,0.0138
2728.0,0.0137
2727.0,0.0137
2726.0,0.0137
2725.0,0.0137
2724.0,0.0137
2723.0,0.0137
2722.0,0.0136
2721.0,0.0135
2720.0,0.0135
2719.0,0.0135
2718.0,0.0135
2717.0,0.0135
2716.0,0.0136
2715.0,0.0136
2714.0,0.0137
2713.0,0.0137
2712.0,0.0137
2711.0,0.0137
2710.0,0.0136
2709.0,0.0136
2708.0,0.0136
2707.0,0.0135
2706.0,0.0135
2705.0,0.0135
2704.0,0.0134
2703.0,0.0134
2702.0,0.0134
2701.0,0.0134
2700.0,0.0134
2699.0,0.0134
2698.0,0.0134
2697.0,0.0134
2696.0,0.0134
2695.0,0.0135
2694.0,0.0135
2693.0,0.0135
2692.0,0.0135
2691.0,0.0134
2690.0,0.0134
2689.0,0.0134
2688.0,0.0134
2687.0,0.0134
2686.0,0.0134
2685.0,0.0134
2684.0,0.0134
2683.0,0.0134
2682.0,0.0135
2681.0,0.0135
2680.0,0.0135
2679.0,0.0135
2678.0,0.0134
2677.0,0.0134
2676.0,0.0133
2675.0,0.0133
2674.0,0.0133
2673.0,0.0133
2672.0,0.0134
2671.0,0.0134
2670.0,0.0134
2669.0,0.0135
2668.0,0.0135
2667.0,0.0134
2666.0,0.0134
2665.0,0.0134
2664.0,0.0134
2663.0,0.0135
2662.0,0.0134
2661.0,0.0135
2660.0,0.0135
2659.0,0.0135
2658.0,0.0135
2657.0,0.0135
2656.0,0.0134
2655.0,0.0134
2654.0,0.0134
2653.0,0.0134
2652.0,0.0135
2651.0,0.0135
2650.0,0.0135
2649.0,0.0134
2648.0,0.0134
2647.0,0.0133
2646.0,0.0133
2645.0,0.0133
2644.0,0.0133
2643.0,0.0133
2642.0,0.0133
2641.0,0.0132
2640.0,0.0132
2639.0,0.0133
2638.0,0.0133
2637.0,0.0133
2636.0,0.0134
2635.0,0.0134
2634.0,0.0135
2633.0,0.0135
2632.0,0.0135
2631.0,0.0134
2630.0,0.0134
2629.0,0.0134
2628.0,0.0134
2627.0,0.0135
2626.0,0.0135
2625.0,0.0136
2624.0,0.0136
2623.0,0.0136
2622.0,0.0135
2621.0,0.0135
2620.0,0.0135
2619.0,0.0135
2618.0,0.0134
2617.0,0.0134
2616.0,0.0134
2615.0,0.0134
2614.0,0.0134
2613.0,0.0134
2612.0,0.0133
2611.0,0.0133
2610.0,0.0133
2609.0,0.0134
2608.0,0.0134
2607.0,0.0134
2606.0,0.0134
2605.0,0.0134
2604.0,0.0134
2603.0,0.0133
2602.0,0.0132
2601.0,0.0132
2600.0,0.0132
2599.0,0.0133
2598.0,0.0133
2597.0,0.0133
2596.0,0.0133
2595.0,0.0132
2594.0,0.0132
2593.0,0.0132
2592.0,0.0132
2591.0,0.0132
2590.0,0.0133
2589.0,0.0133
2588.0,0.0133
2587.0,0.0133
2586.0,0.0134
2585.0,0.0134
2584.0,0.0134
2583.0,0.0133
2582.0,0.0133
2581.0,0.0133
2580.0,0.0133
2579.0,0.0133
2578.0,0.0133
2577.0,0.0133
2576.0,0.0133
2575.0,0.0133
2574.0,0.0133
2573.0,0.0133
2572.0,0.0133
2571.0,0.0134
2570.0,0.0134
2569.0,0.0135
2568.0,0.0134
2567.0,0.0134
2566.0,0.0134
2565.0,0.0134
2564.0,0.0135
2563.0,0.0135
2562.0,0.0135
2561.0,0.0135
2560.0,0.0135
2559.0,0.0134
2558.0,0.0134
2557.0,0.0134
2556.0,0.0133
2555.0,0.0133
2554.0,0.0133
2553.0,0.0133
2552.0,0.0134
2551.0,0.0134
2550.0,0.0134
2549.0,0.0134
2548.0,0.0134
2547.0,0.0134
2546.0,0.0134
2545.0,0.0134
2544.0,0.0134
2543.0,0.0134
2542.0,0.0134
2541.0,0.0133
2540.0,0.0133
2539.0,0.0132
2538.0,0.0132
2537.0,0.0132
2536.0,0.0133
2535.0,0.0134
2534.0,0.0134
2533.0,0.0134
2532.0,0.0134
2531.0,0.0134
2530.0,0.0133
2529.0,0.0133
2528.0,0.0133
2527.0,0.0133
2526.0,0.0133
2525.0,0.0133
2524.0,0.0134
2523.0,0.0133
2522.0,0.0133
2521.0,0.0133
2520.0,0.0133
2519.0,0.0134
2518.0,0.0134
2517.0,0.0134
2516.0,0.0134
2515.0,0.0133
2514.0,0.0133
2513.0,0.0133
2512.0,0.0133
2511.0,0.0133
2510.0,0.0133
2509.0,0.0132
2508.0,0.0132
2507.0,0.0132
2506.0,0.0132
2505.0,0.0132
2504.0,0.0132
2503.0,0.0133
2502.0,0.0133
2501.0,0.0133
2500.0,0.0133
2499.0,0.0132
2498.0,0.0132
2497.0,0.0132
2496.0,0.0132
2495.0,0.0132
2494.0,0.0132
2493.0,0.0132
2492.0,0.0132
2491.0,0.0132
2490.0,0.0132
2489.0,0.0131
2488.0,0.0131
2487.0,0.0132
2486.0,0.0132
2485.0,0.0132
2484.0,0.0131
2483.0,0.013
2482.0,0.0129
2481.0,0.0129
2480.0,0.0129
2479.0,0.0129
2478.0,0.0129
2477.0,0.0129
2476.0,0.0128
2475.0,0.0128
2474.0,0.0129
2473.0,0.0129
2472.0,0.0129
2471.0,0.0129
2470.0,0.0128
2469.0,0.0127
2468.0,0.0127
2467.0,0.0127
2466.0,0.0128
2465.0,0.0128
2464.0,0.0128
2463.0,0.0128
2462.0,0.0127
2461.0,0.0127
2460.0,0.0127
2459.0,0.0126
2458.0,0.0126
2457.0,0.0126
2456.0,0.0126
2455.0,0.0126
2454.0,0.0127
2453.0,0.0127
2452.0,0.0127
2451.0,0.0127
2450.0,0.0126
2449.0,0.0125
2448.0,0.0125
2447.0,0.0125
2446.0,0.0125
2445.0,0.0126
2444.0,0.0126
2443.0,0.0126
2442.0,0.0126
2441.0,0.0125
2440.0,0.0125
2439.0,0.0124
2438.0,0.0124
2437.0,0.0125
2436.0,0.0125
2435.0,0.0126
2434.0,0.0127
2433.0,0.0127
2432.0,0.0127
2431.0,0.0127
2430.0,0.0127
2429.0,0.0127
2428.0,0.0126
2427.0,0.0126
2426.0,0.0126
2425.0,0.0126
2424.0,0.0127
2423.0,0.0127
2422.0,0.0128
2421.0,0.0128
2420.0,0.0127
2419.0,0.0127
2418.0,0.0127
2417.0,0.0127
2416.0,0.0127
2415.0,0.0127
2414.0,0.0128
2413.0,0.0128
2412.0,0.0128
2411.0,0.0127
2410.0,0.0127
2409.0,0.0126
2408.0,0.0126
2407.0,0.0126
2406.0,0.0127
2405.0,0.0127
2404.0,0.0127
2403.0,0.0127
2402.0,0.0127
2401.0,0.0127
2400.0,0.0127
2399.0,0.0127
2398.0,0.0127
2397.0,0.0128
2396.0,0.0128
2395.0,0.0128
2394.0,0.0128
2393.0,0.0128
2392.0,0.0128
2391.0,0.0127
2390.0,0.0126
2389.0,0.0125
2388.0,0.0124
2387.0,0.0123
2386.0,0.0121
2385.0,0.0119
2384.0,0.0118
2383.0,0.0116
2382.0,0.0116
2381.0,0.0115
2380.0,0.0115
2379.0,0.0114
2378.0,0.0114
2377.0,0.0115
2376.0,0.0115
2375.0,0.0115
2374.0,0.0114
2373.0,0.0111
2372.0,0.0109
2371.0,0.0108
2370.0,0.0107
2369.0,0.0101
2368.0,0.0093
2367.0,0.0088
2366.0,0.0095
2365.0,0.0114
2364.0,0.0136
2363.0,0.0147
2362.0,0.0135
2361.0,0.0108
2360.0,0.0089
2359.0,0.0091
2358.0,0.0105
2357.0,0.0112
2356.0,0.0105
2355.0,0.0093
2354.0,0.0084
2353.0,0.0084
2352.0,0.0091
2351.0,0.0096
2350.0,0.0098
2349.0,0.0095
2348.0,0.0092
2347.0,0.0092
2346.0,0.0093
2345.0,0.0094
2344.0,0.0092
2343.0,0.0086
2342.0,0.0082
2341.0,0.0081
2340.0,0.0084
2339.0,0.0087
2338.0,0.0089
2337.0,0.0089
2336.0,0.009
2335.0,0.0091
2334.0,0.0092
2333.0,0.0094
2332.0,0.0093
2331.0,0.009
2330.0,0.0088
2329.0,0.0085
2328.0,0.0085
2327.0,0.0084
2326.0,0.0086
2325.0,0.0089
2324.0,0.0094
2323.0,0.0099
2322.0,0.0102
2321.0,0.0102
2320.0,0.0101
2319.0,0.0099
2318.0,0.0096
2317.0,0.0092
2316.0,0.009
2315.0,0.0089
2314.0,0.0089
2313.0,0.009
2312.0,0.009
2311.0,0.009
2310.0,0.009
2309.0,0.009
2308.0,0.0091
2307.0,0.0092
2306.0,0.0094
2305.0,0.0095
2304.0,0.0095
2303.0,0.0096
2302.0,0.0096
2301.0,0.0097
2300.0,0.0097
2299.0,0.0098
2298.0,0.0099
2297.0,0.01
2296.0,0.0101
2295.0,0.0102
2294.0,0.0103
2293.0,0.0104
2292.0,0.0106
2291.0,0.0107
2290.0,0.0109
2289.0,0.011
2288.0,0.0112
2287.0,0.0115
2286.0,0.0117
2285.0,0.0118
2284.0,0.0119
2283.0,0.0119
2282.0,0.0118
2281.0,0.0117
2280.0,0.0115
2279.0,0.0114
2278.0,0.0114
2277.0,0.0114
2276.0,0.0114
2275.0,0.0114
2274.0,0.0114
2273.0,0.0114
2272.0,0.0113
2271.0,0.0113
2270.0,0.0113
2269.0,0.0113
2268.0,0.0112
2267.0,0.0112
2266.0,0.0112
2265.0,0.0112
2264.0,0.0113
2263.0,0.0113
2262.0,0.0113
2261.0,0.0113
2260.0,0.0113
2259.0,0.0114
2258.0,0.0113
2257.0,0.0113
2256.0,0.0113
2255.0,0.0114
2254.0,0.0114
2253.0,0.0114
2252.0,0.0114
2251.0,0.0114
2250.0,0.0114
2249.0,0.0115
2248.0,0.0115
2247.0,0.0115
2246.0,0.0115
2245.0,0.0115
2244.0,0.0115
2243.0,0.0114
2242.0,0.0114
2241.0,0.0114
2240.0,0.0114
2239.0,0.0114
2238.0,0.0114
2237.0,0.0114
2236.0,0.0114
2235.0,0.0114
2234.0,0.0114
2233.0,0.0114
2232.0,0.0115
2231.0,0.0115
2230.0,0.0115
2229.0,0.0115
2228.0,0.0114
2227.0,0.0114
2226.0,0.0113
2225.0,0.0113
2224.0,0.0113
2223.0,0.0114
2222.0,0.0114
2221.0,0.0114
2220.0,0.0113
2219.0,0.0113
2218.0,0.0113
2217.0,0.0113
2216.0,0.0113
2215.0,0.0113
2214.0,0.0113
2213.0,0.0113
2212.0,0.0113
2211.0,0.0113
2210.0,0.0113
2209.0,0.0112
2208.0,0.0112
2207.0,0.0111
2206.0,0.0111
2205.0,0.0111
2204.0,0.011
2203.0,0.0111
2202.0,0.0111
2201.0,0.0111
2200.0,0.0111
2199.0,0.011
2198.0,0.0109
2197.0,0.0109
2196.0,0.0108
2195.0,0.0108
2194.0,0.0108
2193.0,0.0108
2192.0,0.0109
2191.0,0.0109
2190.0,0.0109
2189.0,0.0109
2188.0,0.0109
2187.0,0.0109
2186.0,0.0108
2185.0,0.0108
2184.0,0.0109
2183.0,0.0109
2182.0,0.0109
2181.0,0.0109
2180.0,0.0109
2179.0,0.0109
2178.0,0.0109
2177.0,0.0109
2176.0,0.0108
2175.0,0.0108
2174.0,0.0108
2173.0,0.0108
2172.0,0.0108
2171.0,0.0108
2170.0,0.0108
2169.0,0.0108
2168.0,0.0109
2167.0,0.0109
2166.0,0.011
2165.0,0.0109
2164.0,0.0109
2163.0,0.0109
2162.0,0.0109
2161.0,0.0109
2160.0,0.011
2159.0,0.011
2158.0,0.011
2157.0,0.011
2156.0,0.011
2155.0,0.011
2154.0,0.011
2153.0,0.011
2152.0,0.011
2151.0,0.011
2150.0,0.011
2149.0,0.011
2148.0,0.011
2147.0,0.011
2146.0,0.0109
2145.0,0.0109
2144.0,0.0109
2143.0,0.0109
2142.0,0.0109
2141.0,0.0109
2140.0,0.0109
2139.0,0.0109
2138.0,0.011
2137.0,0.011
2136.0,0.011
2135.0,0.011
2134.0,0.011
2133.0,0.0109
2132.0,0.0109
2131.0,0.011
2130.0,0.011
2129.0,0.011
2128.0,0.011
2127.0,0.0109
2126.0,0.0109
2125.0,0.0109
2124.0,0.0109
2123.0,0.0109
2122.0,0.0109
2121.0,0.0108
2120.0,0.0108
2119.0,0.0108
2118.0,0.0108
2117.0,0.0108
2116.0,0.0108
2115.0,0.0108
2114.0,0.0109
2113.0,0.0109
2112.0,0.0109
2111.0,0.0109
2110.0,0.0108
2109.0,0.0108
2108.0,0.0108
2107.0,0.0107
2106.0,0.0107
2105.0,0.0107
2104.0,0.0106
2103.0,0.0106
2102.0,0.0107
2101.0,0.0107
2100.0,0.0107
2099.0,0.0106
2098.0,0.0106
2097.0,0.0105
2096.0,0.0105
2095.0,0.0105
2094.0,0.0105
2093.0,0.0105
2092.0,0.0106
2091.0,0.0106
2090.0,0.0106
2089.0,0.0105
2088.0,0.0105
2087.0,0.0105
2086.0,0.0105
2085.0,0.0105
2084.0,0.0105
2083.0,0.0106
2082.0,0.0106
2081.0,0.0105
2080.0,0.0105
2079.0,0.0104
2078.0,0.0103
2077.0,0.0102
2076.0,0.0102
2075.0,0.0102
2074.0,0.0101
2073.0,0.0101
2072.0,0.0101
2071.0,0.0101
2070.0,0.0101
2069.0,0.01
2068.0,0.0099
2067.0,0.0099
2066.0,0.0099
2065.0,0.0099
2064.0,0.0098
2063.0,0.0098
2062.0,0.0098
2061.0,0.0098
2060.0,0.0097
2059.0,0.0097
2058.0,0.0096
2057.0,0.0096
2056.0,0.0096
2055.0,0.0095
2054.0,0.0095
2053.0,0.0095
2052.0,0.0095
2051.0,0.0094
2050.0,0.0094
2049.0,0.0093
2048.0,0.0093
2047.0,0.0092
2046.0,0.0092
2045.0,0.0092
2044.0,0.0092
2043.0,0.0092
2042.0,0.0092
2041.0,0.0092
2040.0,0.0092
2039.0,0.0092
2038.0,0.0091
2037.0,0.0091
2036.0,0.009
2035.0,0.0089
2034.0,0.0089
2033.0,0.0089
2032.0,0.0089
2031.0,0.0089
2030.0,0.0088
2029.0,0.0088
2028.0,0.0088
2027.0,0.0089
2026.0,0.0089
2025.0,0.0089
2024.0,0.0089
2023.0,0.0089
2022.0,0.0089
2021.0,0.0089
2020.0,0.0089
2019.0,0.0089
2018.0,0.0089
2017.0,0.0089
2016.0,0.0088
2015.0,0.0088
2014.0,0.0088
2013.0,0.0088
2012.0,0.0088
2011.0,0.0088
2010.0,0.0088
2009.0,0.0089
2008.0,0.0089
2007.0,0.0089
2006.0,0.0089
2005.0,0.0089
2004.0,0.0088
2003.0,0.0087
2002.0,0.0087
2001.0,0.0087
2000.0,0.0087
1999.0,0.0088
1998.0,0.0088
1997.0,0.0088
1996.0,0.0088
1995.0,0.0088
1994.0,0.0089
1993.0,0.009
1992.0,0.009
1991.0,0.009
1990.0,0.009
1989.0,0.009
1988.0,0.009
1987.0,0.009
1986.0,0.009
1985.0,0.009
1984.0,0.0089
1983.0,0.0089
1982.0,0.0089
1981.0,0.0089
1980.0,0.0089
1979.0,0.0089
1978.0,0.0089
1977.0,0.0089
1976.0,0.0089
1975.0,0.0089
1974.0,0.009
1973.0,0.009
1972.0,0.009
1971.0,0.009
1970.0,0.009
1969.0,0.009
1968.0,0.009
1967.0,0.009
1966.0,0.009
1965.0,0.009
1964.0,0.009
1963.0,0.0091
1962.0,0.0092
1961.0,0.0093
1960.0,0.0094
1959.0,0.0095
1958.0,0.0096
1957.0,0.0097
1956.0,0.0097
1955.0,0.0097
1954.0,0.0097
1953.0,0.0097
1952.0,0.0098
1951.0,0.0098
1950.0,0.0098
1949.0,0.0098
1948.0,0.0098
1947.0,0.0098
1946.0,0.0097
1945.0,0.0097
1944.0,0.0096
1943.0,0.0095
1942.0,0.0094
1941.0,0.0093
1940.0,0.0091
1939.0,0.009
1938.0,0.0088
1937.0,0.0087
1936.0,0.0087
1935.0,0.0086
1934.0,0.0086
1933.0,0.0085
1932.0,0.0084
1931.0,0.0083
1930.0,0.0082
1929.0,0.0081
1928.0,0.0079
1927.0,0.0079
1926.0,0.0078
1925.0,0.0078
1924.0,0.0077
1923.0,0.0076
1922.0,0.0076
1921.0,0.0075
1920.0,0.0075
1919.0,0.0074
1918.0,0.0073
1917.0,0.0072
1916.0,0.007
1915.0,0.007
1914.0,0.007
1913.0,0.0069
1912.0,0.0069
1911.0,0.0069
1910.0,0.0068
1909.0,0.0067
1908.0,0.0066
1907.0,0.0065
1906.0,0.0064
1905.0,0.0063
1904.0,0.0062
1903.0,0.0061
1902.0,0.006
1901.0,0.006
1900.0,0.0059
1899.0,0.0058
1898.0,0.0058
1897.0,0.0058
1896.0,0.0057
1895.0,0.0056
1894.0,0.0056
1893.0,0.0055
1892.0,0.0055
1891.0,0.0054
1890.0,0.0054
1889.0,0.0052
1888.0,0.0051
1887.0,0.005
1886.0,0.0049
1885.0,0.0048
1884.0,0.0048
1883.0,0.0047
1882.0,0.0046
1881.0,0.0045
1880.0,0.0044
1879.0,0.0043
1878.0,0.0043
1877.0,0.0042
1876.0,0.0042
1875.0,0.0041
1874.0,0.0041
1873.0,0.004
1872.0,0.0041
1871.0,0.0041
1870.0,0.0041
1869.0,0.0039
1868.0,0.0038
1867.0,0.0036
1866.0,0.0036
1865.0,0.0035
1864.0,0.0034
1863.0,0.0034
1862.0,0.0034
1861.0,0.0033
1860.0,0.0033
1859.0,0.0032
1858.0,0.0032
1857.0,0.0031
1856.0,0.003
1855.0,0.003
1854.0,0.003
1853.0,0.003
1852.0,0.0029
1851.0,0.0029
1850.0,0.0029
1849.0,0.0029
1848.0,0.0029
1847.0,0.0029
1846.0,0.0029
1845.0,0.0029
1844.0,0.0028
1843.0,0.0028
1842.0,0.0028
1841.0,0.0029
1840.0,0.0029
1839.0,0.0029
1838.0,0.0028
1837.0,0.0028
1836.0,0.0027
1835.0,0.0027
1834.0,0.0027
1833.0,0.0028
1832.0,0.003
1831.0,0.003
1830.0,0.003
1829.0,0.0029
1828.0,0.0029
1827.0,0.0029
1826.0,0.0029
1825.0,0.0027
1824.0,0.0025
1823.0,0.0024
1822.0,0.0022
1821.0,0.0021
1820.0,0.002
1819.0,0.002
1818.0,0.0019
1817.0,0.0018
1816.0,0.0017
1815.0,0.0016
1814.0,0.0015
1813.0,0.0014
1812.0,0.0012
1811.0,0.0011
1810.0,0.001
1809.0,0.0008
1808.0,0.0006
1807.0,0.0005
1806.0,0.0004
1805.0,0.0003
1804.0,0.0002
1803.0,0.0001
1802.0,0.0001
1801.0,-0.0001
1800.0,-0.0003
1799.0,-0.0005
1798.0,-0.0007
1797.0,-0.0009
1796.0,-0.001
1795.0,-0.001
1794.0,-0.0011
1793.0,-0.0014
1792.0,-0.0017
1791.0,-0.0019
1790.0,-0.0021
1789.0,-0.0022
1788.0,-0.0023
1787.0,-0.0024
1786.0,-0.0024
1785.0,-0.0026
1784.0,-0.0027
1783.0,-0.0028
1782.0,-0.0028
1781.0,-0.003
1780.0,-0.0032
1779.0,-0.0032
1778.0,-0.0032
1777.0,-0.0032
1776.0,-0.0032
1775.0,-0.0031
1774.0,-0.003
1773.0,-0.0033
1772.0,-0.0036
1771.0,-0.0038
1770.0,-0.0039
1769.0,-0.0039
1768.0,-0.004
1767.0,-0.0038
1766.0,-0.0035
1765.0,-0.0031
1764.0,-0.0028
1763.0,-0.0024
1762.0,-0.002
1761.0,-0.0017
1760.0,-0.0014
1759.0,-0.0007
1758.0,-0.0
1757.0,0.0006
1756.0,0.0013
1755.0,0.0023
1754.0,0.0033
1753.0,0.0043
1752.0,0.0058
1751.0,0.0079
1750.0,0.0104
1749.0,0.0132
1748.0,0.0162
1747.0,0.0196
1746.0,0.0234
1745.0,0.0277
1744.0,0.0329
1743.0,0.0387
1742.0,0.0449
1741.0,0.0522
1740.0,0.061
1739.0,0.0701
1738.0,0.0772
1737.0,0.0827
1736.0,0.0889
1735.0,0.1001
1734.0,0.1156
1733.0,0.1281
1732.0,0.1366
1731.0,0.1449
1730.0,0.1543
1729.0,0.1639
1728.0,0.1726
1727.0,0.1806
1726.0,0.1887
1725.0,0.1973
1724.0,0.2064
1723.0,0.2149
1722.0,0.2217
1721.0,0.2262
1720.0,0.2297
1719.0,0.2349
1718.0,0.2431
1717.0,0.2505
1716.0,0.2534
1715.0,0.2533
1714.0,0.2514
1713.0,0.2471
1712.0,0.2407
1711.0,0.2327
1710.0,0.2238
1709.0,0.2142
1708.0,0.2036
1707.0,0.1919
1706.0,0.1793
1705.0,0.1678
1704.0,0.1586
1703.0,0.1511
1702.0,0.1433
1701.0,0.1337
1700.0,0.1242
1699.0,0.1175
1698.0,0.1128
1697.0,0.108
1696.0,0.1027
1695.0,0.0979
1694.0,0.0946
1693.0,0.0919
1692.0,0.0893
1691.0,0.0866
1690.0,0.0838
1689.0,0.0816
1688.0,0.0796
1687.0,0.0776
1686.0,0.0756
1685.0,0.0739
1684.0,0.0728
1683.0,0.0715
1682.0,0.0701
1681.0,0.0686
1680.0,0.0671
1679.0,0.0656
1678.0,0.0641
1677.0,0.0627
1676.0,0.0613
1675.0,0.0598
1674.0,0.0585
1673.0,0.0574
1672.0,0.0564
1671.0,0.0551
1670.0,0.0538
1669.0,0.0527
1668.0,0.0516
1667.0,0.0505
1666.0,0.0494
1665.0,0.0484
1664.0,0.0474
1663.0,0.0464
1662.0,0.0454
1661.0,0.0446
1660.0,0.0438
1659.0,0.0429
1658.0,0.0421
1657.0,0.0413
1656.0,0.0405
1655.0,0.0395
1654.0,0.0386
1653.0,0.0383
1652.0,0.038
1651.0,0.0378
1650.0,0.0376
1649.0,0.0373
1648.0,0.0368
1647.0,0.0364
1646.0,0.0359
1645.0,0.0355
1644.0,0.0351
1643.0,0.0347
1642.0,0.0344
1641.0,0.0341
1640.0,0.0338
1639.0,0.0334
1638.0,0.033
1637.0,0.0327
1636.0,0.0326
1635.0,0.0325
1634.0,0.0321
1633.0,0.0318
1632.0,0.0314
1631.0,0.0311
1630.0,0.0308
1629.0,0.0306
1628.0,0.0305
1627.0,0.0303
1626.0,0.03
1625.0,0.0298
1624.0,0.0296
1623.0,0.0294
1622.0,0.0292
1621.0,0.029
1620.0,0.0288
1619.0,0.0287
1618.0,0.029
1617.0,0.0299
1616.0,0.0308
1615.0,0.0313
1614.0,0.0313
1613.0,0.0311
1612.0,0.0308
1611.0,0.0304
1610.0,0.0299
1609.0,0.0294
1608.0,0.0288
1607.0,0.0282
1606.0,0.0276
1605.0,0.027
1604.0,0.0264
1603.0,0.0259
1602.0,0.0254
1601.0,0.0249
1600.0,0.0244
1599.0,0.0239
1598.0,0.0235
1597.0,0.0232
1596.0,0.023
1595.0,0.0228
1594.0,0.0226
1593.0,0.0224
1592.0,0.0223
1591.0,0.0221
1590.0,0.0221
1589.0,0.0221
1588.0,0.0222
1587.0,0.0225
1586.0,0.023
1585.0,0.0239
1584.0,0.0252
1583.0,0.0269
1582.0,0.0288
1581.0,0.0306
1580.0,0.0321
1579.0,0.0329
1578.0,0.0331
1577.0,0.0325
1576.0,0.0314
1575.0,0.0301
1574.0,0.029
1573.0,0.0281
1572.0,0.0272
1571.0,0.0262
1570.0,0.0251
1569.0,0.0242
1568.0,0.0235
1567.0,0.023
1566.0,0.0225
1565.0,0.022
1564.0,0.0215
1563.0,0.0209
1562.0,0.0205
1561.0,0.0203
1560.0,0.02
1559.0,0.0201
1558.0,0.0199
1557.0,0.0194
1556.0,0.0192
1555.0,0.019
1554.0,0.0187
1553.0,0.0185
1552.0,0.0183
1551.0,0.0181
1550.0,0.0178
1549.0,0.0175
1548.0,0.0173
1547.0,0.017
1546.0,0.0169
1545.0,0.0167
1544.0,0.0166
1543.0,0.0164
1542.0,0.0161
1541.0,0.016
1540.0,0.0162
1539.0,0.016
1538.0,0.0157
1537.0,0.0158
1536.0,0.0159
1535.0,0.016
1534.0,0.0162
1533.0,0.0163
1532.0,0.0163
1531.0,0.0162
1530.0,0.0162
1529.0,0.0163
1528.0,0.0162
1527.0,0.0161
1526.0,0.0159
1525.0,0.0158
1524.0,0.0157
1523.0,0.0154
1522.0,0.0152
1521.0,0.015
1520.0,0.0149
1519.0,0.0149
1518.0,0.0149
1517.0,0.0148
1516.0,0.0146
1515.0,0.0144
1514.0,0.0144
1513.0,0.0146
1512.0,0.0151
1511.0,0.0158
1510.0,0.0167
1509.0,0.0182
1508.0,0.0219
1507.0,0.0284
1506.0,0.0328
1505.0,0.0332
1504.0,0.0321
1503.0,0.03
1502.0,0.0275
1501.0,0.0247
1500.0,0.022
1499.0,0.0195
1498.0,0.0172
1497.0,0.0153
1496.0,0.014
1495.0,0.0131
1494.0,0.0126
1493.0,0.0124
1492.0,0.0122
1491.0,0.0119
1490.0,0.0115
1489.0,0.0113
1488.0,0.0111
1487.0,0.0109
1486.0,0.0107
1485.0,0.0106
1484.0,0.0107
1483.0,0.0108
1482.0,0.0109
1481.0,0.0111
1480.0,0.0113
1479.0,0.0115
1478.0,0.0117
1477.0,0.012
1476.0,0.0121
1475.0,0.0122
1474.0,0.0122
1473.0,0.0125
1472.0,0.0129
1471.0,0.0132
1470.0,0.0135
1469.0,0.014
1468.0,0.0147
1467.0,0.0156
1466.0,0.0168
1465.0,0.0185
1464.0,0.0203
1463.0,0.0218
1462.0,0.0232
1461.0,0.0246
1460.0,0.026
1459.0,0.0276
1458.0,0.0298
1457.0,0.0325
1456.0,0.0343
1455.0,0.035
1454.0,0.0354
1453.0,0.0357
1452.0,0.0358
1451.0,0.0357
1450.0,0.0355
1449.0,0.0353
1448.0,0.0352
1447.0,0.0349
1446.0,0.0347
1445.0,0.0345
1444.0,0.0344
1443.0,0.0342
1442.0,0.0339
1441.0,0.0337
1440.0,0.0332
1439.0,0.0325
1438.0,0.0314
1437.0,0.0298
1436.0,0.0279
1435.0,0.0262
1434.0,0.0246
1433.0,0.023
1432.0,0.0212
1431.0,0.0192
1430.0,0.0173
1429.0,0.0156
1428.0,0.0142
1427.0,0.0132
1426.0,0.0125
1425.0,0.0118
1424.0,0.0113
1423.0,0.0111
1422.0,0.0111
1421.0,0.0116
1420.0,0.013
1419.0,0.0157
1418.0,0.0194
1417.0,0.0238
1416.0,0.0293
1415.0,0.0361
1414.0,0.0445
1413.0,0.0545
1412.0,0.0653
1411.0,0.0751
1410.0,0.0821
1409.0,0.0855
1408.0,0.0854
1407.0,0.0822
1406.0,0.0766
1405.0,0.0699
1404.0,0.0638
1403.0,0.0588
1402.0,0.0548
1401.0,0.0514
1400.0,0.048
1399.0,0.0448
1398.0,0.0421
1397.0,0.04
1396.0,0.038
1395.0,0.0358
1394.0,0.0337
1393.0,0.032
1392.0,0.0306
1391.0,0.0292
1390.0,0.028
1389.0,0.0268
1388.0,0.0257
1387.0,0.0248
1386.0,0.0243
1385.0,0.024
1384.0,0.024
1383.0,0.0243
1382.0,0.0249
1381.0,0.0257
1380.0,0.0269
1379.0,0.0284
1378.0,0.03
1377.0,0.0317
1376.0,0.0336
1375.0,0.0358
1374.0,0.038
1373.0,0.0397
1372.0,0.0408
1371.0,0.0413
1370.0,0.0412
1369.0,0.0403
1368.0,0.0386
1367.0,0.0363
1366.0,0.0335
1365.0,0.0303
1364.0,0.0267
1363.0,0.0229
1362.0,0.0195
1361.0,0.0169
1360.0,0.015
1359.0,0.0135
1358.0,0.0122
1357.0,0.0113
1356.0,0.0106
1355.0,0.01
1354.0,0.0097
1353.0,0.0096
1352.0,0.0097
1351.0,0.0101
1350.0,0.0108
1349.0,0.0117
1348.0,0.0128
1347.0,0.0141
1346.0,0.0157
1345.0,0.0174
1344.0,0.0191
1343.0,0.0207
1342.0,0.0219
1341.0,0.0228
1340.0,0.0231
1339.0,0.0226
1338.0,0.0214
1337.0,0.0197
1336.0,0.0178
1335.0,0.0158
1334.0,0.0141
1333.0,0.0126
1332.0,0.0116
1331.0,0.0111
1330.0,0.011
1329.0,0.0113
1328.0,0.0119
1327.0,0.0128
1326.0,0.0138
1325.0,0.0151
1324.0,0.0166
1323.0,0.0181
1322.0,0.0197
1321.0,0.0214
1320.0,0.0231
1319.0,0.0248
1318.0,0.0264
1317.0,0.028
1316.0,0.0296
1315.0,0.0314
1314.0,0.0333
1313.0,0.0354
1312.0,0.0377
1311.0,0.04
1310.0,0.0424
1309.0,0.045
1308.0,0.0477
1307.0,0.0504
1306.0,0.0529
1305.0,0.0555
1304.0,0.0583
1303.0,0.0615
1302.0,0.0652
1301.0,0.0696
1300.0,0.0748
1299.0,0.0804
1298.0,0.0865
1297.0,0.0929
1296.0,0.0995
1295.0,0.106
1294.0,0.1124
1293.0,0.1186
1292.0,0.1247
1291.0,0.1305
1290.0,0.136
1289.0,0.1412
1288.0,0.1462
1287.0,0.1507
1286.0,0.1546
1285.0,0.1581
1284.0,0.1614
1283.0,0.1641
1282.0,0.1665
1281.0,0.1686
1280.0,0.1704
1279.0,0.172
1278.0,0.1734
1277.0,0.1751
1276.0,0.1774
1275.0,0.1802
1274.0,0.1838
1273.0,0.1886
1272.0,0.1947
1271.0,0.2019
1270.0,0.2098
1269.0,0.2184
1268.0,0.2275
1267.0,0.2366
1266.0,0.2453
1265.0,0.2537
1264.0,0.2616
1263.0,0.2685
1262.0,0.2741
1261.0,0.2788
1260.0,0.2823
1259.0,0.2845
1258.0,0.2854
1257.0,0.2859
1256.0,0.2865
1255.0,0.2871
1254.0,0.288
1253.0,0.2897
1252.0,0.2922
1251.0,0.2953
1250.0,0.2988
1249.0,0.303
1248.0,0.3077
1247.0,0.3124
1246.0,0.3169
1245.0,0.3215
1244.0,0.3259
1243.0,0.3296
1242.0,0.3323
1241.0,0.334
1240.0,0.3345
1239.0,0.3331
1238.0,0.3297
1237.0,0.3245
1236.0,0.3176
1235.0,0.3087
1234.0,0.2983
1233.0,0.2871
1232.0,0.2756
1231.0,0.2639
1230.0,0.2523
1229.0,0.2412
1228.0,0.2308
1227.0,0.2207
1226.0,0.211
1225.0,0.2018
1224.0,0.1931
1223.0,0.1847
1222.0,0.1767
1221.0,0.1692
1220.0,0.1622
1219.0,0.1557
1218.0,0.1496
1217.0,0.1439
1216.0,0.1388
1215.0,0.1339
1214.0,0.1293
1213.0,0.125
1212.0,0.1211
1211.0,0.1173
1210.0,0.1138
1209.0,0.1105
1208.0,0.1074
1207.0,0.1045
1206.0,0.1017
1205.0,0.099
1204.0,0.0966
1203.0,0.0942
1202.0,0.0918
1201.0,0.0896
1200.0,0.0874
1199.0,0.0853
1198.0,0.0833
1197.0,0.0813
1196.0,0.0795
1195.0,0.0776
1194.0,0.0757
1193.0,0.0739
1192.0,0.0722
1191.0,0.0706
1190.0,0.0691
1189.0,0.0679
1188.0,0.0668
1187.0,0.0659
1186.0,0.0652
1185.0,0.0648
1184.0,0.0647
1183.0,0.065
1182.0,0.0656
1181.0,0.0665
1180.0,0.0676
1179.0,0.0688
1178.0,0.0699
1177.0,0.0709
1176.0,0.0716
1175.0,0.072
1174.0,0.0719
1173.0,0.0711
1172.0,0.0698
1171.0,0.0678
1170.0,0.0653
1169.0,0.0626
1168.0,0.0599
1167.0,0.0573
1166.0,0.055
1165.0,0.0529
1164.0,0.0511
1163.0,0.0497
1162.0,0.0484
1161.0,0.0475
1160.0,0.0467
1159.0,0.0461
1158.0,0.0457
1157.0,0.0457
1156.0,0.0461
1155.0,0.0468
1154.0,0.048
1153.0,0.0496
1152.0,0.0517
1151.0,0.0541
1150.0,0.0571
1149.0,0.0605
1148.0,0.0643
1147.0,0.0686
1146.0,0.0732
1145.0,0.0781
1144.0,0.0832
1143.0,0.0882
1142.0,0.0931
1141.0,0.0977
1140.0,0.1021
1139.0,0.1063
1138.0,0.1101
1137.0,0.1138
1136.0,0.1172
1135.0,0.1203
1134.0,0.1232
1133.0,0.1262
1132.0,0.1293
1131.0,0.1327
1130.0,0.1365
1129.0,0.1409
1128.0,0.146
1127.0,0.1518
1126.0,0.1582
1125.0,0.1651
1124.0,0.1724
1123.0,0.1796
1122.0,0.1864
1121.0,0.1925
1120.0,0.1977
1119.0,0.2014
1118.0,0.2034
1117.0,0.2039
1116.0,0.2029
1115.0,0.2006
1114.0,0.1975
1113.0,0.1945
1112.0,0.1924
1111.0,0.1916
1110.0,0.1929
1109.0,0.1965
1108.0,0.2025
1107.0,0.2103
1106.0,0.2195
1105.0,0.2299
1104.0,0.2412
1103.0,0.2531
1102.0,0.265
1101.0,0.2768
1100.0,0.2881
1099.0,0.2982
1098.0,0.3067
1097.0,0.3137
1096.0,0.3193
1095.0,0.3231
1094.0,0.325
1093.0,0.3253
1092.0,0.3241
1091.0,0.3212
1090.0,0.3168
1089.0,0.3115
1088.0,0.3055
1087.0,0.299
1086.0,0.2919
1085.0,0.2845
1084.0,0.2769
1083.0,0.2688
1082.0,0.2601
1081.0,0.2512
1080.0,0.242
1079.0,0.2324
1078.0,0.2225
1077.0,0.2127
1076.0,0.2033
1075.0,0.1942
1074.0,0.1854
1073.0,0.1772
1072.0,0.1696
1071.0,0.1625
1070.0,0.1559
1069.0,0.15
1068.0,0.1446
1067.0,0.1396
1066.0,0.1351
1065.0,0.1309
1064.0,0.1271
1063.0,0.1237
1062.0,0.1206
1061.0,0.1181
1060.0,0.1161
1059.0,0.1145
1058.0,0.1134
1057.0,0.1129
1056.0,0.1131
1055.0,0.114
1054.0,0.1153
1053.0,0.1172
1052.0,0.1195
1051.0,0.1221
1050.0,0.1247
1049.0,0.1274
1048.0,0.1302
1047.0,0.133
1046.0,0.1355
1045.0,0.1377
1044.0,0.1394
1043.0,0.1405
1042.0,0.1411
1041.0,0.1412
1040.0,0.1409
1039.0,0.14
1038.0,0.1387
1037.0,0.1372
1036.0,0.1356
1035.0,0.134
1034.0,0.1323
1033.0,0.1307
1032.0,0.1292
1031.0,0.1276
1030.0,0.126
1029.0,0.1245
1028.0,0.1231
1027.0,0.122
1026.0,0.1215
1025.0,0.1224
1024.0,0.1255
1023.0,0.1314
1022.0,0.1409
1021.0,0.1543
1020.0,0.1707
1019.0,0.188
1018.0,0.2032
1017.0,0.2129
1016.0,0.2147
1015.0,0.2081
1014.0,0.1955
1013.0,0.1803
1012.0,0.1656
1011.0,0.1528
1010.0,0.1424
1009.0,0.1339
1008.0,0.127
1007.0,0.1212
1006.0,0.1164
1005.0,0.1124
1004.0,0.1092
1003.0,0.1064
1002.0,0.1039
1001.0,0.1017
1000.0,0.0997
999.0,0.0978
998.0,0.0961
997.0,0.0946
996.0,0.0934
995.0,0.0922
994.0,0.091
993.0,0.09
992.0,0.0891
991.0,0.0884
990.0,0.0877
989.0,0.0872
988.0,0.0867
987.0,0.0863
986.0,0.086
985.0,0.0857
984.0,0.0855
983.0,0.0854
982.0,0.0852
981.0,0.0851
980.0,0.0851
979.0,0.0851
978.0,0.085
977.0,0.0849
976.0,0.0848
975.0,0.0847
974.0,0.0845
973.0,0.0844
972.0,0.0841
971.0,0.0837
970.0,0.0831
969.0,0.0823
968.0,0.0814
967.0,0.0804
966.0,0.0793
965.0,0.0783
964.0,0.0773
963.0,0.0763
962.0,0.0754
961.0,0.0746
960.0,0.0738
959.0,0.073
958.0,0.072
957.0,0.0712
956.0,0.0704
955.0,0.0698
954.0,0.0692
953.0,0.0686
952.0,0.0681
951.0,0.0676
950.0,0.0672
949.0,0.0669
948.0,0.0666
947.0,0.0663
946.0,0.0659
945.0,0.0655
944.0,0.0651
943.0,0.0647
942.0,0.0644
941.0,0.0643
940.0,0.0642
939.0,0.064
938.0,0.0637
937.0,0.0634
936.0,0.0632
935.0,0.063
934.0,0.0629
933.0,0.0626
932.0,0.0621
931.0,0.0615
930.0,0.061
929.0,0.0607
928.0,0.0605
927.0,0.0602
926.0,0.06
925.0,0.0597
924.0,0.0594
923.0,0.0589
922.0,0.0585
921.0,0.0582
920.0,0.0579
919.0,0.0577
918.0,0.0575
917.0,0.0575
916.0,0.0575
915.0,0.0576
914.0,0.0578
913.0,0.0583
912.0,0.0591
911.0,0.0602
910.0,0.0615
909.0,0.0631
908.0,0.065
907.0,0.0671
906.0,0.0694
905.0,0.0717
904.0,0.074
903.0,0.0762
902.0,0.0783
901.0,0.0804
900.0,0.0824
899.0,0.0839
898.0,0.0848
897.0,0.0853
896.0,0.0855
895.0,0.0857
894.0,0.0859
893.0,0.0862
892.0,0.0865
891.0,0.0866
890.0,0.0868
889.0,0.0871
888.0,0.0876
887.0,0.0884
886.0,0.0895
885.0,0.0911
884.0,0.0932
883.0,0.0955
882.0,0.0982
881.0,0.1015
880.0,0.1056
879.0,0.1103
878.0,0.1153
877.0,0.1205
876.0,0.1256
875.0,0.1302
874.0,0.1336
873.0,0.1355
872.0,0.1354
871.0,0.1331
870.0,0.1289
869.0,0.1236
868.0,0.1178
867.0,0.112
866.0,0.1066
865.0,0.1019
864.0,0.0979
863.0,0.0946
862.0,0.0919
861.0,0.0897
860.0,0.0881
859.0,0.087
858.0,0.0862
857.0,0.0857
856.0,0.0855
855.0,0.0853
854.0,0.0851
853.0,0.0849
852.0,0.0848
851.0,0.0849
850.0,0.085
849.0,0.0853
848.0,0.0855
847.0,0.0856
846.0,0.0856
845.0,0.0856
844.0,0.0857
843.0,0.0859
842.0,0.086
841.0,0.0859
840.0,0.0856
839.0,0.0854
838.0,0.085
837.0,0.0846
836.0,0.0839
835.0,0.083
834.0,0.0819
833.0,0.081
832.0,0.0801
831.0,0.0793
830.0,0.0785
829.0,0.0778
828.0,0.0772
827.0,0.0766
826.0,0.0761
825.0,0.0754
824.0,0.0749
823.0,0.0743
822.0,0.0739
821.0,0.0736
820.0,0.0736
819.0,0.0735
818.0,0.0734
817.0,0.0733
816.0,0.0733
815.0,0.0732
814.0,0.0732
813.0,0.0733
812.0,0.0734
811.0,0.0734
810.0,0.0733
809.0,0.0732
808.0,0.0731
807.0,0.073
806.0,0.0728
805.0,0.0726
804.0,0.0723
803.0,0.0718
802.0,0.0712
801.0,0.0707
800.0,0.0705
799.0,0.071
798.0,0.0728
797.0,0.0757
796.0,0.0793
795.0,0.0827
794.0,0.085
793.0,0.086
792.0,0.0854
791.0,0.0835
790.0,0.0806
789.0,0.0775
788.0,0.0744
787.0,0.0716
786.0,0.0689
785.0,0.0665
784.0,0.0644
783.0,0.0625
782.0,0.0609
781.0,0.0597
780.0,0.0587
779.0,0.0575
778.0,0.0562
777.0,0.0549
776.0,0.0538
775.0,0.0528
774.0,0.0519
773.0,0.051
772.0,0.0503
771.0,0.0493
770.0,0.0482
769.0,0.0471
768.0,0.0461
767.0,0.0452
766.0,0.0444
765.0,0.0435
764.0,0.0427
763.0,0.0417
762.0,0.0406
761.0,0.0395
760.0,0.0384
759.0,0.0371
758.0,0.036
757.0,0.035
756.0,0.0343
755.0,0.0336
754.0,0.0325
753.0,0.0313
752.0,0.03
751.0,0.0288
750.0,0.0277
749.0,0.0269
748.0,0.0265
747.0,0.0264
746.0,0.0269
745.0,0.0283
744.0,0.0312
743.0,0.0358
742.0,0.0425
741.0,0.052
740.0,0.0645
739.0,0.0798
738.0,0.0972
737.0,0.1165
736.0,0.1371
735.0,0.1584
734.0,0.1799
733.0,0.2021
732.0,0.2258
731.0,0.2514
730.0,0.2794
729.0,0.3099
728.0,0.3425
727.0,0.3746
726.0,0.4023
725.0,0.4207
724.0,0.4249
723.0,0.4127
722.0,0.3857
721.0,0.3496
720.0,0.3116
719.0,0.2775
718.0,0.2494
717.0,0.2267
716.0,0.2083
715.0,0.1936
714.0,0.1824
713.0,0.1741
712.0,0.1679
711.0,0.1628
710.0,0.1583
709.0,0.1541
708.0,0.15
707.0,0.1456
706.0,0.1413
705.0,0.1376
704.0,0.1347
703.0,0.1322
702.0,0.1291
701.0,0.125
700.0,0.1201
699.0,0.1152
698.0,0.1112
697.0,0.1082
696.0,0.1059
695.0,0.1041
694.0,0.1025
693.0,0.1008
692.0,0.0992
691.0,0.0979
690.0,0.0971
689.0,0.0964
688.0,0.0953
687.0,0.0932
686.0,0.091
685.0,0.0897
684.0,0.0897
683.0,0.0905
682.0,0.0915
681.0,0.0923
680.0,0.0922
679.0,0.0908
678.0,0.0889
677.0,0.0874
676.0,0.0869
675.0,0.0869
674.0,0.0865
673.0,0.0857
672.0,0.0847
671.0,0.0839
670.0,0.0831
669.0,0.083
668.0,0.0841
667.0,0.0837
666.0,0.0808
665.0,0.0781
664.0,0.0766
663.0,0.0762
662.0,0.0763
661.0,0.0765
660.0,0.0764
659.0,0.0757
658.0,0.0746
657.0,0.0739
656.0,0.0737
655.0,0.0737
654.0,0.0736
653.0,0.0736
652.0,0.0735
651.0,0.0732
650.0,0.0726
649.0,0.0723
648.0,0.0723
647.0,0.0722
646.0,0.0716
645.0,0.0705
644.0,0.0694
643.0,0.0685
642.0,0.0681
641.0,0.0682
640.0,0.0688
639.0,0.0697
638.0,0.0709
637.0,0.0726
636.0,0.0749
635.0,0.0773
634.0,0.0793
633.0,0.0805
632.0,0.0809
631.0,0.0801
630.0,0.0786
629.0,0.077
628.0,0.0757
627.0,0.0747
626.0,0.0737
625.0,0.0729
624.0,0.0723
623.0,0.0717
622.0,0.0711
621.0,0.0705
620.0,0.0704
619.0,0.0707
618.0,0.0713
617.0,0.0722
616.0,0.0725
615.0,0.0721
614.0,0.0713
613.0,0.0709
612.0,0.071
611.0,0.0708
610.0,0.07
609.0,0.0692
608.0,0.0688
607.0,0.0683
606.0,0.0675
605.0,0.0667
604.0,0.0662
603.0,0.0655
602.0,0.0646
601.0,0.0638
600.0,0.0635
