cm-1,A
4000.0,0.0085
3999.0,0.0085
3998.0,0.0085
3997.0,0.0085
3996.0,0.0084
3995.0,0.0084
3994.0,0.0085
3993.0,0.0085
3992.0,0.0085
3991.0,0.0085
3990.0,0.0085
3989.0,0.0084
3988.0,0.0084
3987.0,0.0084
3986.0,0.0085
3985.0,0.0086
3984.0,0.0086
3983.0,0.0086
3982.0,0.0086
3981.0,0.0086
3980.0,0.0086
3979.0,0.0086
3978.0,0.0086
3977.0,0.0086
3976.0,0.0086
3975.0,0.0085
3974.0,0.0085
3973.0,0.0084
3972.0,0.0084
3971.0,0.0083
3970.0,0.0084
3969.0,0.0084
3968.0,0.0084
3967.0,0.0085
3966.0,0.0085
3965.0,0.0085
3964.0,0.0085
3963.0,0.0085
3962.0,0.0085
3961.0,0.0085
3960.0,0.0085
3959.0,0.0085
3958.0,0.0085
3957.0,0.0086
3956.0,0.0087
3955.0,0.0088
3954.0,0.0088
3953.0,0.0088
3952.0,0.0087
3951.0,0.0087
3950.0,0.0086
3949.0,0.0085
3948.0,0.0083
3947.0,0.0082
3946.0,0.0082
3945.0,0.0082
3944.0,0.0083
3943.0,0.0083
3942.0,0.0084
3941.0,0.0084
3940.0,0.0085
3939.0,0.0086
3938.0,0.0087
3937.0,0.0087
3936.0,0.0087
3935.0,0.0086
3934.0,0.0085
3933.0,0.0084
3932.0,0.0084
3931.0,0.0083
3930.0,0.0082
3929.0,0.0082
3928.0,0.0082
3927.0,0.0083
3926.0,0.0083
3925.0,0.0084
3924.0,0.0084
3923.0,0.0084
3922.0,0.0085
3921.0,0.0085
3920.0,0.0085
3919.0,0.0085
3918.0,0.0085
3917.0,0.0084
3916.0,0.0084
3915.0,0.0085
3914.0,0.0085
3913.0,0.0086
3912.0,0.0087
3911.0,0.0088
3910.0,0.0088
3909.0,0.0088
3908.0,0.0087
3907.0,0.0086
3906.0,0.0085
3905.0,0.0084
3904.0,0.0083
3903.0,0.0083
3902.0,0.0082
3901.0,0.0082
3900.0,0.0082
3899.0,0.0082
3898.0,0.0083
3897.0,0.0084
3896.0,0.0084
3895.0,0.0084
3894.0,0.0083
3893.0,0.0084
3892.0,0.0085
3891.0,0.0085
3890.0,0.0085
3889.0,0.0084
3888.0,0.0084
3887.0,0.0085
3886.0,0.0085
3885.0,0.0084
3884.0,0.0084
3883.0,0.0084
3882.0,0.0084
3881.0,0.0085
3880.0,0.0084
3879.0,0.0083
3878.0,0.0083
3877.0,0.0083
3876.0,0.0083
3875.0,0.0083
3874.0,0.0082
3873.0,0.0081
3872.0,0.0081
3871.0,0.0082
3870.0,0.0082
3869.0,0.0081
3868.0,0.008
3867.0,0.0081
3866.0,0.0082
3865.0,0.0083
3864.0,0.0083
3863.0,0.0083
3862.0,0.0084
3861.0,0.0084
3860.0,0.0084
3859.0,0.0084
3858.0,0.0083
3857.0,0.0082
3856.0,0.0082
3855.0,0.0082
3854.0,0.0083
3853.0,0.0082
3852.0,0.0081
3851.0,0.0082
3850.0,0.0085
3849.0,0.0086
3848.0,0.0087
3847.0,0.0087
3846.0,0.0086
3845.0,0.0085
3844.0,0.0084
3843.0,0.0082
3842.0,0.008
3841.0,0.0078
3840.0,0.0079
3839.0,0.008
3838.0,0.0081
3837.0,0.0081
3836.0,0.0082
3835.0,0.0083
3834.0,0.0084
3833.0,0.0085
3832.0,0.0085
3831.0,0.0085
3830.0,0.0086
3829.0,0.0086
3828.0,0.0087
3827.0,0.0086
3826.0,0.0085
3825.0,0.0083
3824.0,0.0082
3823.0,0.0081
3822.0,0.0082
3821.0,0.0082
3820.0,0.0081
3819.0,0.0082
3818.0,0.0084
3817.0,0.0086
3816.0,0.0087
3815.0,0.0087
3814.0,0.0088
3813.0,0.009
3812.0,0.0091
3811.0,0.0091
3810.0,0.009
3809.0,0.0089
3808.0,0.0089
3807.0,0.0087
3806.0,0.0085
3805.0,0.0084
3804.0,0.0083
3803.0,0.0083
3802.0,0.0082
3801.0,0.0081
3800.0,0.008
3799.0,0.0082
3798.0,0.0084
3797.0,0.0086
3796.0,0.0087
3795.0,0.0088
3794.0,0.0089
3793.0,0.009
3792.0,0.009
3791.0,0.009
3790.0,0.009
3789.0,0.009
3788.0,0.009
3787.0,0.0091
3786.0,0.0091
3785.0,0.0091
3784.0,0.009
3783.0,0.0089
3782.0,0.0089
3781.0,0.0089
3780.0,0.0089
3779.0,0.0089
3778.0,0.0089
3777.0,0.0089
3776.0,0.009
3775.0,0.009
3774.0,0.0089
3773.0,0.0088
3772.0,0.0087
3771.0,0.0087
3770.0,0.0088
3769.0,0.0088
3768.0,0.0089
3767.0,0.009
3766.0,0.009
3765.0,0.009
3764.0,0.009
3763.0,0.0089
3762.0,0.0089
3761.0,0.0088
3760.0,0.0088
3759.0,0.0087
3758.0,0.0086
3757.0,0.0084
3756.0,0.0083
3755.0,0.0082
3754.0,0.0081
3753.0,0.008
3752.0,0.0081
3751.0,0.0082
3750.0,0.0082
3749.0,0.0081
3748.0,0.0082
3747.0,0.0084
3746.0,0.0086
3745.0,0.0088
3744.0,0.0088
3743.0,0.0086
3742.0,0.0086
3741.0,0.0086
3740.0,0.0084
3739.0,0.0081
3738.0,0.0079
3737.0,0.0079
3736.0,0.0079
3735.0,0.008
3734.0,0.0081
3733.0,0.0083
3732.0,0.0085
3731.0,0.0087
3730.0,0.0088
3729.0,0.0089
3728.0,0.009
3727.0,0.009
3726.0,0.009
3725.0,0.009
3724.0,0.009
3723.0,0.009
3722.0,0.0089
3721.0,0.0089
3720.0,0.009
3719.0,0.0091
3718.0,0.0091
3717.0,0.0091
3716.0,0.009
3715.0,0.0089
3714.0,0.0087
3713.0,0.0087
3712.0,0.0089
3711.0,0.0089
3710.0,0.0089
3709.0,0.0089
3708.0,0.0091
3707.0,0.0093
3706.0,0.0095
3705.0,0.0096
3704.0,0.0096
3703.0,0.0096
3702.0,0.0096
3701.0,0.0095
3700.0,0.0094
3699.0,0.0095
3698.0,0.0096
3697.0,0.0097
3696.0,0.0097
3695.0,0.0096
3694.0,0.0095
3693.0,0.0093
3692.0,0.009
3691.0,0.0089
3690.0,0.0089
3689.0,0.009
3688.0,0.0092
3687.0,0.0094
3686.0,0.0097
3685.0,0.0098
3684.0,0.0099
3683.0,0.0098
3682.0,0.0097
3681.0,0.0097
3680.0,0.0096
3679.0,0.0095
3678.0,0.0095
3677.0,0.0097
3676.0,0.0098
3675.0,0.0096
3674.0,0.0093
3673.0,0.0092
3672.0,0.0093
3671.0,0.0094
3670.0,0.0095
3669.0,0.0096
3668.0,0.0097
3667.0,0.0099
3666.0,0.0101
3665.0,0.0103
3664.0,0.0103
3663.0,0.0103
3662.0,0.0103
3661.0,0.0102
3660.0,0.0101
3659.0,0.0101
3658.0,0.01
3657.0,0.01
3656.0,0.0099
3655.0,0.0098
3654.0,0.0097
3653.0,0.0095
3652.0,0.0092
3651.0,0.0089
3650.0,0.0089
3649.0,0.009
3648.0,0.0091
3647.0,0.0093
3646.0,0.0096
3645.0,0.01
3644.0,0.0103
3643.0,0.0105
3642.0,0.0106
3641.0,0.0107
3640.0,0.0106
3639.0,0.0106
3638.0,0.0105
3637.0,0.0105
3636.0,0.0105
3635.0,0.0104
3634.0,0.0103
3633.0,0.0101
3632.0,0.01
3631.0,0.0101
3630.0,0.0103
3629.0,0.0106
3628.0,0.0106
3627.0,0.0105
3626.0,0.0106
3625.0,0.0106
3624.0,0.0107
3623.0,0.0106
3622.0,0.0106
3621.0,0.0106
3620.0,0.0106
3619.0,0.0106
3618.0,0.0106
3617.0,0.0106
3616.0,0.0106
3615.0,0.0106
3614.0,0.0107
3613.0,0.0107
3612.0,0.0107
3611.0,0.0108
3610.0,0.011
3609.0,0.0111
3608.0,0.0113
3607.0,0.0115
3606.0,0.0116
3605.0,0.0117
3604.0,0.0117
3603.0,0.0117
3602.0,0.0116
3601.0,0.0115
3600.0,0.0115
3599.0,0.0114
3598.0,0.0114
3597.0,0.0113
3596.0,0.0112
3595.0,0.0112
3594.0,0.0113
3593.0,0.0113
3592.0,0.0113
3591.0,0.0112
3590.0,0.0111
3589.0,0.011
3588.0,0.0111
3587.0,0.0112
3586.0,0.0112
3585.0,0.0112
3584.0,0.0113
3583.0,0.0114
3582.0,0.0115
3581.0,0.0117
3580.0,0.0118
3579.0,0.0118
3578.0,0.0118
3577.0,0.0118
3576.0,0.0118
3575.0,0.0118
3574.0,0.0118
3573.0,0.0118
3572.0,0.0118
3571.0,0.0117
3570.0,0.0115
3569.0,0.0114
3568.0,0.0114
3567.0,0.0114
3566.0,0.0115
3565.0,0.0116
3564.0,0.0117
3563.0,0.0118
3562.0,0.0119
3561.0,0.012
3560.0,0.012
3559.0,0.012
3558.0,0.0121
3557.0,0.0121
3556.0,0.0121
3555.0,0.0122
3554.0,0.0122
3553.0,0.0123
3552.0,0.0123
3551.0,0.0123
3550.0,0.0123
3549.0,0.0124
3548.0,0.0124
3547.0,0.0125
3546.0,0.0125
3545.0,0.0124
3544.0,0.0124
3543.0,0.0124
3542.0,0.0125
3541.0,0.0126
3540.0,0.0127
3539.0,0.0127
3538.0,0.0127
3537.0,0.0127
3536.0,0.0127
3535.0,0.0127
3534.0,0.0128
3533.0,0.0128
3532.0,0.0127
3531.0,0.0126
3530.0,0.0125
3529.0,0.0124
3528.0,0.0124
3527.0,0.0124
3526.0,0.0125
3525.0,0.0127
3524.0,0.0129
3523.0,0.013
3522.0,0.0131
3521.0,0.0131
3520.0,0.0131
3519.0,0.0131
3518.0,0.0131
3517.0,0.0132
3516.0,0.0132
3515.0,0.0132
3514.0,0.0132
3513.0,0.0131
3512.0,0.0131
3511.0,0.0131
3510.0,0.0131
3509.0,0.0132
3508.0,0.0132
3507.0,0.0131
3506.0,0.0131
3505.0,0.0131
3504.0,0.0131
3503.0,0.0132
3502.0,0.0132
3501.0,0.0132
3500.0,0.0132
3499.0,0.0132
3498.0,0.0132
3497.0,0.0132
3496.0,0.0132
3495.0,0.0133
3494.0,0.0134
3493.0,0.0135
3492.0,0.0136
3491.0,0.0136
3490.0,0.0136
3489.0,0.0136
3488.0,0.0135
3487.0,0.0135
3486.0,0.0134
3485.0,0.0133
3484.0,0.0133
3483.0,0.0133
3482.0,0.0133
3481.0,0.0133
3480.0,0.0134
3479.0,0.0134
3478.0,0.0135
3477.0,0.0136
3476.0,0.0137
3475.0,0.0137
3474.0,0.0137
3473.0,0.0137
3472.0,0.0137
3471.0,0.0138
3470.0,0.0139
3469.0,0.014
3468.0,0.0141
3467.0,0.0141
3466.0,0.0141
3465.0,0.014
3464.0,0.014
3463.0,0.0139
3462.0,0.0139
3461.0,0.0139
3460.0,0.0138
3459.0,0.0138
3458.0,0.0138
3457.0,0.0138
3456.0,0.0139
3455.0,0.0139
3454.0,0.0139
3453.0,0.0139
3452.0,0.0138
3451.0,0.0138
3450.0,0.0138
3449.0,0.0138
3448.0,0.0139
3447.0,0.0139
3446.0,0.014
3445.0,0.014
3444.0,0.014
3443.0,0.014
3442.0,0.014
3441.0,0.014
3440.0,0.0141
3439.0,0.0141
3438.0,0.0143
3437.0,0.0144
3436.0,0.0144
3435.0,0.0144
3434.0,0.0144
3433.0,0.0144
3432.0,0.0144
3431.0,0.0144
3430.0,0.0144
3429.0,0.0144
3428.0,0.0144
3427.0,0.0145
3426.0,0.0145
3425.0,0.0145
3424.0,0.0144
3423.0,0.0143
3422.0,0.0142
3421.0,0.0142
3420.0,0.0142
3419.0,0.0143
3418.0,0.0143
3417.0,0.0144
3416.0,0.0145
3415.0,0.0145
3414.0,0.0145
3413.0,0.0145
3412.0,0.0144
3411.0,0.0143
3410.0,0.0143
3409.0,0.0142
3408.0,0.0143
3407.0,0.0143
3406.0,0.0143
3405.0,0.0142
3404.0,0.0142
3403.0,0.0143
3402.0,0.0143
3401.0,0.0144
3400.0,0.0145
3399.0,0.0145
3398.0,0.0145
3397.0,0.0144
3396.0,0.0144
3395.0,0.0143
3394.0,0.0143
3393.0,0.0142
3392.0,0.0142
3391.0,0.0142
3390.0,0.0142
3389.0,0.0142
3388.0,0.0142
3387.0,0.0142
3386.0,0.0143
3385.0,0.0142
3384.0,0.0142
3383.0,0.0142
3382.0,0.0142
3381.0,0.0143
3380.0,0.0144
3379.0,0.0144
3378.0,0.0145
3377.0,0.0145
3376.0,0.0145
3375.0,0.0144
3374.0,0.0144
3373.0,0.0144
3372.0,0.0144
3371.0,0.0144
3370.0,0.0144
3369.0,0.0143
3368.0,0.0143
3367.0,0.0142
3366.0,0.0141
3365.0,0.0141
3364.0,0.0141
3363.0,0.0141
3362.0,0.0142
3361.0,0.0142
3360.0,0.0143
3359.0,0.0142
3358.0,0.0142
3357.0,0.0142
3356.0,0.0141
3355.0,0.0141
3354.0,0.014
3353.0,0.014
3352.0,0.014
3351.0,0.014
3350.0,0.0139
3349.0,0.0139
3348.0,0.0139
3347.0,0.0138
3346.0,0.0138
3345.0,0.0138
3344.0,0.0139
3343.0,0.0139
3342.0,0.014
3341.0,0.0141
3340.0,0.0141
3339.0,0.0142
3338.0,0.0141
3337.0,0.014
3336.0,0.0139
3335.0,0.0138
3334.0,0.0138
3333.0,0.0139
3332.0,0.014
3331.0,0.014
3330.0,0.014
3329.0,0.014
3328.0,0.0139
3327.0,0.0138
3326.0,0.0137
3325.0,0.0137
3324.0,0.0136
3323.0,0.0136
3322.0,0.0137
3321.0,0.0137
3320.0,0.0138
3319.0,0.0138
3318.0,0.0137
3317.0,0.0137
3316.0,0.0137
3315.0,0.0137
3314.0,0.0137
3313.0,0.0136
3312.0,0.0136
3311.0,0.0135
3310.0,0.0135
3309.0,0.0135
3308.0,0.0135
3307.0,0.0134
3306.0,0.0134
3305.0,0.0134
3304.0,0.0133
3303.0,0.0134
3302.0,0.0134
3301.0,0.0134
3300.0,0.0134
3299.0,0.0134
3298.0,0.0134
3297.0,0.0134
3296.0,0.0134
3295.0,0.0134
3294.0,0.0133
3293.0,0.0133
3292.0,0.0133
3291.0,0.0133
3290.0,0.0133
3289.0,0.0132
3288.0,0.0132
3287.0,0.0131
3286.0,0.0131
3285.0,0.0131
3284.0,0.013
3283.0,0.013
3282.0,0.0129
3281.0,0.0129
3280.0,0.0129
3279.0,0.013
3278.0,0.013
3277.0,0.013
3276.0,0.0129
3275.0,0.0128
3274.0,0.0127
3273.0,0.0126
3272.0,0.0127
3271.0,0.0127
3270.0,0.0128
3269.0,0.0129
3268.0,0.0129
3267.0,0.0129
3266.0,0.0129
3265.0,0.0128
3264.0,0.0128
3263.0,0.0127
3262.0,0.0127
3261.0,0.0126
3260.0,0.0125
3259.0,0.0125
3258.0,0.0125
3257.0,0.0125
3256.0,0.0125
3255.0,0.0125
3254.0,0.0125
3253.0,0.0125
3252.0,0.0125
3251.0,0.0125
3250.0,0.0125
3249.0,0.0125
3248.0,0.0124
3247.0,0.0124
3246.0,0.0124
3245.0,0.0124
3244.0,0.0123
3243.0,0.0123
3242.0,0.0124
3241.0,0.0124
3240.0,0.0125
3239.0,0.0125
3238.0,0.0125
3237.0,0.0124
3236.0,0.0124
3235.0,0.0123
3234.0,0.0122
3233.0,0.0121
3232.0,0.0121
3231.0,0.0121
3230.0,0.012
3229.0,0.0119
3228.0,0.0119
3227.0,0.0119
3226.0,0.0119
3225.0,0.0119
3224.0,0.012
3223.0,0.0119
3222.0,0.0119
3221.0,0.0119
3220.0,0.0118
3219.0,0.0119
3218.0,0.0119
3217.0,0.0119
3216.0,0.0119
3215.0,0.0118
3214.0,0.0117
3213.0,0.0116
3212.0,0.0115
3211.0,0.0115
3210.0,0.0115
3209.0,0.0115
3208.0,0.0115
3207.0,0.0115
3206.0,0.0116
3205.0,0.0116
3204.0,0.0116
3203.0,0.0115
3202.0,0.0115
3201.0,0.0115
3200.0,0.0115
3199.0,0.0114
3198.0,0.0114
3197.0,0.0114
3196.0,0.0113
3195.0,0.0113
3194.0,0.0114
3193.0,0.0115
3192.0,0.0115
3191.0,0.0115
3190.0,0.0114
3189.0,0.0114
3188.0,0.0113
3187.0,0.0112
3186.0,0.0111
3185.0,0.011
3184.0,0.0109
3183.0,0.0108
3182.0,0.0108
3181.0,0.0108
3180.0,0.0108
3179.0,0.0108
3178.0,0.0107
3177.0,0.0106
3176.0,0.0106
3175.0,0.0106
3174.0,0.0106
3173.0,0.0107
3172.0,0.0107
3171.0,0.0107
3170.0,0.0106
3169.0,0.0106
3168.0,0.0105
3167.0,0.0105
3166.0,0.0104
3165.0,0.0103
3164.0,0.0103
3163.0,0.0102
3162.0,0.0102
3161.0,0.0102
3160.0,0.0103
3159.0,0.0103
3158.0,0.0104
3157.0,0.0104
3156.0,0.0104
3155.0,0.0103
3154.0,0.0102
3153.0,0.0102
3152.0,0.0101
3151.0,0.01
3150.0,0.01
3149.0,0.0099
3148.0,0.0098
3147.0,0.0097
3146.0,0.0097
3145.0,0.0098
3144.0,0.0098
3143.0,0.0097
3142.0,0.0097
3141.0,0.0096
3140.0,0.0095
3139.0,0.0095
3138.0,0.0094
3137.0,0.0094
3136.0,0.0094
3135.0,0.0093
3134.0,0.0093
3133.0,0.0093
3132.0,0.0092
3131.0,0.0092
3130.0,0.0092
3129.0,0.0092
3128.0,0.0091
3127.0,0.0091
3126.0,0.0091
3125.0,0.009
3124.0,0.009
3123.0,0.0089
3122.0,0.0089
3121.0,0.0088
3120.0,0.0088
3119.0,0.0088
3118.0,0.0088
3117.0,0.0087
3116.0,0.0087
3115.0,0.0087
3114.0,0.0086
3113.0,0.0087
3112.0,0.0087
3111.0,0.0087
3110.0,0.0086
3109.0,0.0085
3108.0,0.0084
3107.0,0.0084
3106.0,0.0084
3105.0,0.0084
3104.0,0.0084
3103.0,0.0085
3102.0,0.0085
3101.0,0.0085
3100.0,0.0085
3099.0,0.0085
3098.0,0.0084
3097.0,0.0084
3096.0,0.0083
3095.0,0.0084
3094.0,0.0084
3093.0,0.0085
3092.0,0.0085
3091.0,0.0084
3090.0,0.0084
3089.0,0.0083
3088.0,0.0083
3087.0,0.0083
3086.0,0.0083
3085.0,0.0083
3084.0,0.0083
3083.0,0.0082
3082.0,0.0082
3081.0,0.0081
3080.0,0.0081
3079.0,0.008
3078.0,0.008
3077.0,0.0079
3076.0,0.0078
3075.0,0.0078
3074.0,0.0077
3073.0,0.0078
3072.0,0.0078
3071.0,0.0079
3070.0,0.0079
3069.0,0.0078
3068.0,0.0078
3067.0,0.0077
3066.0,0.0076
3065.0,0.0075
3064.0,0.0075
3063.0,0.0074
3062.0,0.0073
3061.0,0.0073
3060.0,0.0072
3059.0,0.0072
3058.0,0.0072
3057.0,0.0072
3056.0,0.0071
3055.0,0.0071
3054.0,0.0071
3053.0,0.0071
3052.0,0.0071
3051.0,0.0071
3050.0,0.0071
3049.0,0.007
3048.0,0.007
3047.0,0.007
3046.0,0.007
3045.0,0.007
3044.0,0.0069
3043.0,0.0068
3042.0,0.0067
3041.0,0.0066
3040.0,0.0066
3039.0,0.0067
3038.0,0.0067
3037.0,0.0067
3036.0,0.0067
3035.0,0.0067
3034.0,0.0066
3033.0,0.0066
3032.0,0.0065
3031.0,0.0065
3030.0,0.0065
3029.0,0.0064
3028.0,0.0064
3027.0,0.0063
3026.0,0.0062
3025.0,0.0062
3024.0,0.0062
3023.0,0.0062
3022.0,0.0061
3021.0,0.006
3020.0,0.0059
3019.0,0.0059
3018.0,0.0058
3017.0,0.0058
3016.0,0.0057
3015.0,0.0057
3014.0,0.0056
3013.0,0.0056
3012.0,0.0055
3011.0,0.0055
3010.0,0.0055
3009.0,0.0056
3008.0,0.0056
3007.0,0.0055
3006.0,0.0055
3005.0,0.0054
3004.0,0.0053
3003.0,0.0053
3002.0,0.0054
3001.0,0.0054
3000.0,0.0054
2999.0,0.0054
2998.0,0.0053
2997.0,0.0053
2996.0,0.0052
2995.0,0.0052
2994.0,0.0051
2993.0,0.0051
2992.0,0.0052
2991.0,0.0053
2990.0,0.0054
2989.0,0.0055
2988.0,0.0055
2987.0,0.0054
2986.0,0.0054
2985.0,0.0055
2984.0,0.0057
2983.0,0.0058
2982.0,0.006
2981.0,0.0062
2980.0,0.0065
2979.0,0.0068
2978.0,0.0071
2977.0,0.0075
2976.0,0.0079
2975.0,0.0083
2974.0,0.0089
2973.0,0.0095
2972.0,0.0102
2971.0,0.011
2970.0,0.0119
2969.0,0.0128
2968.0,0.0137
2967.0,0.0147
2966.0,0.0156
2965.0,0.0166
2964.0,0.0176
2963.0,0.0186
2962.0,0.0195
2961.0,0.0204
2960.0,0.0212
2959.0,0.0219
2958.0,0.0225
2957.0,0.0229
2956.0,0.0233
2955.0,0.0237
2954.0,0.024
2953.0,0.0243
2952.0,0.0247
2951.0,0.0252
2950.0,0.0258
2949.0,0.0266
2948.0,0.0278
2947.0,0.0293
2946.0,0.0312
2945.0,0.0335
2944.0,0.0362
2943.0,0.0392
2942.0,0.0427
2941.0,0.0466
2940.0,0.0509
2939.0,0.0554
2938.0,0.0603
2937.0,0.0656
2936.0,0.0712
2935.0,0.0774
2934.0,0.084
2933.0,0.0911
2932.0,0.0988
2931.0,0.107
2930.0,0.1159
2929.0,0.1256
2928.0,0.1361
2927.0,0.1475
2926.0,0.1602
2925.0,0.1743
2924.0,0.19
2923.0,0.2074
2922.0,0.2265
2921.0,0.247
2920.0,0.2684
2919.0,0.2891
2918.0,0.3069
2917.0,0.3189
2916.0,0.323
2915.0,0.3186
2914.0,0.307
2913.0,0.2909
2912.0,0.2732
2911.0,0.2557
2910.0,0.2398
2909.0,0.2257
2908.0,0.2136
2907.0,0.2032
2906.0,0.1943
2905.0,0.1867
2904.0,0.1801
2903.0,0.1742
2902.0,0.1691
2901.0,0.1645
2900.0,0.1603
2899.0,0.1563
2898.0,0.1526
2897.0,0.1489
2896.0,0.1452
2895.0,0.1414
2894.0,0.1376
2893.0,0.1338
2892.0,0.1301
2891.0,0.1264
2890.0,0.1226
2889.0,0.1187
2888.0,0.1148
2887.0,0.1109
2886.0,0.1071
2885.0,0.1034
2884.0,0.0997
2883.0,0.0961
2882.0,0.0926
2881.0,0.0892
2880.0,0.0859
2879.0,0.0829
2878.0,0.08
2877.0,0.0774
2876.0,0.0752
2875.0,0.0733
2874.0,0.0717
2873.0,0.0703
2872.0,0.0689
2871.0,0.0678
2870.0,0.0668
2869.0,0.0662
2868.0,0.066
2867.0,0.0662
2866.0,0.0669
2865.0,0.0683
2864.0,0.0705
2863.0,0.0736
2862.0,0.0777
2861.0,0.0829
2860.0,0.0894
2859.0,0.0975
2858.0,0.1072
2857.0,0.1189
2856.0,0.1331
2855.0,0.1503
2854.0,0.171
2853.0,0.1955
2852.0,0.2234
2851.0,0.2521
2850.0,0.2769
2849.0,0.2918
2848.0,0.2926
2847.0,0.2797
2846.0,0.2576
2845.0,0.2321
2844.0,0.2072
2843.0,0.1848
2842.0,0.1657
2841.0,0.1496
2840.0,0.1361
2839.0,0.1248
2838.0,0.1154
2837.0,0.1074
2836.0,0.1006
2835.0,0.0948
2834.0,0.0897
2833.0,0.0852
2832.0,0.0814
2831.0,0.078
2830.0,0.0751
2829.0,0.0725
2828.0,0.0701
2827.0,0.068
2826.0,0.066
2825.0,0.0642
2824.0,0.0626
2823.0,0.0611
2822.0,0.0596
2821.0,0.0582
2820.0,0.0569
2819.0,0.0558
2818.0,0.0548
2817.0,0.0538
2816.0,0.0528
2815.0,0.0519
2814.0,0.051
2813.0,0.0502
2812.0,0.0494
2811.0,0.0487
2810.0,0.0481
2809.0,0.0474
2808.0,0.0467
2807.0,0.046
2806.0,0.0454
2805.0,0.0447
2804.0,0.0442
2803.0,0.0436
2802.0,0.0431
2801.0,0.0426
2800.0,0.0422
2799.0,0.0417
2798.0,0.0412
2797.0,0.0407
2796.0,0.0402
2795.0,0.0397
2794.0,0.0393
2793.0,0.0388
2792.0,0.0385
2791.0,0.0381
2790.0,0.0378
2789.0,0.0374
2788.0,0.0371
2787.0,0.0367
2786.0,0.0363
2785.0,0.0359
2784.0,0.0355
2783.0,0.0351
2782.0,0.0348
2781.0,0.0345
2780.0,0.0342
2779.0,0.034
2778.0,0.0337
2777.0,0.0334
2776.0,0.0331
2775.0,0.0329
2774.0,0.0326
2773.0,0.0323
2772.0,0.0321
2771.0,0.0319
2770.0,0.0317
2769.0,0.0315
2768.0,0.0313
2767.0,0.0311
2766.0,0.0309
2765.0,0.0307
2764.0,0.0305
2763.0,0.0304
2762.0,0.0302
2761.0,0.03
2760.0,0.0298
2759.0,0.0297
2758.0,0.0296
2757.0,0.0295
2756.0,0.0295
2755.0,0.0294
2754.0,0.0293
2753.0,0.0292
2752.0,0.029
2751.0,0.0288
2750.0,0.0287
2749.0,0.0285
2748.0,0.0285
2747.0,0.0284
2746.0,0.0283
2745.0,0.0283
2744.0,0.0282
2743.0,0.0282
2742.0,0.0281
2741.0,0.0281
2740.0,0.028
2739.0,0.0279
2738.0,0.0278
2737.0,0.0277
2736.0,0.0277
2735.0,0.0276
2734.0,0.0275
2733.0,0.0275
2732.0,0.0274
2731.0,0.0272
2730.0,0.0271
2729.0,0.0269
2728.0,0.0268
2727.0,0.0268
2726.0,0.0267
2725.0,0.0266
2724.0,0.0266
2723.0,0.0264
2722.0,0.0263
2721.0,0.0261
2720.0,0.026
2719.0,0.026
2718.0,0.026
2717.0,0.0259
2716.0,0.0258
2715.0,0.0258
2714.0,0.0257
2713.0,0.0256
2712.0,0.0255
2711.0,0.0254
2710.0,0.0253
2709.0,0.0253
2708.0,0.0251
2707.0,0.025
2706.0,0.0249
2705.0,0.0249
2704.0,0.0248
2703.0,0.0248
2702.0,0.0247
2701.0,0.0246
2700.0,0.0245
2699.0,0.0244
2698.0,0.0243
2697.0,0.0243
2696.0,0.0242
2695.0,0.0241
2694.0,0.0241
2693.0,0.0241
2692.0,0.0241
2691.0,0.0241
2690.0,0.0241
2689.0,0.0241
2688.0,0.024
2687.0,0.024
2686.0,0.024
2685.0,0.024
2684.0,0.0239
2683.0,0.0239
2682.0,0.0239
2681.0,0.0239
2680.0,0.0239
2679.0,0.0239
2678.0,0.0239
2677.0,0.024
2676.0,0.024
2675.0,0.0241
2674.0,0.0241
2673.0,0.0241
2672.0,0.024
2671.0,0.024
2670.0,0.024
2669.0,0.0239
2668.0,0.0239
2667.0,0.0238
2666.0,0.0237
2665.0,0.0237
2664.0,0.0236
2663.0,0.0236
2662.0,0.0236
2661.0,0.0236
2660.0,0.0236
2659.0,0.0237
2658.0,0.0237
2657.0,0.0236
2656.0,0.0236
2655.0,0.0235
2654.0,0.0234
2653.0,0.0234
2652.0,0.0233
2651.0,0.0233
2650.0,0.0233
2649.0,0.0233
2648.0,0.0232
2647.0,0.0232
2646.0,0.0232
2645.0,0.0231
2644.0,0.0231
2643.0,0.023
2642.0,0.023
2641.0,0.023
2640.0,0.0231
2639.0,0.0231
2638.0,0.0231
2637.0,0.023
2636.0,0.023
2635.0,0.023
2634.0,0.0229
2633.0,0.0228
2632.0,0.0228
2631.0,0.0228
2630.0,0.0227
2629.0,0.0226
2628.0,0.0226
2627.0,0.0225
2626.0,0.0224
2625.0,0.0224
2624.0,0.0223
2623.0,0.0222
2622.0,0.0222
2621.0,0.0221
2620.0,0.0221
2619.0,0.0221
2618.0,0.022
2617.0,0.0219
2616.0,0.0218
2615.0,0.0217
2614.0,0.0216
2613.0,0.0215
2612.0,0.0214
2611.0,0.0214
2610.0,0.0213
2609.0,0.0213
2608.0,0.0213
2607.0,0.0213
2606.0,0.0212
2605.0,0.0211
2604.0,0.021
2603.0,0.0209
2602.0,0.0209
2601.0,0.0209
2600.0,0.0209
2599.0,0.0208
2598.0,0.0208
2597.0,0.0208
2596.0,0.0208
2595.0,0.0208
2594.0,0.0207
2593.0,0.0206
2592.0,0.0205
2591.0,0.0204
2590.0,0.0203
2589.0,0.0202
2588.0,0.0202
2587.0,0.0202
2586.0,0.0202
2585.0,0.0202
2584.0,0.0202
2583.0,0.0201
2582.0,0.0201
2581.0,0.02
2580.0,0.02
2579.0,0.0199
2578.0,0.0198
2577.0,0.0198
2576.0,0.0197
2575.0,0.0196
2574.0,0.0196
2573.0,0.0195
2572.0,0.0194
2571.0,0.0194
2570.0,0.0194
2569.0,0.0194
2568.0,0.0194
2567.0,0.0194
2566.0,0.0194
2565.0,0.0193
2564.0,0.0193
2563.0,0.0192
2562.0,0.0191
2561.0,0.0191
2560.0,0.0191
2559.0,0.0191
2558.0,0.0191
2557.0,0.019
2556.0,0.019
2555.0,0.019
2554.0,0.0191
2553.0,0.0191
2552.0,0.019
2551.0,0.019
2550.0,0.0189
2549.0,0.0188
2548.0,0.0187
2547.0,0.0187
2546.0,0.0186
2545.0,0.0186
2544.0,0.0186
2543.0,0.0186
2542.0,0.0185
2541.0,0.0185
2540.0,0.0185
2539.0,0.0185
2538.0,0.0185
2537.0,0.0184
2536.0,0.0184
2535.0,0.0184
2534.0,0.0184
2533.0,0.0184
2532.0,0.0184
2531.0,0.0184
2530.0,0.0183
2529.0,0.0183
2528.0,0.0183
2527.0,0.0183
2526.0,0.0183
2525.0,0.0182
2524.0,0.0181
2523.0,0.0181
2522.0,0.018
2521.0,0.0179
2520.0,0.0179
2519.0,0.0178
2518.0,0.0178
2517.0,0.0178
2516.0,0.0178
2515.0,0.0177
2514.0,0.0177
2513.0,0.0177
2512.0,0.0177
2511.0,0.0176
2510.0,0.0176
2509.0,0.0175
2508.0,0.0175
2507.0,0.0175
2506.0,0.0176
2505.0,0.0176
2504.0,0.0177
2503.0,0.0177
2502.0,0.0177
2501.0,0.0177
2500.0,0.0176
2499.0,0.0176
2498.0,0.0176
2497.0,0.0175
2496.0,0.0175
2495.0,0.0174
2494.0,0.0174
2493.0,0.0173
2492.0,0.0173
2491.0,0.0174
2490.0,0.0174
2489.0,0.0173
2488.0,0.0173
2487.0,0.0173
2486.0,0.0172
2485.0,0.0172
2484.0,0.0171
2483.0,0.0171
2482.0,0.0171
2481.0,0.0171
2480.0,0.0171
2479.0,0.0171
2478.0,0.017
2477.0,0.017
2476.0,0.017
2475.0,0.0171
2474.0,0.0171
2473.0,0.0171
2472.0,0.017
2471.0,0.017
2470.0,0.017
2469.0,0.0169
2468.0,0.0169
2467.0,0.0169
2466.0,0.0169
2465.0,0.0169
2464.0,0.0169
2463.0,0.0169
2462.0,0.0169
2461.0,0.0168
2460.0,0.0167
2459.0,0.0167
2458.0,0.0167
2457.0,0.0167
2456.0,0.0167
2455.0,0.0167
2454.0,0.0166
2453.0,0.0165
2452.0,0.0165
2451.0,0.0165
2450.0,0.0165
2449.0,0.0164
2448.0,0.0164
2447.0,0.0164
2446.0,0.0164
2445.0,0.0164
2444.0,0.0164
2443.0,0.0164
2442.0,0.0164
2441.0,0.0165
2440.0,0.0165
2439.0,0.0165
2438.0,0.0165
2437.0,0.0165
2436.0,0.0165
2435.0,0.0164
2434.0,0.0164
2433.0,0.0165
2432.0,0.0165
2431.0,0.0165
2430.0,0.0165
2429.0,0.0165
2428.0,0.0165
2427.0,0.0165
2426.0,0.0164
2425.0,0.0164
2424.0,0.0164
2423.0,0.0164
2422.0,0.0164
2421.0,0.0164
2420.0,0.0164
2419.0,0.0164
2418.0,0.0164
2417.0,0.0163
2416.0,0.0163
2415.0,0.0163
2414.0,0.0164
2413.0,0.0164
2412.0,0.0164
2411.0,0.0164
2410.0,0.0163
2409.0,0.0163
2408.0,0.0163
2407.0,0.0163
2406.0,0.0163
2405.0,0.0163
2404.0,0.0163
2403.0,0.0163
2402.0,0.0163
2401.0,0.0162
2400.0,0.0162
2399.0,0.0162
2398.0,0.0162
2397.0,0.0162
2396.0,0.0162
2395.0,0.0162
2394.0,0.0162
2393.0,0.0162
2392.0,0.0162
2391.0,0.0161
2390.0,0.016
2389.0,0.016
2388.0,0.016
2387.0,0.016
2386.0,0.016
2385.0,0.016
2384.0,0.016
2383.0,0.016
2382.0,0.0161
2381.0,0.0162
2380.0,0.0162
2379.0,0.0161
2378.0,0.0161
2377.0,0.0161
2376.0,0.0162
2375.0,0.0164
2374.0,0.0167
2373.0,0.017
2372.0,0.0171
2371.0,0.0164
2370.0,0.0146
2369.0,0.0123
2368.0,0.011
2367.0,0.0119
2366.0,0.0143
2365.0,0.0164
2364.0,0.0169
2363.0,0.0161
2362.0,0.0151
2361.0,0.0152
2360.0,0.0165
2359.0,0.0184
2358.0,0.0195
2357.0,0.0195
2356.0,0.019
2355.0,0.0184
2354.0,0.0177
2353.0,0.017
2352.0,0.0164
2351.0,0.0162
2350.0,0.0165
2349.0,0.017
2348.0,0.0173
2347.0,0.0174
2346.0,0.0174
2345.0,0.0176
2344.0,0.0176
2343.0,0.0179
2342.0,0.0184
2341.0,0.0187
2340.0,0.0184
2339.0,0.0178
2338.0,0.0176
2337.0,0.0181
2336.0,0.0187
2335.0,0.0191
2334.0,0.0192
2333.0,0.0193
2332.0,0.0193
2331.0,0.0192
2330.0,0.0191
2329.0,0.0189
2328.0,0.0188
2327.0,0.0183
2326.0,0.0174
2325.0,0.0166
2324.0,0.0161
2323.0,0.016
2322.0,0.0162
2321.0,0.0164
2320.0,0.0165
2319.0,0.0168
2318.0,0.0171
2317.0,0.0173
2316.0,0.0173
2315.0,0.0171
2314.0,0.0168
2313.0,0.0165
2312.0,0.0165
2311.0,0.0166
2310.0,0.0167
2309.0,0.0167
2308.0,0.0167
2307.0,0.0166
2306.0,0.0165
2305.0,0.0165
2304.0,0.0164
2303.0,0.0164
2302.0,0.0163
2301.0,0.0164
2300.0,0.0163
2299.0,0.0163
2298.0,0.0162
2297.0,0.0161
2296.0,0.016
2295.0,0.016
2294.0,0.016
2293.0,0.016
2292.0,0.016
2291.0,0.016
2290.0,0.0159
2289.0,0.0159
2288.0,0.0159
2287.0,0.0159
2286.0,0.0159
2285.0,0.0158
2284.0,0.0158
2283.0,0.0157
2282.0,0.0157
2281.0,0.0156
2280.0,0.0156
2279.0,0.0156
2278.0,0.0156
2277.0,0.0156
2276.0,0.0156
2275.0,0.0156
2274.0,0.0156
2273.0,0.0156
2272.0,0.0156
2271.0,0.0155
2270.0,0.0155
2269.0,0.0154
2268.0,0.0154
2267.0,0.0153
2266.0,0.0153
2265.0,0.0152
2264.0,0.0152
2263.0,0.0152
2262.0,0.0152
2261.0,0.0153
2260.0,0.0153
2259.0,0.0153
2258.0,0.0153
2257.0,0.0153
2256.0,0.0152
2255.0,0.0152
2254.0,0.0152
2253.0,0.0152
2252.0,0.0152
2251.0,0.0153
2250.0,0.0153
2249.0,0.0153
2248.0,0.0152
2247.0,0.0152
2246.0,0.0152
2245.0,0.0152
2244.0,0.0152
2243.0,0.0152
2242.0,0.0152
2241.0,0.0152
2240.0,0.0151
2239.0,0.0151
2238.0,0.015
2237.0,0.0151
2236.0,0.0151
2235.0,0.0151
2234.0,0.015
2233.0,0.015
2232.0,0.015
2231.0,0.015
2230.0,0.015
2229.0,0.015
2228.0,0.015
2227.0,0.015
2226.0,0.0149
2225.0,0.0149
2224.0,0.0149
2223.0,0.0149
2222.0,0.0149
2221.0,0.0149
2220.0,0.0149
2219.0,0.0148
2218.0,0.0149
2217.0,0.0149
2216.0,0.015
2215.0,0.015
2214.0,0.015
2213.0,0.015
2212.0,0.015
2211.0,0.015
2210.0,0.0149
2209.0,0.0149
2208.0,0.0149
2207.0,0.0149
2206.0,0.0149
2205.0,0.015
2204.0,0.015
2203.0,0.0149
2202.0,0.0149
2201.0,0.0148
2200.0,0.0148
2199.0,0.0148
2198.0,0.0148
2197.0,0.0148
2196.0,0.0149
2195.0,0.0149
2194.0,0.0149
2193.0,0.0149
2192.0,0.0149
2191.0,0.0149
2190.0,0.0149
2189.0,0.0149
2188.0,0.0149
2187.0,0.0149
2186.0,0.0149
2185.0,0.0149
2184.0,0.0148
2183.0,0.0148
2182.0,0.0148
2181.0,0.0148
2180.0,0.0148
2179.0,0.0148
2178.0,0.0149
2177.0,0.0149
2176.0,0.0149
2175.0,0.0149
2174.0,0.0149
2173.0,0.0149
2172.0,0.0149
2171.0,0.0149
2170.0,0.0149
2169.0,0.0149
2168.0,0.0149
2167.0,0.0149
2166.0,0.015
2165.0,0.015
2164.0,0.0149
2163.0,0.0149
2162.0,0.0148
2161.0,0.0148
2160.0,0.0148
2159.0,0.0149
2158.0,0.0149
2157.0,0.0149
2156.0,0.015
2155.0,0.015
2154.0,0.015
2153.0,0.015
2152.0,0.015
2151.0,0.015
2150.0,0.015
2149.0,0.015
2148.0,0.015
2147.0,0.0149
2146.0,0.0149
2145.0,0.0148
2144.0,0.0148
2143.0,0.0148
2142.0,0.0148
2141.0,0.0148
2140.0,0.0148
2139.0,0.0148
2138.0,0.0148
2137.0,0.0148
2136.0,0.0148
2135.0,0.0148
2134.0,0.0148
2133.0,0.0148
2132.0,0.0148
2131.0,0.0148
2130.0,0.0148
2129.0,0.0148
2128.0,0.0148
2127.0,0.0148
2126.0,0.0148
2125.0,0.0147
2124.0,0.0147
2123.0,0.0146
2122.0,0.0147
2121.0,0.0147
2120.0,0.0147
2119.0,0.0147
2118.0,0.0147
2117.0,0.0146
2116.0,0.0146
2115.0,0.0145
2114.0,0.0146
2113.0,0.0146
2112.0,0.0146
2111.0,0.0145
2110.0,0.0145
2109.0,0.0145
2108.0,0.0145
2107.0,0.0145
2106.0,0.0145
2105.0,0.0144
2104.0,0.0144
2103.0,0.0145
2102.0,0.0145
2101.0,0.0145
2100.0,0.0146
2099.0,0.0146
2098.0,0.0146
2097.0,0.0146
2096.0,0.0146
2095.0,0.0146
2094.0,0.0146
2093.0,0.0146
2092.0,0.0146
2091.0,0.0146
2090.0,0.0146
2089.0,0.0146
2088.0,0.0146
2087.0,0.0145
2086.0,0.0145
2085.0,0.0145
2084.0,0.0145
2083.0,0.0145
2082.0,0.0145
2081.0,0.0145
2080.0,0.0146
2079.0,0.0146
2078.0,0.0146
2077.0,0.0146
2076.0,0.0146
2075.0,0.0146
2074.0,0.0146
2073.0,0.0146
2072.0,0.0145
2071.0,0.0145
2070.0,0.0145
2069.0,0.0145
2068.0,0.0145
2067.0,0.0145
2066.0,0.0145
2065.0,0.0145
2064.0,0.0145
2063.0,0.0145
2062.0,0.0145
2061.0,0.0145
2060.0,0.0145
2059.0,0.0146
2058.0,0.0146
2057.0,0.0147
2056.0,0.0147
2055.0,0.0147
2054.0,0.0147
2053.0,0.0147
2052.0,0.0147
2051.0,0.0147
2050.0,0.0147
2049.0,0.0147
2048.0,0.0147
2047.0,0.0147
2046.0,0.0147
2045.0,0.0147
2044.0,0.0147
2043.0,0.0147
2042.0,0.0147
2041.0,0.0147
2040.0,0.0147
2039.0,0.0147
2038.0,0.0147
2037.0,0.0147
2036.0,0.0146
2035.0,0.0146
2034.0,0.0147
2033.0,0.0147
2032.0,0.0148
2031.0,0.0148
2030.0,0.0149
2029.0,0.0148
2028.0,0.0148
2027.0,0.0148
2026.0,0.0148
2025.0,0.0149
2024.0,0.0149
2023.0,0.0149
2022.0,0.0149
2021.0,0.0149
2020.0,0.0149
2019.0,0.0149
2018.0,0.0149
2017.0,0.0149
2016.0,0.0149
2015.0,0.0149
2014.0,0.0148
2013.0,0.0148
2012.0,0.0148
2011.0,0.0147
2010.0,0.0147
2009.0,0.0146
2008.0,0.0146
2007.0,0.0147
2006.0,0.0147
2005.0,0.0146
2004.0,0.0146
2003.0,0.0146
2002.0,0.0146
2001.0,0.0146
2000.0,0.0146
1999.0,0.0146
1998.0,0.0146
1997.0,0.0145
1996.0,0.0144
1995.0,0.0143
1994.0,0.0143
1993.0,0.0144
1992.0,0.0144
1991.0,0.0144
1990.0,0.0144
1989.0,0.0144
1988.0,0.0145
1987.0,0.0145
1986.0,0.0145
1985.0,0.0145
1984.0,0.0145
1983.0,0.0145
1982.0,0.0145
1981.0,0.0145
1980.0,0.0145
1979.0,0.0145
1978.0,0.0145
1977.0,0.0145
1976.0,0.0144
1975.0,0.0144
1974.0,0.0144
1973.0,0.0144
1972.0,0.0144
1971.0,0.0144
1970.0,0.0144
1969.0,0.0144
1968.0,0.0144
1967.0,0.0145
1966.0,0.0145
1965.0,0.0146
1964.0,0.0146
1963.0,0.0145
1962.0,0.0145
1961.0,0.0144
1960.0,0.0144
1959.0,0.0144
1958.0,0.0144
1957.0,0.0145
1956.0,0.0145
1955.0,0.0145
1954.0,0.0144
1953.0,0.0144
1952.0,0.0144
1951.0,0.0144
1950.0,0.0144
1949.0,0.0144
1948.0,0.0144
1947.0,0.0143
1946.0,0.0143
1945.0,0.0144
1944.0,0.0145
1943.0,0.0145
1942.0,0.0146
1941.0,0.0146
1940.0,0.0145
1939.0,0.0145
1938.0,0.0145
1937.0,0.0145
1936.0,0.0145
1935.0,0.0145
1934.0,0.0145
1933.0,0.0145
1932.0,0.0144
1931.0,0.0144
1930.0,0.0144
1929.0,0.0145
1928.0,0.0145
1927.0,0.0145
1926.0,0.0145
1925.0,0.0145
1924.0,0.0145
1923.0,0.0145
1922.0,0.0146
1921.0,0.0146
1920.0,0.0146
1919.0,0.0146
1918.0,0.0146
1917.0,0.0147
1916.0,0.0147
1915.0,0.0147
1914.0,0.0147
1913.0,0.0146
1912.0,0.0146
1911.0,0.0146
1910.0,0.0146
1909.0,0.0146
1908.0,0.0146
1907.0,0.0146
1906.0,0.0146
1905.0,0.0146
1904.0,0.0147
1903.0,0.0148
1902.0,0.0148
1901.0,0.0148
1900.0,0.0149
1899.0,0.0149
1898.0,0.015
1897.0,0.015
1896.0,0.015
1895.0,0.015
1894.0,0.0149
1893.0,0.0149
1892.0,0.0148
1891.0,0.0148
1890.0,0.0148
1889.0,0.0147
1888.0,0.0147
1887.0,0.0146
1886.0,0.0146
1885.0,0.0146
1884.0,0.0146
1883.0,0.0146
1882.0,0.0146
1881.0,0.0146
1880.0,0.0146
1879.0,0.0146
1878.0,0.0145
1877.0,0.0145
1876.0,0.0145
1875.0,0.0145
1874.0,0.0144
1873.0,0.0145
1872.0,0.0145
1871.0,0.0145
1870.0,0.0145
1869.0,0.0145
1868.0,0.0145
1867.0,0.0145
1866.0,0.0145
1865.0,0.0145
1864.0,0.0145
1863.0,0.0145
1862.0,0.0145
1861.0,0.0144
1860.0,0.0144
1859.0,0.0143
1858.0,0.0143
1857.0,0.0144
1856.0,0.0144
1855.0,0.0144
1854.0,0.0144
1853.0,0.0144
1852.0,0.0144
1851.0,0.0144
1850.0,0.0144
1849.0,0.0144
1848.0,0.0144
1847.0,0.0144
1846.0,0.0144
1845.0,0.0144
1844.0,0.0144
1843.0,0.0144
1842.0,0.0144
1841.0,0.0144
1840.0,0.0144
1839.0,0.0144
1838.0,0.0144
1837.0,0.0144
1836.0,0.0144
1835.0,0.0144
1834.0,0.0144
1833.0,0.0144
1832.0,0.0143
1831.0,0.0143
1830.0,0.0143
1829.0,0.0143
1828.0,0.0143
1827.0,0.0144
1826.0,0.0144
1825.0,0.0144
1824.0,0.0144
1823.0,0.0144
1822.0,0.0144
1821.0,0.0144
1820.0,0.0144
1819.0,0.0143
1818.0,0.0143
1817.0,0.0143
1816.0,0.0144
1815.0,0.0144
1814.0,0.0143
1813.0,0.0143
1812.0,0.0144
1811.0,0.0144
1810.0,0.0144
1809.0,0.0144
1808.0,0.0144
1807.0,0.0144
1806.0,0.0144
1805.0,0.0144
1804.0,0.0144
1803.0,0.0144
1802.0,0.0144
1801.0,0.0144
1800.0,0.0144
1799.0,0.0144
1798.0,0.0144
1797.0,0.0144
1796.0,0.0144
1795.0,0.0145
1794.0,0.0145
1793.0,0.0145
1792.0,0.0146
1791.0,0.0146
1790.0,0.0146
1789.0,0.0146
1788.0,0.0146
1787.0,0.0146
1786.0,0.0146
1785.0,0.0146
1784.0,0.0146
1783.0,0.0146
1782.0,0.0145
1781.0,0.0145
1780.0,0.0146
1779.0,0.0146
1778.0,0.0146
1777.0,0.0146
1776.0,0.0147
1775.0,0.0147
1774.0,0.0146
1773.0,0.0146
1772.0,0.0146
1771.0,0.0146
1770.0,0.0146
1769.0,0.0147
1768.0,0.0147
1767.0,0.0147
1766.0,0.0146
1765.0,0.0146
1764.0,0.0146
1763.0,0.0146
1762.0,0.0147
1761.0,0.0148
1760.0,0.0149
1759.0,0.0149
1758.0,0.015
1757.0,0.0151
1756.0,0.0152
1755.0,0.0153
1754.0,0.0153
1753.0,0.0154
1752.0,0.0155
1751.0,0.0156
1750.0,0.0157
1749.0,0.0157
1748.0,0.0158
1747.0,0.0159
1746.0,0.016
1745.0,0.016
1744.0,0.016
1743.0,0.0161
1742.0,0.0162
1741.0,0.0162
1740.0,0.0163
1739.0,0.0163
1738.0,0.0162
1737.0,0.0162
1736.0,0.0161
1735.0,0.0161
1734.0,0.0161
1733.0,0.0161
1732.0,0.016
1731.0,0.0161
1730.0,0.0162
1729.0,0.0162
1728.0,0.0163
1727.0,0.0164
1726.0,0.0166
1725.0,0.0167
1724.0,0.0169
1723.0,0.017
1722.0,0.0171
1721.0,0.0172
1720.0,0.0172
1719.0,0.0173
1718.0,0.0174
1717.0,0.0175
1716.0,0.0175
1715.0,0.0174
1714.0,0.0174
1713.0,0.0173
1712.0,0.0172
1711.0,0.0172
1710.0,0.0171
1709.0,0.017
1708.0,0.017
1707.0,0.0168
1706.0,0.0167
1705.0,0.0167
1704.0,0.0167
1703.0,0.0167
1702.0,0.0167
1701.0,0.0167
1700.0,0.0166
1699.0,0.0164
1698.0,0.0164
1697.0,0.0164
1696.0,0.0165
1695.0,0.0164
1694.0,0.0164
1693.0,0.0165
1692.0,0.0165
1691.0,0.0164
1690.0,0.0163
1689.0,0.0164
1688.0,0.0164
1687.0,0.0164
1686.0,0.0163
1685.0,0.0163
1684.0,0.0166
1683.0,0.0167
1682.0,0.0168
1681.0,0.0168
1680.0,0.0169
1679.0,0.0169
1678.0,0.0169
1677.0,0.017
1676.0,0.0171
1675.0,0.0171
1674.0,0.0171
1673.0,0.017
1672.0,0.017
1671.0,0.0171
1670.0,0.0172
1669.0,0.0173
1668.0,0.0173
1667.0,0.0173
1666.0,0.0174
1665.0,0.0174
1664.0,0.0175
1663.0,0.0176
1662.0,0.0176
1661.0,0.0176
1660.0,0.0176
1659.0,0.0176
1658.0,0.0175
1657.0,0.0175
1656.0,0.0175
1655.0,0.0173
1654.0,0.0173
1653.0,0.0176
1652.0,0.0176
1651.0,0.0175
1650.0,0.0175
1649.0,0.0175
1648.0,0.0175
1647.0,0.0176
1646.0,0.0178
1645.0,0.0178
1644.0,0.0178
1643.0,0.0178
1642.0,0.0178
1641.0,0.0178
1640.0,0.0178
1639.0,0.0178
1638.0,0.0178
1637.0,0.0178
1636.0,0.018
1635.0,0.0179
1634.0,0.0178
1633.0,0.0177
1632.0,0.0177
1631.0,0.0176
1630.0,0.0176
1629.0,0.0175
1628.0,0.0175
1627.0,0.0175
1626.0,0.0175
1625.0,0.0175
1624.0,0.0176
1623.0,0.0176
1622.0,0.0175
1621.0,0.0174
1620.0,0.0173
1619.0,0.0173
1618.0,0.0172
1617.0,0.0172
1616.0,0.0171
1615.0,0.0171
1614.0,0.0171
1613.0,0.0171
1612.0,0.0171
1611.0,0.0171
1610.0,0.0171
1609.0,0.0171
1608.0,0.0171
1607.0,0.017
1606.0,0.017
1605.0,0.0169
1604.0,0.0169
1603.0,0.0169
1602.0,0.0169
1601.0,0.0169
1600.0,0.0169
1599.0,0.017
1598.0,0.017
1597.0,0.017
1596.0,0.017
1595.0,0.0169
1594.0,0.0169
1593.0,0.0169
1592.0,0.0169
1591.0,0.0168
1590.0,0.0168
1589.0,0.0168
1588.0,0.0167
1587.0,0.0167
1586.0,0.0167
1585.0,0.0167
1584.0,0.0167
1583.0,0.0167
1582.0,0.0167
1581.0,0.0167
1580.0,0.0167
1579.0,0.0167
1578.0,0.0167
1577.0,0.0166
1576.0,0.0166
1575.0,0.0165
1574.0,0.0165
1573.0,0.0165
1572.0,0.0164
1571.0,0.0163
1570.0,0.0162
1569.0,0.0163
1568.0,0.0164
1567.0,0.0164
1566.0,0.0164
1565.0,0.0164
1564.0,0.0164
1563.0,0.0165
1562.0,0.0165
1561.0,0.0163
1560.0,0.0161
1559.0,0.0161
1558.0,0.016
1557.0,0.0161
1556.0,0.0163
1555.0,0.0164
1554.0,0.0164
1553.0,0.0164
1552.0,0.0163
1551.0,0.0163
1550.0,0.0163
1549.0,0.0163
1548.0,0.0164
1547.0,0.0163
1546.0,0.0163
1545.0,0.0162
1544.0,0.0162
1543.0,0.0161
1542.0,0.0159
1541.0,0.0159
1540.0,0.0161
1539.0,0.016
1538.0,0.0158
1537.0,0.0159
1536.0,0.0159
1535.0,0.0159
1534.0,0.0158
1533.0,0.0158
1532.0,0.0158
1531.0,0.0157
1530.0,0.0156
1529.0,0.0156
1528.0,0.0156
1527.0,0.0156
1526.0,0.0156
1525.0,0.0156
1524.0,0.0156
1523.0,0.0154
1522.0,0.0153
1521.0,0.0154
1520.0,0.0155
1519.0,0.0155
1518.0,0.0154
1517.0,0.0153
1516.0,0.0153
1515.0,0.0152
1514.0,0.0151
1513.0,0.0151
1512.0,0.0151
1511.0,0.015
1510.0,0.0149
1509.0,0.0148
1508.0,0.0149
1507.0,0.015
1506.0,0.0148
1505.0,0.0148
1504.0,0.0149
1503.0,0.0149
1502.0,0.0148
1501.0,0.0149
1500.0,0.015
1499.0,0.0149
1498.0,0.0147
1497.0,0.0147
1496.0,0.0148
1495.0,0.0147
1494.0,0.0147
1493.0,0.0147
1492.0,0.0148
1491.0,0.0147
1490.0,0.0145
1489.0,0.0145
1488.0,0.0146
1487.0,0.0145
1486.0,0.0145
1485.0,0.0146
1484.0,0.0148
1483.0,0.0149
1482.0,0.0152
1481.0,0.0158
1480.0,0.0167
1479.0,0.018
1478.0,0.021
1477.0,0.0272
1476.0,0.0374
1475.0,0.0508
1474.0,0.0665
1473.0,0.0802
1472.0,0.0855
1471.0,0.0845
1470.0,0.0831
1469.0,0.0832
1468.0,0.0847
1467.0,0.0878
1466.0,0.0946
1465.0,0.105
1464.0,0.1136
1463.0,0.1156
1462.0,0.1116
1461.0,0.1036
1460.0,0.0937
1459.0,0.0834
1458.0,0.0743
1457.0,0.0676
1456.0,0.0636
1455.0,0.0608
1454.0,0.0582
1453.0,0.0553
1452.0,0.0524
1451.0,0.0499
1450.0,0.048
1449.0,0.0462
1448.0,0.0447
1447.0,0.0436
1446.0,0.0427
1445.0,0.042
1444.0,0.0413
1443.0,0.0406
1442.0,0.04
1441.0,0.0394
1440.0,0.0387
1439.0,0.0381
1438.0,0.0375
1437.0,0.0368
1436.0,0.0358
1435.0,0.0349
1434.0,0.0341
1433.0,0.0332
1432.0,0.0323
1431.0,0.0313
1430.0,0.0304
1429.0,0.0294
1428.0,0.0285
1427.0,0.0279
1426.0,0.0273
1425.0,0.0267
1424.0,0.0261
1423.0,0.0258
1422.0,0.0255
1421.0,0.0253
1420.0,0.025
1419.0,0.0248
1418.0,0.0247
1417.0,0.0245
1416.0,0.0243
1415.0,0.0242
1414.0,0.0241
1413.0,0.0239
1412.0,0.0238
1411.0,0.0237
1410.0,0.0236
1409.0,0.0234
1408.0,0.0232
1407.0,0.023
1406.0,0.0229
1405.0,0.0228
1404.0,0.0227
1403.0,0.0227
1402.0,0.0227
1401.0,0.0225
1400.0,0.0223
1399.0,0.0222
1398.0,0.0221
1397.0,0.0221
1396.0,0.0221
1395.0,0.0221
1394.0,0.0221
1393.0,0.022
1392.0,0.0218
1391.0,0.0218
1390.0,0.0218
1389.0,0.0219
1388.0,0.022
1387.0,0.0224
1386.0,0.0227
1385.0,0.0231
1384.0,0.0235
1383.0,0.0243
1382.0,0.0252
1381.0,0.0263
1380.0,0.0275
1379.0,0.0284
1378.0,0.029
1377.0,0.029
1376.0,0.0287
1375.0,0.0283
1374.0,0.028
1373.0,0.0279
1372.0,0.0279
1371.0,0.0279
1370.0,0.0281
1369.0,0.0282
1368.0,0.0282
1367.0,0.0281
1366.0,0.0279
1365.0,0.0275
1364.0,0.0271
1363.0,0.0268
1362.0,0.0266
1361.0,0.0263
1360.0,0.026
1359.0,0.0258
1358.0,0.0257
1357.0,0.0256
1356.0,0.0256
1355.0,0.0256
1354.0,0.0257
1353.0,0.0257
1352.0,0.0257
1351.0,0.0256
1350.0,0.0255
1349.0,0.0254
1348.0,0.0252
1347.0,0.025
1346.0,0.0249
1345.0,0.0247
1344.0,0.0245
1343.0,0.0244
1342.0,0.0242
1341.0,0.024
1340.0,0.0239
1339.0,0.0237
1338.0,0.0235
1337.0,0.0233
1336.0,0.023
1335.0,0.0228
1334.0,0.0226
1333.0,0.0225
1332.0,0.0224
1331.0,0.0224
1330.0,0.0223
1329.0,0.0223
1328.0,0.0222
1327.0,0.0222
1326.0,0.0222
1325.0,0.0223
1324.0,0.0224
1323.0,0.0224
1322.0,0.0225
1321.0,0.0226
1320.0,0.0227
1319.0,0.0228
1318.0,0.0229
1317.0,0.023
1316.0,0.0231
1315.0,0.0233
1314.0,0.0234
1313.0,0.0236
1312.0,0.0237
1311.0,0.0238
1310.0,0.0239
1309.0,0.024
1308.0,0.024
1307.0,0.0241
1306.0,0.0241
1305.0,0.0242
1304.0,0.0242
1303.0,0.0243
1302.0,0.0243
1301.0,0.0243
1300.0,0.0242
1299.0,0.0242
1298.0,0.0242
1297.0,0.0242
1296.0,0.0241
1295.0,0.024
1294.0,0.0239
1293.0,0.0238
1292.0,0.0236
1291.0,0.0235
1290.0,0.0235
1289.0,0.0234
1288.0,0.0233
1287.0,0.0232
1286.0,0.0232
1285.0,0.0231
1284.0,0.023
1283.0,0.023
1282.0,0.023
1281.0,0.023
1280.0,0.0229
1279.0,0.0229
1278.0,0.0229
1277.0,0.0229
1276.0,0.0229
1275.0,0.0229
1274.0,0.023
1273.0,0.023
1272.0,0.023
1271.0,0.023
1270.0,0.023
1269.0,0.023
1268.0,0.023
1267.0,0.023
1266.0,0.023
1265.0,0.023
1264.0,0.023
1263.0,0.0231
1262.0,0.0231
1261.0,0.0231
1260.0,0.0231
1259.0,0.0231
1258.0,0.0231
1257.0,0.023
1256.0,0.023
1255.0,0.023
1254.0,0.0229
1253.0,0.0229
1252.0,0.0229
1251.0,0.0229
1250.0,0.0229
1249.0,0.0228
1248.0,0.0228
1247.0,0.0228
1246.0,0.0228
1245.0,0.0227
1244.0,0.0227
1243.0,0.0227
1242.0,0.0228
1241.0,0.0228
1240.0,0.0227
1239.0,0.0227
1238.0,0.0227
1237.0,0.0227
1236.0,0.0227
1235.0,0.0227
1234.0,0.0227
1233.0,0.0227
1232.0,0.0227
1231.0,0.0227
1230.0,0.0227
1229.0,0.0227
1228.0,0.0226
1227.0,0.0226
1226.0,0.0226
1225.0,0.0227
1224.0,0.0227
1223.0,0.0228
1222.0,0.0228
1221.0,0.0228
1220.0,0.0227
1219.0,0.0227
1218.0,0.0227
1217.0,0.0227
1216.0,0.0227
1215.0,0.0228
1214.0,0.0228
1213.0,0.0229
1212.0,0.0229
1211.0,0.023
1210.0,0.023
1209.0,0.0231
1208.0,0.0232
1207.0,0.0233
1206.0,0.0234
1205.0,0.0234
1204.0,0.0234
1203.0,0.0234
1202.0,0.0235
1201.0,0.0237
1200.0,0.0238
1199.0,0.0239
1198.0,0.024
1197.0,0.0241
1196.0,0.0241
1195.0,0.0242
1194.0,0.0242
1193.0,0.0243
1192.0,0.0243
1191.0,0.0244
1190.0,0.0245
1189.0,0.0246
1188.0,0.0246
1187.0,0.0247
1186.0,0.0248
1185.0,0.0248
1184.0,0.0249
1183.0,0.0249
1182.0,0.025
1181.0,0.0251
1180.0,0.0252
1179.0,0.0254
1178.0,0.0255
1177.0,0.0256
1176.0,0.0256
1175.0,0.0257
1174.0,0.0257
1173.0,0.0258
1172.0,0.0258
1171.0,0.0259
1170.0,0.0259
1169.0,0.0259
1168.0,0.0259
1167.0,0.0259
1166.0,0.0259
1165.0,0.0259
1164.0,0.0259
1163.0,0.0259
1162.0,0.0259
1161.0,0.026
1160.0,0.026
1159.0,0.026
1158.0,0.0261
1157.0,0.0261
1156.0,0.0261
1155.0,0.0262
1154.0,0.0262
1153.0,0.0262
1152.0,0.0262
1151.0,0.0262
1150.0,0.0263
1149.0,0.0264
1148.0,0.0264
1147.0,0.0264
1146.0,0.0264
1145.0,0.0264
1144.0,0.0265
1143.0,0.0265
1142.0,0.0265
1141.0,0.0265
1140.0,0.0265
1139.0,0.0266
1138.0,0.0266
1137.0,0.0267
1136.0,0.0267
1135.0,0.0267
1134.0,0.0267
1133.0,0.0267
1132.0,0.0267
1131.0,0.0267
1130.0,0.0267
1129.0,0.0267
1128.0,0.0267
1127.0,0.0268
1126.0,0.0268
1125.0,0.0268
1124.0,0.0268
1123.0,0.0268
1122.0,0.0269
1121.0,0.0269
1120.0,0.0269
1119.0,0.0269
1118.0,0.027
1117.0,0.027
1116.0,0.027
1115.0,0.027
1114.0,0.0271
1113.0,0.0272
1112.0,0.0273
1111.0,0.0274
1110.0,0.0275
1109.0,0.0275
1108.0,0.0276
1107.0,0.0276
1106.0,0.0277
1105.0,0.0277
1104.0,0.0278
1103.0,0.0278
1102.0,0.0279
1101.0,0.028
1100.0,0.028
1099.0,0.0281
1098.0,0.0282
1097.0,0.0282
1096.0,0.0282
1095.0,0.0283
1094.0,0.0283
1093.0,0.0283
1092.0,0.0284
1091.0,0.0285
1090.0,0.0286
1089.0,0.0287
1088.0,0.0288
1087.0,0.0289
1086.0,0.029
1085.0,0.0291
1084.0,0.0292
1083.0,0.0292
1082.0,0.0293
1081.0,0.0293
1080.0,0.0294
1079.0,0.0294
1078.0,0.0294
1077.0,0.0295
1076.0,0.0296
1075.0,0.0296
1074.0,0.0296
1073.0,0.0295
1072.0,0.0293
1071.0,0.0291
1070.0,0.029
1069.0,0.029
1068.0,0.0291
1067.0,0.0292
1066.0,0.0294
1065.0,0.0295
1064.0,0.0295
1063.0,0.0296
1062.0,0.0296
1061.0,0.0295
1060.0,0.0295
1059.0,0.0294
1058.0,0.0294
1057.0,0.0293
1056.0,0.0293
1055.0,0.0293
1054.0,0.0293
1053.0,0.0294
1052.0,0.0295
1051.0,0.0296
1050.0,0.0296
1049.0,0.0297
1048.0,0.0297
1047.0,0.0298
1046.0,0.0298
1045.0,0.0298
1044.0,0.0297
1043.0,0.0295
1042.0,0.0294
1041.0,0.0292
1040.0,0.029
1039.0,0.0288
1038.0,0.0285
1037.0,0.0283
1036.0,0.0281
1035.0,0.0279
1034.0,0.0277
1033.0,0.0275
1032.0,0.0273
1031.0,0.0272
1030.0,0.027
1029.0,0.027
1028.0,0.0269
1027.0,0.0267
1026.0,0.0266
1025.0,0.0264
1024.0,0.0263
1023.0,0.0262
1022.0,0.0262
1021.0,0.0263
1020.0,0.0264
1019.0,0.0264
1018.0,0.0264
1017.0,0.0264
1016.0,0.0263
1015.0,0.0262
1014.0,0.026
1013.0,0.0259
1012.0,0.0258
1011.0,0.0257
1010.0,0.0257
1009.0,0.0256
1008.0,0.0255
1007.0,0.0254
1006.0,0.0253
1005.0,0.0252
1004.0,0.0252
1003.0,0.0251
1002.0,0.025
1001.0,0.025
1000.0,0.025
999.0,0.0249
998.0,0.0248
997.0,0.0247
996.0,0.0246
995.0,0.0245
994.0,0.0244
993.0,0.0244
992.0,0.0244
991.0,0.0244
990.0,0.0244
989.0,0.0242
988.0,0.0241
987.0,0.024
986.0,0.0239
985.0,0.0239
984.0,0.0239
983.0,0.0238
982.0,0.0237
981.0,0.0237
980.0,0.0237
979.0,0.0237
978.0,0.0238
977.0,0.0239
976.0,0.0239
975.0,0.0239
974.0,0.0238
973.0,0.0237
972.0,0.0237
971.0,0.0237
970.0,0.0237
969.0,0.0237
968.0,0.0237
967.0,0.0237
966.0,0.0236
965.0,0.0236
964.0,0.0235
963.0,0.0235
962.0,0.0235
961.0,0.0236
960.0,0.0236
959.0,0.0236
958.0,0.0235
957.0,0.0235
956.0,0.0234
955.0,0.0234
954.0,0.0234
953.0,0.0234
952.0,0.0234
951.0,0.0234
950.0,0.0233
949.0,0.0233
948.0,0.0233
947.0,0.0234
946.0,0.0233
945.0,0.0233
944.0,0.0233
943.0,0.0233
942.0,0.0234
941.0,0.0234
940.0,0.0234
939.0,0.0234
938.0,0.0234
937.0,0.0234
936.0,0.0233
935.0,0.0233
934.0,0.0233
933.0,0.0232
932.0,0.0232
931.0,0.0233
930.0,0.0233
929.0,0.0233
928.0,0.0233
927.0,0.0233
926.0,0.0233
925.0,0.0234
924.0,0.0234
923.0,0.0234
922.0,0.0234
921.0,0.0235
920.0,0.0235
919.0,0.0235
918.0,0.0234
917.0,0.0234
916.0,0.0234
915.0,0.0234
914.0,0.0233
913.0,0.0233
912.0,0.0234
911.0,0.0235
910.0,0.0236
909.0,0.0237
908.0,0.0237
907.0,0.0237
906.0,0.0237
905.0,0.0237
904.0,0.0238
903.0,0.0239
902.0,0.0239
901.0,0.0239
900.0,0.0239
899.0,0.0239
898.0,0.024
897.0,0.024
896.0,0.024
895.0,0.0241
894.0,0.0241
893.0,0.0242
892.0,0.0243
891.0,0.0244
890.0,0.0245
889.0,0.0245
888.0,0.0244
887.0,0.0244
886.0,0.0243
885.0,0.0243
884.0,0.0243
883.0,0.0243
882.0,0.0242
881.0,0.0241
880.0,0.024
879.0,0.024
878.0,0.0241
877.0,0.0241
876.0,0.024
875.0,0.0239
874.0,0.0238
873.0,0.0238
872.0,0.0237
871.0,0.0237
870.0,0.0236
869.0,0.0235
868.0,0.0235
867.0,0.0235
866.0,0.0236
865.0,0.0237
864.0,0.0238
863.0,0.0238
862.0,0.0238
861.0,0.0237
860.0,0.0236
859.0,0.0236
858.0,0.0236
857.0,0.0236
856.0,0.0235
855.0,0.0234
854.0,0.0234
853.0,0.0235
852.0,0.0234
851.0,0.0234
850.0,0.0233
849.0,0.0233
848.0,0.0232
847.0,0.0231
846.0,0.0231
845.0,0.0231
844.0,0.0231
843.0,0.0231
842.0,0.0231
841.0,0.0231
840.0,0.0232
839.0,0.0233
838.0,0.0233
837.0,0.0232
836.0,0.0231
835.0,0.023
834.0,0.023
833.0,0.0231
832.0,0.0232
831.0,0.0232
830.0,0.0233
829.0,0.0233
828.0,0.0233
827.0,0.0232
826.0,0.0233
825.0,0.0234
824.0,0.0235
823.0,0.0236
822.0,0.0236
821.0,0.0235
820.0,0.0234
819.0,0.0233
818.0,0.0233
817.0,0.0233
816.0,0.0233
815.0,0.0233
814.0,0.0233
813.0,0.0233
812.0,0.0232
811.0,0.0232
810.0,0.0233
809.0,0.0233
808.0,0.0234
807.0,0.0235
806.0,0.0236
805.0,0.0237
804.0,0.0239
803.0,0.0241
802.0,0.0242
801.0,0.0242
800.0,0.024
799.0,0.0238
798.0,0.0236
797.0,0.0236
796.0,0.0236
795.0,0.0237
794.0,0.0238
793.0,0.0239
792.0,0.0239
791.0,0.0238
790.0,0.0238
789.0,0.0238
788.0,0.0238
787.0,0.0239
786.0,0.024
785.0,0.024
784.0,0.024
783.0,0.024
782.0,0.024
781.0,0.024
780.0,0.024
779.0,0.024
778.0,0.0241
777.0,0.0242
776.0,0.0244
775.0,0.0244
774.0,0.0244
773.0,0.0244
772.0,0.0245
771.0,0.0246
770.0,0.0247
769.0,0.0247
768.0,0.0247
767.0,0.0246
766.0,0.0244
765.0,0.0242
764.0,0.0241
763.0,0.0241
762.0,0.0242
761.0,0.0242
760.0,0.0243
759.0,0.0242
758.0,0.0242
757.0,0.0242
756.0,0.0242
755.0,0.0243
754.0,0.0244
753.0,0.0246
752.0,0.0248
751.0,0.0248
750.0,0.0247
749.0,0.0246
748.0,0.0246
747.0,0.0245
746.0,0.0244
745.0,0.0243
744.0,0.0242
743.0,0.0242
742.0,0.0244
741.0,0.0249
740.0,0.0256
739.0,0.0263
738.0,0.027
737.0,0.028
736.0,0.0298
735.0,0.0331
734.0,0.0394
733.0,0.0498
732.0,0.0632
731.0,0.0761
730.0,0.0839
729.0,0.0844
728.0,0.0797
727.0,0.0742
726.0,0.0709
725.0,0.0707
724.0,0.0738
723.0,0.0808
722.0,0.0928
721.0,0.1091
720.0,0.1239
719.0,0.1293
718.0,0.1233
717.0,0.1103
716.0,0.0956
715.0,0.0826
714.0,0.0725
713.0,0.0648
712.0,0.059
711.0,0.0547
710.0,0.0514
709.0,0.0488
708.0,0.0465
707.0,0.0446
706.0,0.0428
705.0,0.041
704.0,0.0395
703.0,0.0385
702.0,0.0379
701.0,0.0373
700.0,0.0369
699.0,0.0364
698.0,0.0358
697.0,0.0347
696.0,0.0335
695.0,0.0325
694.0,0.0322
693.0,0.0321
692.0,0.0318
691.0,0.0315
690.0,0.0311
689.0,0.0309
688.0,0.0309
687.0,0.0312
686.0,0.0314
685.0,0.0313
684.0,0.031
683.0,0.0308
682.0,0.0309
681.0,0.0309
680.0,0.0307
679.0,0.0303
678.0,0.03
677.0,0.0299
676.0,0.0297
675.0,0.0295
674.0,0.029
673.0,0.0285
672.0,0.0281
671.0,0.0281
670.0,0.0285
669.0,0.0288
668.0,0.0283
667.0,0.0274
666.0,0.027
665.0,0.0267
664.0,0.0265
663.0,0.0268
662.0,0.0276
661.0,0.0282
660.0,0.0285
659.0,0.0287
658.0,0.0287
657.0,0.0286
656.0,0.0282
655.0,0.028
654.0,0.028
653.0,0.0279
652.0,0.0277
651.0,0.0274
650.0,0.0271
649.0,0.0268
648.0,0.0266
647.0,0.0267
646.0,0.0268
645.0,0.0268
644.0,0.0268
643.0,0.0272
642.0,0.0279
641.0,0.0284
640.0,0.0288
639.0,0.0292
638.0,0.0296
637.0,0.0301
636.0,0.0306
635.0,0.0314
634.0,0.0321
633.0,0.032
632.0,0.0309
631.0,0.0294
630.0,0.0284
629.0,0.0279
628.0,0.0278
627.0,0.028
626.0,0.0285
625.0,0.029
624.0,0.029
623.0,0.0288
622.0,0.0286
621.0,0.0285
620.0,0.0285
619.0,0.0286
618.0,0.029
617.0,0.0295
616.0,0.0296
615.0,0.0295
614.0,0.0291
613.0,0.0285
612.0,0.0279
611.0,0.0277
610.0,0.0281
609.0,0.0291
608.0,0.0301
607.0,0.0307
606.0,0.0305
605.0,0.0299
604.0,0.0296
603.0,0.0301
602.0,0.031
601.0,0.0316
600.0,0.0317
