cm-1,A
4000.0,0.0045
3999.0,0.0046
3998.0,0.0046
3997.0,0.0046
3996.0,0.0046
3995.0,0.0047
3994.0,0.0047
3993.0,0.0047
3992.0,0.0047
3991.0,0.0047
3990.0,0.0047
3989.0,0.0047
3988.0,0.0047
3987.0,0.0047
3986.0,0.0048
3985.0,0.0048
3984.0,0.0048
3983.0,0.0048
3982.0,0.0048
3981.0,0.0047
3980.0,0.0047
3979.0,0.0047
3978.0,0.0047
3977.0,0.0048
3976.0,0.0048
3975.0,0.0047
3974.0,0.0047
3973.0,0.0047
3972.0,0.0047
3971.0,0.0047
3970.0,0.0047
3969.0,0.0046
3968.0,0.0045
3967.0,0.0046
3966.0,0.0047
3965.0,0.0048
3964.0,0.0048
3963.0,0.0049
3962.0,0.0049
3961.0,0.0049
3960.0,0.0049
3959.0,0.0049
3958.0,0.0048
3957.0,0.0048
3956.0,0.0047
3955.0,0.0047
3954.0,0.0048
3953.0,0.0048
3952.0,0.0049
3951.0,0.0049
3950.0,0.005
3949.0,0.0051
3948.0,0.0052
3947.0,0.0053
3946.0,0.0054
3945.0,0.0054
3944.0,0.0053
3943.0,0.0051
3942.0,0.005
3941.0,0.005
3940.0,0.0049
3939.0,0.0049
3938.0,0.005
3937.0,0.0051
3936.0,0.0052
3935.0,0.0053
3934.0,0.0053
3933.0,0.0052
3932.0,0.0051
3931.0,0.0051
3930.0,0.0051
3929.0,0.0052
3928.0,0.0053
3927.0,0.0053
3926.0,0.0053
3925.0,0.0053
3924.0,0.0054
3923.0,0.0055
3922.0,0.0055
3921.0,0.0055
3920.0,0.0055
3919.0,0.0054
3918.0,0.0053
3917.0,0.0052
3916.0,0.0051
3915.0,0.0051
3914.0,0.0052
3913.0,0.0052
3912.0,0.0052
3911.0,0.0052
3910.0,0.0053
3909.0,0.0054
3908.0,0.0055
3907.0,0.0056
3906.0,0.0056
3905.0,0.0056
3904.0,0.0058
3903.0,0.0059
3902.0,0.006
3901.0,0.0059
3900.0,0.0057
3899.0,0.0056
3898.0,0.0055
3897.0,0.0055
3896.0,0.0055
3895.0,0.0055
3894.0,0.0054
3893.0,0.0053
3892.0,0.0053
3891.0,0.0053
3890.0,0.0055
3889.0,0.0057
3888.0,0.0057
3887.0,0.0056
3886.0,0.0056
3885.0,0.0057
3884.0,0.0059
3883.0,0.0059
3882.0,0.0057
3881.0,0.0055
3880.0,0.0056
3879.0,0.0057
3878.0,0.0057
3877.0,0.0057
3876.0,0.0056
3875.0,0.0057
3874.0,0.0059
3873.0,0.0061
3872.0,0.0061
3871.0,0.0059
3870.0,0.0058
3869.0,0.0059
3868.0,0.0061
3867.0,0.006
3866.0,0.0058
3865.0,0.0056
3864.0,0.0057
3863.0,0.0058
3862.0,0.0058
3861.0,0.0058
3860.0,0.0058
3859.0,0.0058
3858.0,0.006
3857.0,0.0063
3856.0,0.0063
3855.0,0.0063
3854.0,0.0064
3853.0,0.0064
3852.0,0.0062
3851.0,0.006
3850.0,0.0057
3849.0,0.0056
3848.0,0.0056
3847.0,0.0057
3846.0,0.0058
3845.0,0.0059
3844.0,0.006
3843.0,0.0062
3842.0,0.0063
3841.0,0.0063
3840.0,0.0062
3839.0,0.0062
3838.0,0.0062
3837.0,0.0062
3836.0,0.0062
3835.0,0.0061
3834.0,0.006
3833.0,0.0059
3832.0,0.0059
3831.0,0.0059
3830.0,0.0059
3829.0,0.0059
3828.0,0.0059
3827.0,0.0059
3826.0,0.006
3825.0,0.0062
3824.0,0.0063
3823.0,0.0062
3822.0,0.0063
3821.0,0.0066
3820.0,0.0067
3819.0,0.0066
3818.0,0.0063
3817.0,0.0059
3816.0,0.0057
3815.0,0.0058
3814.0,0.0059
3813.0,0.0058
3812.0,0.0058
3811.0,0.0059
3810.0,0.0059
3809.0,0.0059
3808.0,0.0058
3807.0,0.0059
3806.0,0.0061
3805.0,0.0063
3804.0,0.0063
3803.0,0.0061
3802.0,0.0061
3801.0,0.0063
3800.0,0.0065
3799.0,0.0064
3798.0,0.0061
3797.0,0.0059
3796.0,0.0058
3795.0,0.0058
3794.0,0.0057
3793.0,0.0056
3792.0,0.0055
3791.0,0.0055
3790.0,0.0056
3789.0,0.0057
3788.0,0.0057
3787.0,0.0058
3786.0,0.0059
3785.0,0.006
3784.0,0.0061
3783.0,0.0062
3782.0,0.0061
3781.0,0.006
3780.0,0.006
3779.0,0.006
3778.0,0.006
3777.0,0.006
3776.0,0.0059
3775.0,0.0059
3774.0,0.0059
3773.0,0.006
3772.0,0.006
3771.0,0.0059
3770.0,0.006
3769.0,0.0062
3768.0,0.0063
3767.0,0.0063
3766.0,0.0062
3765.0,0.0061
3764.0,0.0062
3763.0,0.0062
3762.0,0.0062
3761.0,0.0062
3760.0,0.0062
3759.0,0.0063
3758.0,0.0064
3757.0,0.0064
3756.0,0.0066
3755.0,0.0068
3754.0,0.007
3753.0,0.007
3752.0,0.0071
3751.0,0.0071
3750.0,0.0071
3749.0,0.0071
3748.0,0.0073
3747.0,0.0073
3746.0,0.0071
3745.0,0.0071
3744.0,0.0071
3743.0,0.0071
3742.0,0.0071
3741.0,0.007
3740.0,0.007
3739.0,0.007
3738.0,0.007
3737.0,0.0069
3736.0,0.007
3735.0,0.007
3734.0,0.007
3733.0,0.0068
3732.0,0.0067
3731.0,0.0066
3730.0,0.0066
3729.0,0.0066
3728.0,0.0067
3727.0,0.0068
3726.0,0.0069
3725.0,0.007
3724.0,0.007
3723.0,0.0069
3722.0,0.0067
3721.0,0.0066
3720.0,0.0065
3719.0,0.0065
3718.0,0.0065
3717.0,0.0065
3716.0,0.0066
3715.0,0.0065
3714.0,0.0063
3713.0,0.0061
3712.0,0.0063
3711.0,0.0066
3710.0,0.0067
3709.0,0.0067
3708.0,0.0065
3707.0,0.0064
3706.0,0.0063
3705.0,0.0063
3704.0,0.0062
3703.0,0.0061
3702.0,0.006
3701.0,0.006
3700.0,0.0061
3699.0,0.0062
3698.0,0.0063
3697.0,0.0064
3696.0,0.0065
3695.0,0.0066
3694.0,0.0068
3693.0,0.007
3692.0,0.0071
3691.0,0.0072
3690.0,0.0071
3689.0,0.0069
3688.0,0.0068
3687.0,0.0067
3686.0,0.0067
3685.0,0.0066
3684.0,0.0066
3683.0,0.0067
3682.0,0.0068
3681.0,0.007
3680.0,0.0073
3679.0,0.0077
3678.0,0.0079
3677.0,0.0077
3676.0,0.0076
3675.0,0.0076
3674.0,0.0077
3673.0,0.0076
3672.0,0.0074
3671.0,0.0071
3670.0,0.0071
3669.0,0.0071
3668.0,0.0071
3667.0,0.0069
3666.0,0.0069
3665.0,0.0068
3664.0,0.0069
3663.0,0.007
3662.0,0.0071
3661.0,0.0072
3660.0,0.0073
3659.0,0.0074
3658.0,0.0074
3657.0,0.0073
3656.0,0.0075
3655.0,0.0078
3654.0,0.0081
3653.0,0.0083
3652.0,0.0083
3651.0,0.0083
3650.0,0.0085
3649.0,0.0089
3648.0,0.0089
3647.0,0.0087
3646.0,0.0085
3645.0,0.0082
3644.0,0.0081
3643.0,0.008
3642.0,0.0081
3641.0,0.0082
3640.0,0.0083
3639.0,0.0084
3638.0,0.0086
3637.0,0.0088
3636.0,0.009
3635.0,0.0092
3634.0,0.0093
3633.0,0.0095
3632.0,0.0096
3631.0,0.0095
3630.0,0.0094
3629.0,0.0095
3628.0,0.0096
3627.0,0.0096
3626.0,0.0095
3625.0,0.0095
3624.0,0.0095
3623.0,0.0096
3622.0,0.0096
3621.0,0.0096
3620.0,0.0097
3619.0,0.01
3618.0,0.0104
3617.0,0.0107
3616.0,0.0108
3615.0,0.0107
3614.0,0.0107
3613.0,0.0107
3612.0,0.0107
3611.0,0.0107
3610.0,0.0108
3609.0,0.0108
3608.0,0.011
3607.0,0.0112
3606.0,0.0112
3605.0,0.0111
3604.0,0.011
3603.0,0.011
3602.0,0.011
3601.0,0.0112
3600.0,0.0114
3599.0,0.0117
3598.0,0.0118
3597.0,0.0119
3596.0,0.0119
3595.0,0.012
3594.0,0.012
3593.0,0.0121
3592.0,0.0121
3591.0,0.0121
3590.0,0.012
3589.0,0.012
3588.0,0.0122
3587.0,0.0125
3586.0,0.0127
3585.0,0.0128
3584.0,0.0127
3583.0,0.0127
3582.0,0.0127
3581.0,0.0127
3580.0,0.0128
3579.0,0.0128
3578.0,0.0129
3577.0,0.013
3576.0,0.0131
3575.0,0.0132
3574.0,0.0133
3573.0,0.0135
3572.0,0.0137
3571.0,0.0138
3570.0,0.0139
3569.0,0.0138
3568.0,0.0139
3567.0,0.0142
3566.0,0.0145
3565.0,0.0146
3564.0,0.0146
3563.0,0.0144
3562.0,0.0144
3561.0,0.0144
3560.0,0.0145
3559.0,0.0147
3558.0,0.0148
3557.0,0.0149
3556.0,0.0149
3555.0,0.0149
3554.0,0.0149
3553.0,0.015
3552.0,0.0151
3551.0,0.0152
3550.0,0.0154
3549.0,0.0155
3548.0,0.0156
3547.0,0.0158
3546.0,0.0159
3545.0,0.0161
3544.0,0.0162
3543.0,0.0163
3542.0,0.0163
3541.0,0.0164
3540.0,0.0164
3539.0,0.0164
3538.0,0.0164
3537.0,0.0164
3536.0,0.0164
3535.0,0.0165
3534.0,0.0167
3533.0,0.0168
3532.0,0.0169
3531.0,0.017
3530.0,0.0172
3529.0,0.0173
3528.0,0.0175
3527.0,0.0175
3526.0,0.0175
3525.0,0.0174
3524.0,0.0175
3523.0,0.0176
3522.0,0.0177
3521.0,0.0178
3520.0,0.0179
3519.0,0.0179
3518.0,0.018
3517.0,0.0181
3516.0,0.0181
3515.0,0.0181
3514.0,0.0182
3513.0,0.0183
3512.0,0.0184
3511.0,0.0186
3510.0,0.0186
3509.0,0.0187
3508.0,0.0188
3507.0,0.0189
3506.0,0.0191
3505.0,0.0192
3504.0,0.0194
3503.0,0.0195
3502.0,0.0197
3501.0,0.0198
3500.0,0.02
3499.0,0.0201
3498.0,0.0202
3497.0,0.0204
3496.0,0.0205
3495.0,0.0207
3494.0,0.0208
3493.0,0.0209
3492.0,0.0211
3491.0,0.0212
3490.0,0.0212
3489.0,0.0213
3488.0,0.0214
3487.0,0.0215
3486.0,0.0216
3485.0,0.0218
3484.0,0.022
3483.0,0.0221
3482.0,0.0222
3481.0,0.0223
3480.0,0.0224
3479.0,0.0225
3478.0,0.0226
3477.0,0.0228
3476.0,0.0229
3475.0,0.023
3474.0,0.0231
3473.0,0.0232
3472.0,0.0234
3471.0,0.0235
3470.0,0.0236
3469.0,0.0238
3468.0,0.024
3467.0,0.0242
3466.0,0.0243
3465.0,0.0245
3464.0,0.0246
3463.0,0.0247
3462.0,0.0248
3461.0,0.025
3460.0,0.0252
3459.0,0.0255
3458.0,0.0257
3457.0,0.026
3456.0,0.0263
3455.0,0.0265
3454.0,0.0267
3453.0,0.0269
3452.0,0.0271
3451.0,0.0272
3450.0,0.0274
3449.0,0.0276
3448.0,0.0279
3447.0,0.0282
3446.0,0.0283
3445.0,0.0284
3444.0,0.0285
3443.0,0.0287
3442.0,0.0289
3441.0,0.0291
3440.0,0.0293
3439.0,0.0296
3438.0,0.0298
3437.0,0.0301
3436.0,0.0304
3435.0,0.0305
3434.0,0.0307
3433.0,0.031
3432.0,0.0313
3431.0,0.0317
3430.0,0.032
3429.0,0.0322
3428.0,0.0325
3427.0,0.0327
3426.0,0.0329
3425.0,0.0331
3424.0,0.0332
3423.0,0.0334
3422.0,0.0337
3421.0,0.034
3420.0,0.0342
3419.0,0.0344
3418.0,0.0344
3417.0,0.0345
3416.0,0.0346
3415.0,0.0347
3414.0,0.0347
3413.0,0.0347
3412.0,0.0346
3411.0,0.0347
3410.0,0.0347
3409.0,0.0349
3408.0,0.0351
3407.0,0.0352
3406.0,0.0353
3405.0,0.0354
3404.0,0.0354
3403.0,0.0354
3402.0,0.0355
3401.0,0.0356
3400.0,0.0357
3399.0,0.0357
3398.0,0.0357
3397.0,0.0355
3396.0,0.0354
3395.0,0.0352
3394.0,0.0351
3393.0,0.0351
3392.0,0.0351
3391.0,0.035
3390.0,0.0349
3389.0,0.0348
3388.0,0.0347
3387.0,0.0345
3386.0,0.0343
3385.0,0.0342
3384.0,0.034
3383.0,0.0338
3382.0,0.0336
3381.0,0.0334
3380.0,0.0332
3379.0,0.0331
3378.0,0.0331
3377.0,0.033
3376.0,0.0328
3375.0,0.0327
3374.0,0.0325
3373.0,0.0324
3372.0,0.0323
3371.0,0.0321
3370.0,0.0319
3369.0,0.0317
3368.0,0.0315
3367.0,0.0314
3366.0,0.0314
3365.0,0.0313
3364.0,0.0313
3363.0,0.0311
3362.0,0.0309
3361.0,0.0307
3360.0,0.0305
3359.0,0.0304
3358.0,0.0303
3357.0,0.0302
3356.0,0.0301
3355.0,0.0299
3354.0,0.0297
3353.0,0.0296
3352.0,0.0294
3351.0,0.0293
3350.0,0.0293
3349.0,0.0292
3348.0,0.0291
3347.0,0.0291
3346.0,0.029
3345.0,0.0289
3344.0,0.0287
3343.0,0.0286
3342.0,0.0285
3341.0,0.0284
3340.0,0.0284
3339.0,0.0283
3338.0,0.0282
3337.0,0.0281
3336.0,0.028
3335.0,0.0279
3334.0,0.0277
3333.0,0.0275
3332.0,0.0272
3331.0,0.0271
3330.0,0.027
3329.0,0.0269
3328.0,0.0269
3327.0,0.0269
3326.0,0.0269
3325.0,0.0269
3324.0,0.0268
3323.0,0.0268
3322.0,0.0267
3321.0,0.0266
3320.0,0.0265
3319.0,0.0264
3318.0,0.0263
3317.0,0.0263
3316.0,0.0264
3315.0,0.0264
3314.0,0.0263
3313.0,0.0261
3312.0,0.0259
3311.0,0.0258
3310.0,0.0258
3309.0,0.0257
3308.0,0.0256
3307.0,0.0255
3306.0,0.0255
3305.0,0.0255
3304.0,0.0255
3303.0,0.0255
3302.0,0.0254
3301.0,0.0253
3300.0,0.0252
3299.0,0.0251
3298.0,0.025
3297.0,0.025
3296.0,0.025
3295.0,0.025
3294.0,0.025
3293.0,0.0248
3292.0,0.0247
3291.0,0.0246
3290.0,0.0246
3289.0,0.0246
3288.0,0.0246
3287.0,0.0244
3286.0,0.0243
3285.0,0.0242
3284.0,0.0241
3283.0,0.0241
3282.0,0.0242
3281.0,0.0243
3280.0,0.0244
3279.0,0.0244
3278.0,0.0244
3277.0,0.0244
3276.0,0.0243
3275.0,0.0243
3274.0,0.0242
3273.0,0.0241
3272.0,0.024
3271.0,0.0239
3270.0,0.0239
3269.0,0.0239
3268.0,0.024
3267.0,0.024
3266.0,0.0241
3265.0,0.0241
3264.0,0.0241
3263.0,0.024
3262.0,0.024
3261.0,0.0239
3260.0,0.0239
3259.0,0.0239
3258.0,0.0239
3257.0,0.024
3256.0,0.0241
3255.0,0.0242
3254.0,0.0243
3253.0,0.0243
3252.0,0.0243
3251.0,0.0243
3250.0,0.0242
3249.0,0.0241
3248.0,0.024
3247.0,0.0239
3246.0,0.0239
3245.0,0.0238
3244.0,0.0237
3243.0,0.0236
3242.0,0.0235
3241.0,0.0234
3240.0,0.0233
3239.0,0.0231
3238.0,0.023
3237.0,0.023
3236.0,0.023
3235.0,0.023
3234.0,0.0229
3233.0,0.0227
3232.0,0.0225
3231.0,0.0223
3230.0,0.0222
3229.0,0.0221
3228.0,0.0221
3227.0,0.022
3226.0,0.0218
3225.0,0.0216
3224.0,0.0215
3223.0,0.0214
3222.0,0.0214
3221.0,0.0213
3220.0,0.0213
3219.0,0.0213
3218.0,0.0212
3217.0,0.0211
3216.0,0.021
3215.0,0.021
3214.0,0.021
3213.0,0.0209
3212.0,0.0208
3211.0,0.0206
3210.0,0.0205
3209.0,0.0203
3208.0,0.0202
3207.0,0.0201
3206.0,0.02
3205.0,0.0201
3204.0,0.0201
3203.0,0.0202
3202.0,0.0202
3201.0,0.0203
3200.0,0.0202
3199.0,0.0201
3198.0,0.02
3197.0,0.0198
3196.0,0.0196
3195.0,0.0195
3194.0,0.0194
3193.0,0.0193
3192.0,0.0193
3191.0,0.0192
3190.0,0.0191
3189.0,0.0191
3188.0,0.0191
3187.0,0.019
3186.0,0.0189
3185.0,0.0188
3184.0,0.0187
3183.0,0.0186
3182.0,0.0186
3181.0,0.0186
3180.0,0.0186
3179.0,0.0185
3178.0,0.0185
3177.0,0.0185
3176.0,0.0184
3175.0,0.0183
3174.0,0.0182
3173.0,0.0182
3172.0,0.0181
3171.0,0.018
3170.0,0.0179
3169.0,0.0178
3168.0,0.0177
3167.0,0.0176
3166.0,0.0174
3165.0,0.0173
3164.0,0.0172
3163.0,0.0172
3162.0,0.0172
3161.0,0.0172
3160.0,0.0172
3159.0,0.0172
3158.0,0.0171
3157.0,0.0169
3156.0,0.0168
3155.0,0.0167
3154.0,0.0166
3153.0,0.0166
3152.0,0.0166
3151.0,0.0166
3150.0,0.0166
3149.0,0.0166
3148.0,0.0166
3147.0,0.0166
3146.0,0.0165
3145.0,0.0165
3144.0,0.0165
3143.0,0.0164
3142.0,0.0164
3141.0,0.0163
3140.0,0.0163
3139.0,0.0163
3138.0,0.0162
3137.0,0.0162
3136.0,0.0161
3135.0,0.016
3134.0,0.016
3133.0,0.0159
3132.0,0.0159
3131.0,0.0159
3130.0,0.0159
3129.0,0.0159
3128.0,0.0159
3127.0,0.0158
3126.0,0.0159
3125.0,0.0159
3124.0,0.0159
3123.0,0.0159
3122.0,0.0158
3121.0,0.0156
3120.0,0.0155
3119.0,0.0154
3118.0,0.0153
3117.0,0.0153
3116.0,0.0153
3115.0,0.0153
3114.0,0.0154
3113.0,0.0155
3112.0,0.0155
3111.0,0.0155
3110.0,0.0154
3109.0,0.0154
3108.0,0.0155
3107.0,0.0155
3106.0,0.0155
3105.0,0.0155
3104.0,0.0155
3103.0,0.0154
3102.0,0.0154
3101.0,0.0154
3100.0,0.0154
3099.0,0.0154
3098.0,0.0154
3097.0,0.0153
3096.0,0.0151
3095.0,0.0149
3094.0,0.0148
3093.0,0.0147
3092.0,0.0147
3091.0,0.0147
3090.0,0.0147
3089.0,0.0148
3088.0,0.0148
3087.0,0.0148
3086.0,0.0149
3085.0,0.0149
3084.0,0.0149
3083.0,0.015
3082.0,0.015
3081.0,0.015
3080.0,0.015
3079.0,0.015
3078.0,0.015
3077.0,0.0149
3076.0,0.0149
3075.0,0.0149
3074.0,0.0149
3073.0,0.0149
3072.0,0.0149
3071.0,0.0149
3070.0,0.0149
3069.0,0.0149
3068.0,0.0149
3067.0,0.0149
3066.0,0.0148
3065.0,0.0148
3064.0,0.0147
3063.0,0.0146
3062.0,0.0145
3061.0,0.0145
3060.0,0.0144
3059.0,0.0144
3058.0,0.0144
3057.0,0.0145
3056.0,0.0145
3055.0,0.0146
3054.0,0.0146
3053.0,0.0147
3052.0,0.0147
3051.0,0.0146
3050.0,0.0144
3049.0,0.0142
3048.0,0.014
3047.0,0.0139
3046.0,0.0137
3045.0,0.0136
3044.0,0.0135
3043.0,0.0134
3042.0,0.0133
3041.0,0.0132
3040.0,0.0132
3039.0,0.0131
3038.0,0.0131
3037.0,0.0131
3036.0,0.0131
3035.0,0.0131
3034.0,0.0131
3033.0,0.0131
3032.0,0.0132
3031.0,0.0132
3030.0,0.0132
3029.0,0.0132
3028.0,0.0132
3027.0,0.0132
3026.0,0.0133
3025.0,0.0133
3024.0,0.0133
3023.0,0.0133
3022.0,0.0134
3021.0,0.0135
3020.0,0.0136
3019.0,0.0137
3018.0,0.0137
3017.0,0.0138
3016.0,0.0139
3015.0,0.0141
3014.0,0.0143
3013.0,0.0144
3012.0,0.0146
3011.0,0.0148
3010.0,0.015
3009.0,0.0151
3008.0,0.0153
3007.0,0.0154
3006.0,0.0154
3005.0,0.0155
3004.0,0.0155
3003.0,0.0156
3002.0,0.0157
3001.0,0.0157
3000.0,0.0157
2999.0,0.0157
2998.0,0.0157
2997.0,0.0158
2996.0,0.0158
2995.0,0.0159
2994.0,0.0159
2993.0,0.016
2992.0,0.0161
2991.0,0.0163
2990.0,0.0164
2989.0,0.0166
2988.0,0.0168
2987.0,0.017
2986.0,0.0173
2985.0,0.0176
2984.0,0.0179
2983.0,0.0182
2982.0,0.0186
2981.0,0.0189
2980.0,0.0193
2979.0,0.0197
2978.0,0.0201
2977.0,0.0205
2976.0,0.0211
2975.0,0.0216
2974.0,0.0222
2973.0,0.0229
2972.0,0.0235
2971.0,0.0242
2970.0,0.0248
2969.0,0.0255
2968.0,0.0263
2967.0,0.0271
2966.0,0.0279
2965.0,0.0286
2964.0,0.0292
2963.0,0.0298
2962.0,0.0303
2961.0,0.0308
2960.0,0.0313
2959.0,0.0316
2958.0,0.0319
2957.0,0.032
2956.0,0.0321
2955.0,0.0321
2954.0,0.032
2953.0,0.0317
2952.0,0.0314
2951.0,0.0312
2950.0,0.031
2949.0,0.0308
2948.0,0.0308
2947.0,0.0309
2946.0,0.031
2945.0,0.0312
2944.0,0.0316
2943.0,0.0321
2942.0,0.0329
2941.0,0.0337
2940.0,0.0347
2939.0,0.0358
2938.0,0.037
2937.0,0.0382
2936.0,0.0396
2935.0,0.041
2934.0,0.0424
2933.0,0.0438
2932.0,0.0452
2931.0,0.0466
2930.0,0.0478
2929.0,0.049
2928.0,0.05
2927.0,0.0509
2926.0,0.0515
2925.0,0.0519
2924.0,0.052
2923.0,0.0517
2922.0,0.0512
2921.0,0.0503
2920.0,0.0492
2919.0,0.0478
2918.0,0.0463
2917.0,0.0447
2916.0,0.0431
2915.0,0.0416
2914.0,0.0401
2913.0,0.0388
2912.0,0.0376
2911.0,0.0366
2910.0,0.0356
2909.0,0.0347
2908.0,0.0339
2907.0,0.0332
2906.0,0.0326
2905.0,0.032
2904.0,0.0314
2903.0,0.0308
2902.0,0.0302
2901.0,0.0297
2900.0,0.0292
2899.0,0.0287
2898.0,0.0282
2897.0,0.0277
2896.0,0.0273
2895.0,0.0268
2894.0,0.0264
2893.0,0.026
2892.0,0.0256
2891.0,0.0253
2890.0,0.0249
2889.0,0.0246
2888.0,0.0243
2887.0,0.024
2886.0,0.0237
2885.0,0.0234
2884.0,0.0231
2883.0,0.0229
2882.0,0.0228
2881.0,0.0227
2880.0,0.0227
2879.0,0.0228
2878.0,0.0228
2877.0,0.0229
2876.0,0.0231
2875.0,0.0233
2874.0,0.0236
2873.0,0.0238
2872.0,0.024
2871.0,0.0241
2870.0,0.0242
2869.0,0.0243
2868.0,0.0245
2867.0,0.0248
2866.0,0.0252
2865.0,0.0257
2864.0,0.0264
2863.0,0.0274
2862.0,0.0285
2861.0,0.0297
2860.0,0.0311
2859.0,0.0324
2858.0,0.0337
2857.0,0.0349
2856.0,0.0358
2855.0,0.0365
2854.0,0.0367
2853.0,0.0365
2852.0,0.0358
2851.0,0.0346
2850.0,0.0332
2849.0,0.0315
2848.0,0.0297
2847.0,0.0278
2846.0,0.026
2845.0,0.0244
2844.0,0.0231
2843.0,0.0219
2842.0,0.0208
2841.0,0.0199
2840.0,0.0191
2839.0,0.0184
2838.0,0.0179
2837.0,0.0174
2836.0,0.017
2835.0,0.0166
2834.0,0.0163
2833.0,0.0161
2832.0,0.0159
2831.0,0.0157
2830.0,0.0155
2829.0,0.0152
2828.0,0.0149
2827.0,0.0147
2826.0,0.0145
2825.0,0.0143
2824.0,0.0142
2823.0,0.014
2822.0,0.0139
2821.0,0.0138
2820.0,0.0137
2819.0,0.0136
2818.0,0.0134
2817.0,0.0133
2816.0,0.0132
2815.0,0.0131
2814.0,0.0131
2813.0,0.0131
2812.0,0.0131
2811.0,0.013
2810.0,0.0129
2809.0,0.0128
2808.0,0.0128
2807.0,0.0128
2806.0,0.0128
2805.0,0.0128
2804.0,0.0127
2803.0,0.0126
2802.0,0.0125
2801.0,0.0124
2800.0,0.0124
2799.0,0.0123
2798.0,0.0122
2797.0,0.0122
2796.0,0.0122
2795.0,0.0122
2794.0,0.0122
2793.0,0.0121
2792.0,0.0121
2791.0,0.012
2790.0,0.012
2789.0,0.0119
2788.0,0.0119
2787.0,0.0119
2786.0,0.0118
2785.0,0.0118
2784.0,0.0118
2783.0,0.0117
2782.0,0.0116
2781.0,0.0115
2780.0,0.0114
2779.0,0.0114
2778.0,0.0114
2777.0,0.0115
2776.0,0.0115
2775.0,0.0115
2774.0,0.0115
2773.0,0.0115
2772.0,0.0115
2771.0,0.0115
2770.0,0.0114
2769.0,0.0114
2768.0,0.0113
2767.0,0.0112
2766.0,0.0112
2765.0,0.0112
2764.0,0.0112
2763.0,0.0112
2762.0,0.0112
2761.0,0.0112
2760.0,0.0112
2759.0,0.0112
2758.0,0.0112
2757.0,0.0111
2756.0,0.0111
2755.0,0.011
2754.0,0.0111
2753.0,0.0111
2752.0,0.0111
2751.0,0.0112
2750.0,0.0112
2749.0,0.0112
2748.0,0.0111
2747.0,0.0111
2746.0,0.011
2745.0,0.011
2744.0,0.011
2743.0,0.0109
2742.0,0.0109
2741.0,0.0109
2740.0,0.0109
2739.0,0.0109
2738.0,0.0109
2737.0,0.011
2736.0,0.0111
2735.0,0.0111
2734.0,0.0111
2733.0,0.0111
2732.0,0.0111
2731.0,0.0111
2730.0,0.0111
2729.0,0.011
2728.0,0.011
2727.0,0.0111
2726.0,0.0111
2725.0,0.011
2724.0,0.0109
2723.0,0.0108
2722.0,0.0108
2721.0,0.0108
2720.0,0.0108
2719.0,0.0108
2718.0,0.0108
2717.0,0.0107
2716.0,0.0107
2715.0,0.0108
2714.0,0.0108
2713.0,0.0108
2712.0,0.0108
2711.0,0.0107
2710.0,0.0107
2709.0,0.0107
2708.0,0.0107
2707.0,0.0106
2706.0,0.0106
2705.0,0.0105
2704.0,0.0105
2703.0,0.0105
2702.0,0.0105
2701.0,0.0104
2700.0,0.0104
2699.0,0.0105
2698.0,0.0105
2697.0,0.0105
2696.0,0.0105
2695.0,0.0105
2694.0,0.0105
2693.0,0.0105
2692.0,0.0105
2691.0,0.0105
2690.0,0.0105
2689.0,0.0104
2688.0,0.0104
2687.0,0.0104
2686.0,0.0104
2685.0,0.0104
2684.0,0.0103
2683.0,0.0103
2682.0,0.0103
2681.0,0.0103
2680.0,0.0103
2679.0,0.0104
2678.0,0.0104
2677.0,0.0104
2676.0,0.0104
2675.0,0.0104
2674.0,0.0103
2673.0,0.0103
2672.0,0.0102
2671.0,0.0102
2670.0,0.0102
2669.0,0.0103
2668.0,0.0103
2667.0,0.0103
2666.0,0.0103
2665.0,0.0102
2664.0,0.0102
2663.0,0.0102
2662.0,0.0102
2661.0,0.0102
2660.0,0.0102
2659.0,0.0102
2658.0,0.0101
2657.0,0.0101
2656.0,0.0101
2655.0,0.0101
2654.0,0.01
2653.0,0.01
2652.0,0.0099
2651.0,0.0099
2650.0,0.0099
2649.0,0.01
2648.0,0.01
2647.0,0.01
2646.0,0.01
2645.0,0.01
2644.0,0.01
2643.0,0.01
2642.0,0.0099
2641.0,0.0099
2640.0,0.0098
2639.0,0.0099
2638.0,0.0099
2637.0,0.01
2636.0,0.0101
2635.0,0.0101
2634.0,0.0102
2633.0,0.0102
2632.0,0.0101
2631.0,0.0101
2630.0,0.0101
2629.0,0.0101
2628.0,0.0101
2627.0,0.0101
2626.0,0.0101
2625.0,0.0101
2624.0,0.0101
2623.0,0.01
2622.0,0.01
2621.0,0.01
2620.0,0.0099
2619.0,0.0099
2618.0,0.0099
2617.0,0.0099
2616.0,0.0099
2615.0,0.0099
2614.0,0.0099
2613.0,0.0099
2612.0,0.0099
2611.0,0.0099
2610.0,0.0099
2609.0,0.0099
2608.0,0.0099
2607.0,0.0099
2606.0,0.0099
2605.0,0.0099
2604.0,0.0099
2603.0,0.0098
2602.0,0.0098
2601.0,0.0099
2600.0,0.0099
2599.0,0.0099
2598.0,0.0099
2597.0,0.0098
2596.0,0.0098
2595.0,0.0098
2594.0,0.0098
2593.0,0.0098
2592.0,0.0098
2591.0,0.0098
2590.0,0.0098
2589.0,0.0097
2588.0,0.0097
2587.0,0.0097
2586.0,0.0097
2585.0,0.0097
2584.0,0.0098
2583.0,0.0098
2582.0,0.0099
2581.0,0.0099
2580.0,0.01
2579.0,0.0099
2578.0,0.0099
2577.0,0.0099
2576.0,0.0099
2575.0,0.0099
2574.0,0.0099
2573.0,0.0099
2572.0,0.0099
2571.0,0.0099
2570.0,0.01
2569.0,0.0099
2568.0,0.0099
2567.0,0.0098
2566.0,0.0098
2565.0,0.0098
2564.0,0.0098
2563.0,0.0098
2562.0,0.0098
2561.0,0.0098
2560.0,0.0098
2559.0,0.0098
2558.0,0.0098
2557.0,0.0098
2556.0,0.0098
2555.0,0.0098
2554.0,0.0098
2553.0,0.0098
2552.0,0.0098
2551.0,0.0098
2550.0,0.0098
2549.0,0.0097
2548.0,0.0097
2547.0,0.0097
2546.0,0.0097
2545.0,0.0096
2544.0,0.0096
2543.0,0.0097
2542.0,0.0097
2541.0,0.0097
2540.0,0.0097
2539.0,0.0097
2538.0,0.0096
2537.0,0.0096
2536.0,0.0095
2535.0,0.0095
2534.0,0.0095
2533.0,0.0096
2532.0,0.0096
2531.0,0.0096
2530.0,0.0097
2529.0,0.0097
2528.0,0.0097
2527.0,0.0097
2526.0,0.0097
2525.0,0.0097
2524.0,0.0097
2523.0,0.0097
2522.0,0.0097
2521.0,0.0097
2520.0,0.0096
2519.0,0.0096
2518.0,0.0095
2517.0,0.0095
2516.0,0.0095
2515.0,0.0095
2514.0,0.0094
2513.0,0.0094
2512.0,0.0094
2511.0,0.0095
2510.0,0.0095
2509.0,0.0095
2508.0,0.0095
2507.0,0.0094
2506.0,0.0094
2505.0,0.0094
2504.0,0.0094
2503.0,0.0094
2502.0,0.0094
2501.0,0.0094
2500.0,0.0094
2499.0,0.0094
2498.0,0.0094
2497.0,0.0094
2496.0,0.0094
2495.0,0.0094
2494.0,0.0093
2493.0,0.0093
2492.0,0.0093
2491.0,0.0093
2490.0,0.0092
2489.0,0.0092
2488.0,0.0091
2487.0,0.0091
2486.0,0.0091
2485.0,0.0091
2484.0,0.0091
2483.0,0.0091
2482.0,0.009
2481.0,0.009
2480.0,0.009
2479.0,0.0091
2478.0,0.0091
2477.0,0.0092
2476.0,0.0092
2475.0,0.0091
2474.0,0.0091
2473.0,0.009
2472.0,0.009
2471.0,0.0089
2470.0,0.0089
2469.0,0.0088
2468.0,0.0088
2467.0,0.0089
2466.0,0.0089
2465.0,0.0089
2464.0,0.009
2463.0,0.009
2462.0,0.009
2461.0,0.009
2460.0,0.009
2459.0,0.0089
2458.0,0.0089
2457.0,0.0088
2456.0,0.0087
2455.0,0.0086
2454.0,0.0087
2453.0,0.0087
2452.0,0.0088
2451.0,0.0088
2450.0,0.0088
2449.0,0.0088
2448.0,0.0088
2447.0,0.0088
2446.0,0.0088
2445.0,0.0088
2444.0,0.0088
2443.0,0.0088
2442.0,0.0088
2441.0,0.0088
2440.0,0.0088
2439.0,0.0088
2438.0,0.0088
2437.0,0.0088
2436.0,0.0087
2435.0,0.0086
2434.0,0.0086
2433.0,0.0087
2432.0,0.0087
2431.0,0.0088
2430.0,0.0088
2429.0,0.0088
2428.0,0.0088
2427.0,0.0088
2426.0,0.0088
2425.0,0.0089
2424.0,0.0089
2423.0,0.0089
2422.0,0.0089
2421.0,0.0088
2420.0,0.0088
2419.0,0.0088
2418.0,0.0089
2417.0,0.0089
2416.0,0.009
2415.0,0.009
2414.0,0.009
2413.0,0.0089
2412.0,0.0089
2411.0,0.009
2410.0,0.009
2409.0,0.009
2408.0,0.009
2407.0,0.009
2406.0,0.009
2405.0,0.009
2404.0,0.009
2403.0,0.009
2402.0,0.009
2401.0,0.0091
2400.0,0.0091
2399.0,0.0091
2398.0,0.0091
2397.0,0.0091
2396.0,0.0091
2395.0,0.0091
2394.0,0.0091
2393.0,0.0091
2392.0,0.0091
2391.0,0.0092
2390.0,0.0093
2389.0,0.0094
2388.0,0.0095
2387.0,0.0096
2386.0,0.0097
2385.0,0.0097
2384.0,0.0096
2383.0,0.0095
2382.0,0.0094
2381.0,0.0092
2380.0,0.0089
2379.0,0.0088
2378.0,0.0086
2377.0,0.0086
2376.0,0.0086
2375.0,0.0087
2374.0,0.0087
2373.0,0.0088
2372.0,0.0091
2371.0,0.0096
2370.0,0.0102
2369.0,0.0108
2368.0,0.0112
2367.0,0.0112
2366.0,0.0107
2365.0,0.0102
2364.0,0.0105
2363.0,0.0115
2362.0,0.0118
2361.0,0.0111
2360.0,0.0104
2359.0,0.0105
2358.0,0.0113
2357.0,0.0117
2356.0,0.0116
2355.0,0.0111
2354.0,0.0105
2353.0,0.0099
2352.0,0.0097
2351.0,0.0099
2350.0,0.01
2349.0,0.0094
2348.0,0.0082
2347.0,0.0071
2346.0,0.0068
2345.0,0.0076
2344.0,0.009
2343.0,0.0101
2342.0,0.0103
2341.0,0.0098
2340.0,0.0094
2339.0,0.0093
2338.0,0.0097
2337.0,0.01
2336.0,0.01
2335.0,0.0095
2334.0,0.0087
2333.0,0.0079
2332.0,0.0076
2331.0,0.008
2330.0,0.0085
2329.0,0.0091
2328.0,0.0097
2327.0,0.0102
2326.0,0.0103
2325.0,0.01
2324.0,0.0097
2323.0,0.0095
2322.0,0.0095
2321.0,0.0096
2320.0,0.0098
2319.0,0.01
2318.0,0.0101
2317.0,0.01
2316.0,0.0098
2315.0,0.0096
2314.0,0.0095
2313.0,0.0096
2312.0,0.0097
2311.0,0.0099
2310.0,0.0099
2309.0,0.0098
2308.0,0.0097
2307.0,0.0096
2306.0,0.0096
2305.0,0.0095
2304.0,0.0094
2303.0,0.0095
2302.0,0.0096
2301.0,0.0096
2300.0,0.0097
2299.0,0.0098
2298.0,0.0098
2297.0,0.0098
2296.0,0.0097
2295.0,0.0096
2294.0,0.0095
2293.0,0.0094
2292.0,0.0093
2291.0,0.0092
2290.0,0.0092
2289.0,0.0091
2288.0,0.0091
2287.0,0.0091
2286.0,0.0091
2285.0,0.0091
2284.0,0.009
2283.0,0.0089
2282.0,0.0088
2281.0,0.0088
2280.0,0.0088
2279.0,0.0088
2278.0,0.0088
2277.0,0.0088
2276.0,0.0088
2275.0,0.0088
2274.0,0.0088
2273.0,0.0087
2272.0,0.0087
2271.0,0.0086
2270.0,0.0085
2269.0,0.0085
2268.0,0.0085
2267.0,0.0085
2266.0,0.0086
2265.0,0.0086
2264.0,0.0086
2263.0,0.0086
2262.0,0.0085
2261.0,0.0085
2260.0,0.0085
2259.0,0.0086
2258.0,0.0086
2257.0,0.0087
2256.0,0.0087
2255.0,0.0086
2254.0,0.0086
2253.0,0.0085
2252.0,0.0085
2251.0,0.0084
2250.0,0.0084
2249.0,0.0084
2248.0,0.0083
2247.0,0.0083
2246.0,0.0083
2245.0,0.0084
2244.0,0.0084
2243.0,0.0084
2242.0,0.0084
2241.0,0.0083
2240.0,0.0083
2239.0,0.0082
2238.0,0.0082
2237.0,0.0082
2236.0,0.0082
2235.0,0.0082
2234.0,0.0082
2233.0,0.0081
2232.0,0.0081
2231.0,0.0081
2230.0,0.008
2229.0,0.008
2228.0,0.008
2227.0,0.008
2226.0,0.008
2225.0,0.008
2224.0,0.008
2223.0,0.0079
2222.0,0.0079
2221.0,0.0079
2220.0,0.0079
2219.0,0.0079
2218.0,0.0079
2217.0,0.0079
2216.0,0.0079
2215.0,0.0079
2214.0,0.0078
2213.0,0.0078
2212.0,0.0078
2211.0,0.0077
2210.0,0.0077
2209.0,0.0077
2208.0,0.0076
2207.0,0.0076
2206.0,0.0077
2205.0,0.0077
2204.0,0.0077
2203.0,0.0077
2202.0,0.0076
2201.0,0.0075
2200.0,0.0075
2199.0,0.0075
2198.0,0.0075
2197.0,0.0075
2196.0,0.0075
2195.0,0.0075
2194.0,0.0075
2193.0,0.0075
2192.0,0.0075
2191.0,0.0075
2190.0,0.0074
2189.0,0.0074
2188.0,0.0073
2187.0,0.0073
2186.0,0.0073
2185.0,0.0073
2184.0,0.0073
2183.0,0.0073
2182.0,0.0073
2181.0,0.0072
2180.0,0.0072
2179.0,0.0072
2178.0,0.0072
2177.0,0.0072
2176.0,0.0073
2175.0,0.0073
2174.0,0.0073
2173.0,0.0073
2172.0,0.0073
2171.0,0.0073
2170.0,0.0073
2169.0,0.0072
2168.0,0.0072
2167.0,0.0072
2166.0,0.0071
2165.0,0.0071
2164.0,0.0071
2163.0,0.0071
2162.0,0.0072
2161.0,0.0072
2160.0,0.0073
2159.0,0.0073
2158.0,0.0073
2157.0,0.0073
2156.0,0.0072
2155.0,0.0072
2154.0,0.0072
2153.0,0.0073
2152.0,0.0073
2151.0,0.0073
2150.0,0.0072
2149.0,0.0072
2148.0,0.0072
2147.0,0.0072
2146.0,0.0073
2145.0,0.0073
2144.0,0.0073
2143.0,0.0073
2142.0,0.0072
2141.0,0.0072
2140.0,0.0072
2139.0,0.0072
2138.0,0.0072
2137.0,0.0072
2136.0,0.0072
2135.0,0.0072
2134.0,0.0072
2133.0,0.0071
2132.0,0.0071
2131.0,0.0071
2130.0,0.0071
2129.0,0.0071
2128.0,0.0071
2127.0,0.0071
2126.0,0.0071
2125.0,0.0071
2124.0,0.0072
2123.0,0.0072
2122.0,0.0073
2121.0,0.0073
2120.0,0.0073
2119.0,0.0073
2118.0,0.0072
2117.0,0.0072
2116.0,0.0072
2115.0,0.0072
2114.0,0.0072
2113.0,0.0072
2112.0,0.0072
2111.0,0.0072
2110.0,0.0072
2109.0,0.0071
2108.0,0.0071
2107.0,0.0072
2106.0,0.0072
2105.0,0.0072
2104.0,0.0072
2103.0,0.0072
2102.0,0.0072
2101.0,0.0071
2100.0,0.0071
2099.0,0.0071
2098.0,0.0071
2097.0,0.0071
2096.0,0.0071
2095.0,0.0071
2094.0,0.0071
2093.0,0.0071
2092.0,0.0071
2091.0,0.007
2090.0,0.007
2089.0,0.007
2088.0,0.007
2087.0,0.007
2086.0,0.0071
2085.0,0.007
2084.0,0.0069
2083.0,0.0069
2082.0,0.0069
2081.0,0.0068
2080.0,0.0068
2079.0,0.0068
2078.0,0.0068
2077.0,0.0068
2076.0,0.0068
2075.0,0.0068
2074.0,0.0067
2073.0,0.0066
2072.0,0.0066
2071.0,0.0065
2070.0,0.0065
2069.0,0.0065
2068.0,0.0065
2067.0,0.0065
2066.0,0.0065
2065.0,0.0065
2064.0,0.0065
2063.0,0.0065
2062.0,0.0064
2061.0,0.0064
2060.0,0.0063
2059.0,0.0063
2058.0,0.0062
2057.0,0.0061
2056.0,0.0061
2055.0,0.0061
2054.0,0.006
2053.0,0.006
2052.0,0.006
2051.0,0.0059
2050.0,0.0059
2049.0,0.0059
2048.0,0.0059
2047.0,0.0059
2046.0,0.0058
2045.0,0.0058
2044.0,0.0057
2043.0,0.0056
2042.0,0.0056
2041.0,0.0056
2040.0,0.0056
2039.0,0.0056
2038.0,0.0055
2037.0,0.0054
2036.0,0.0054
2035.0,0.0053
2034.0,0.0053
2033.0,0.0052
2032.0,0.0052
2031.0,0.0052
2030.0,0.0052
2029.0,0.0052
2028.0,0.0052
2027.0,0.0052
2026.0,0.0052
2025.0,0.0052
2024.0,0.0052
2023.0,0.0052
2022.0,0.0052
2021.0,0.0052
2020.0,0.0051
2019.0,0.0051
2018.0,0.0051
2017.0,0.0051
2016.0,0.005
2015.0,0.005
2014.0,0.005
2013.0,0.005
2012.0,0.005
2011.0,0.005
2010.0,0.005
2009.0,0.0049
2008.0,0.0049
2007.0,0.0049
2006.0,0.0048
2005.0,0.0048
2004.0,0.0048
2003.0,0.0048
2002.0,0.0048
2001.0,0.0049
2000.0,0.0049
1999.0,0.005
1998.0,0.005
1997.0,0.005
1996.0,0.005
1995.0,0.005
1994.0,0.005
1993.0,0.0051
1992.0,0.0051
1991.0,0.0051
1990.0,0.0051
1989.0,0.0051
1988.0,0.005
1987.0,0.005
1986.0,0.0051
1985.0,0.005
1984.0,0.005
1983.0,0.005
1982.0,0.005
1981.0,0.005
1980.0,0.005
1979.0,0.005
1978.0,0.0051
1977.0,0.005
1976.0,0.005
1975.0,0.0051
1974.0,0.0051
1973.0,0.0051
1972.0,0.0051
1971.0,0.0051
1970.0,0.0051
1969.0,0.0051
1968.0,0.0052
1967.0,0.0053
1966.0,0.0054
1965.0,0.0055
1964.0,0.0055
1963.0,0.0056
1962.0,0.0056
1961.0,0.0057
1960.0,0.0058
1959.0,0.0059
1958.0,0.006
1957.0,0.006
1956.0,0.006
1955.0,0.006
1954.0,0.006
1953.0,0.006
1952.0,0.006
1951.0,0.006
1950.0,0.006
1949.0,0.006
1948.0,0.006
1947.0,0.006
1946.0,0.006
1945.0,0.0059
1944.0,0.0058
1943.0,0.0057
1942.0,0.0056
1941.0,0.0054
1940.0,0.0052
1939.0,0.0051
1938.0,0.005
1937.0,0.0049
1936.0,0.0048
1935.0,0.0047
1934.0,0.0047
1933.0,0.0045
1932.0,0.0044
1931.0,0.0042
1930.0,0.0041
1929.0,0.004
1928.0,0.004
1927.0,0.0039
1926.0,0.0039
1925.0,0.0038
1924.0,0.0037
1923.0,0.0037
1922.0,0.0037
1921.0,0.0036
1920.0,0.0035
1919.0,0.0033
1918.0,0.0032
1917.0,0.003
1916.0,0.0029
1915.0,0.0028
1914.0,0.0028
1913.0,0.0028
1912.0,0.0027
1911.0,0.0027
1910.0,0.0026
1909.0,0.0025
1908.0,0.0024
1907.0,0.0023
1906.0,0.0022
1905.0,0.0021
1904.0,0.002
1903.0,0.002
1902.0,0.0019
1901.0,0.0018
1900.0,0.0017
1899.0,0.0017
1898.0,0.0016
1897.0,0.0016
1896.0,0.0015
1895.0,0.0014
1894.0,0.0013
1893.0,0.0012
1892.0,0.0012
1891.0,0.0011
1890.0,0.001
1889.0,0.0009
1888.0,0.0008
1887.0,0.0007
1886.0,0.0006
1885.0,0.0005
1884.0,0.0005
1883.0,0.0004
1882.0,0.0004
1881.0,0.0003
1880.0,0.0002
1879.0,0.0002
1878.0,0.0001
1877.0,-0.0
1876.0,-0.0001
1875.0,-0.0001
1874.0,-0.0001
1873.0,-0.0001
1872.0,-0.0
1871.0,-0.0
1870.0,-0.0001
1869.0,-0.0002
1868.0,-0.0004
1867.0,-0.0005
1866.0,-0.0006
1865.0,-0.0007
1864.0,-0.0008
1863.0,-0.0009
1862.0,-0.0009
1861.0,-0.001
1860.0,-0.0011
1859.0,-0.0011
1858.0,-0.0012
1857.0,-0.0012
1856.0,-0.0013
1855.0,-0.0013
1854.0,-0.0013
1853.0,-0.0013
1852.0,-0.0014
1851.0,-0.0013
1850.0,-0.0013
1849.0,-0.0013
1848.0,-0.0012
1847.0,-0.0011
1846.0,-0.0011
1845.0,-0.0012
1844.0,-0.0013
1843.0,-0.0014
1842.0,-0.0014
1841.0,-0.0014
1840.0,-0.0015
1839.0,-0.0015
1838.0,-0.0015
1837.0,-0.0015
1836.0,-0.0016
1835.0,-0.0016
1834.0,-0.0014
1833.0,-0.0013
1832.0,-0.0012
1831.0,-0.0011
1830.0,-0.0012
1829.0,-0.0013
1828.0,-0.0014
1827.0,-0.0014
1826.0,-0.0014
1825.0,-0.0016
1824.0,-0.0017
1823.0,-0.0018
1822.0,-0.0018
1821.0,-0.0019
1820.0,-0.002
1819.0,-0.0021
1818.0,-0.0022
1817.0,-0.0023
1816.0,-0.0024
1815.0,-0.0025
1814.0,-0.0025
1813.0,-0.0026
1812.0,-0.0027
1811.0,-0.0028
1810.0,-0.003
1809.0,-0.0032
1808.0,-0.0034
1807.0,-0.0035
1806.0,-0.0035
1805.0,-0.0036
1804.0,-0.0036
1803.0,-0.0036
1802.0,-0.0038
1801.0,-0.004
1800.0,-0.0042
1799.0,-0.0043
1798.0,-0.0044
1797.0,-0.0045
1796.0,-0.0045
1795.0,-0.0045
1794.0,-0.0046
1793.0,-0.0049
1792.0,-0.0052
1791.0,-0.0054
1790.0,-0.0055
1789.0,-0.0056
1788.0,-0.0057
1787.0,-0.0057
1786.0,-0.0058
1785.0,-0.006
1784.0,-0.0061
1783.0,-0.0062
1782.0,-0.0062
1781.0,-0.0063
1780.0,-0.0065
1779.0,-0.0064
1778.0,-0.0064
1777.0,-0.0064
1776.0,-0.0063
1775.0,-0.0062
1774.0,-0.0062
1773.0,-0.0064
1772.0,-0.0066
1771.0,-0.0065
1770.0,-0.0064
1769.0,-0.0064
1768.0,-0.0064
1767.0,-0.0062
1766.0,-0.0059
1765.0,-0.0055
1764.0,-0.0051
1763.0,-0.0047
1762.0,-0.0042
1761.0,-0.0038
1760.0,-0.0032
1759.0,-0.0024
1758.0,-0.0015
1757.0,-0.0007
1756.0,0.0003
1755.0,0.0015
1754.0,0.0028
1753.0,0.0041
1752.0,0.0059
1751.0,0.0082
1750.0,0.0108
1749.0,0.0136
1748.0,0.0165
1747.0,0.0199
1746.0,0.0236
1745.0,0.0278
1744.0,0.0327
1743.0,0.038
1742.0,0.0435
1741.0,0.0497
1740.0,0.0571
1739.0,0.0648
1738.0,0.071
1737.0,0.0757
1736.0,0.0809
1735.0,0.0896
1734.0,0.1018
1733.0,0.1119
1732.0,0.119
1731.0,0.1262
1730.0,0.1344
1729.0,0.1431
1728.0,0.1513
1727.0,0.1592
1726.0,0.1673
1725.0,0.176
1724.0,0.1852
1723.0,0.1944
1722.0,0.2025
1721.0,0.2088
1720.0,0.2144
1719.0,0.2212
1718.0,0.2304
1717.0,0.2387
1716.0,0.2431
1715.0,0.245
1714.0,0.245
1713.0,0.2427
1712.0,0.238
1711.0,0.2313
1710.0,0.2232
1709.0,0.2144
1708.0,0.2047
1707.0,0.1932
1706.0,0.1804
1705.0,0.169
1704.0,0.1609
1703.0,0.1547
1702.0,0.1479
1701.0,0.1383
1700.0,0.1286
1699.0,0.1223
1698.0,0.1181
1697.0,0.1135
1696.0,0.1081
1695.0,0.1035
1694.0,0.1006
1693.0,0.0984
1692.0,0.0962
1691.0,0.0937
1690.0,0.0913
1689.0,0.0894
1688.0,0.088
1687.0,0.0867
1686.0,0.085
1685.0,0.0831
1684.0,0.0816
1683.0,0.0803
1682.0,0.079
1681.0,0.0778
1680.0,0.0765
1679.0,0.0753
1678.0,0.0741
1677.0,0.0729
1676.0,0.0716
1675.0,0.0704
1674.0,0.0694
1673.0,0.0686
1672.0,0.0679
1671.0,0.067
1670.0,0.066
1669.0,0.0652
1668.0,0.0644
1667.0,0.0636
1666.0,0.0629
1665.0,0.0621
1664.0,0.0613
1663.0,0.0606
1662.0,0.0599
1661.0,0.0593
1660.0,0.0588
1659.0,0.0583
1658.0,0.0579
1657.0,0.0576
1656.0,0.0573
1655.0,0.0567
1654.0,0.0563
1653.0,0.057
1652.0,0.0573
1651.0,0.0571
1650.0,0.0569
1649.0,0.0567
1648.0,0.0567
1647.0,0.0571
1646.0,0.0575
1645.0,0.0576
1644.0,0.0575
1643.0,0.0574
1642.0,0.0573
1641.0,0.0572
1640.0,0.0569
1639.0,0.0564
1638.0,0.0556
1637.0,0.0543
1636.0,0.0527
1635.0,0.051
1634.0,0.0495
1633.0,0.0484
1632.0,0.0475
1631.0,0.0465
1630.0,0.0456
1629.0,0.0448
1628.0,0.0442
1627.0,0.0436
1626.0,0.043
1625.0,0.0425
1624.0,0.042
1623.0,0.0416
1622.0,0.0411
1621.0,0.0408
1620.0,0.0404
1619.0,0.0401
1618.0,0.04
1617.0,0.0406
1616.0,0.0413
1615.0,0.0416
1614.0,0.0415
1613.0,0.0413
1612.0,0.041
1611.0,0.0406
1610.0,0.0401
1609.0,0.0396
1608.0,0.0391
1607.0,0.0385
1606.0,0.0378
1605.0,0.037
1604.0,0.0363
1603.0,0.0355
1602.0,0.0348
1601.0,0.0342
1600.0,0.0335
1599.0,0.0329
1598.0,0.0323
1597.0,0.0319
1596.0,0.0315
1595.0,0.0311
1594.0,0.0308
1593.0,0.0306
1592.0,0.0303
1591.0,0.0301
1590.0,0.0299
1589.0,0.0299
1588.0,0.0298
1587.0,0.0298
1586.0,0.0299
1585.0,0.0303
1584.0,0.031
1583.0,0.0319
1582.0,0.0332
1581.0,0.0345
1580.0,0.0356
1579.0,0.0364
1578.0,0.0367
1577.0,0.0364
1576.0,0.0357
1575.0,0.0347
1574.0,0.0337
1573.0,0.0329
1572.0,0.032
1571.0,0.031
1570.0,0.0298
1569.0,0.0288
1568.0,0.0281
1567.0,0.0275
1566.0,0.027
1565.0,0.0265
1564.0,0.0262
1563.0,0.0259
1562.0,0.0258
1561.0,0.0256
1560.0,0.0251
1559.0,0.0248
1558.0,0.0244
1557.0,0.024
1556.0,0.0236
1555.0,0.0232
1554.0,0.0229
1553.0,0.0226
1552.0,0.0224
1551.0,0.0222
1550.0,0.0219
1549.0,0.0217
1548.0,0.0215
1547.0,0.0214
1546.0,0.0213
1545.0,0.0213
1544.0,0.0213
1543.0,0.021
1542.0,0.0207
1541.0,0.0204
1540.0,0.0204
1539.0,0.02
1538.0,0.0198
1537.0,0.0197
1536.0,0.0198
1535.0,0.0198
1534.0,0.0198
1533.0,0.02
1532.0,0.0199
1531.0,0.0198
1530.0,0.0197
1529.0,0.0197
1528.0,0.0196
1527.0,0.0195
1526.0,0.0192
1525.0,0.0191
1524.0,0.019
1523.0,0.0187
1522.0,0.0183
1521.0,0.0179
1520.0,0.0176
1519.0,0.0173
1518.0,0.0171
1517.0,0.017
1516.0,0.0169
1515.0,0.0168
1514.0,0.0168
1513.0,0.0171
1512.0,0.0177
1511.0,0.0186
1510.0,0.0197
1509.0,0.0213
1508.0,0.025
1507.0,0.0313
1506.0,0.0354
1505.0,0.0358
1504.0,0.0347
1503.0,0.0327
1502.0,0.0303
1501.0,0.0276
1500.0,0.025
1499.0,0.0227
1498.0,0.0206
1497.0,0.0189
1496.0,0.0177
1495.0,0.0168
1494.0,0.0163
1493.0,0.0161
1492.0,0.016
1491.0,0.0157
1490.0,0.0155
1489.0,0.0155
1488.0,0.0157
1487.0,0.0158
1486.0,0.0161
1485.0,0.0166
1484.0,0.0172
1483.0,0.018
1482.0,0.0189
1481.0,0.02
1480.0,0.021
1479.0,0.0219
1478.0,0.0228
1477.0,0.0238
1476.0,0.0246
1475.0,0.0253
1474.0,0.0261
1473.0,0.0272
1472.0,0.0285
1471.0,0.0293
1470.0,0.0299
1469.0,0.0305
1468.0,0.0311
1467.0,0.0317
1466.0,0.0324
1465.0,0.0333
1464.0,0.0343
1463.0,0.0352
1462.0,0.036
1461.0,0.037
1460.0,0.0379
1459.0,0.0388
1458.0,0.0399
1457.0,0.0414
1456.0,0.0421
1455.0,0.0422
1454.0,0.0421
1453.0,0.0418
1452.0,0.0414
1451.0,0.0407
1450.0,0.04
1449.0,0.0393
1448.0,0.0385
1447.0,0.0378
1446.0,0.0372
1445.0,0.0368
1444.0,0.0365
1443.0,0.0361
1442.0,0.0358
1441.0,0.0356
1440.0,0.0353
1439.0,0.0348
1438.0,0.034
1437.0,0.0328
1436.0,0.0312
1435.0,0.0298
1434.0,0.0285
1433.0,0.0271
1432.0,0.0256
1431.0,0.0239
1430.0,0.0222
1429.0,0.0207
1428.0,0.0195
1427.0,0.0186
1426.0,0.0179
1425.0,0.0173
1424.0,0.0169
1423.0,0.0168
1422.0,0.017
1421.0,0.0175
1420.0,0.0187
1419.0,0.021
1418.0,0.0242
1417.0,0.0278
1416.0,0.0324
1415.0,0.0381
1414.0,0.0451
1413.0,0.0537
1412.0,0.0633
1411.0,0.0725
1410.0,0.0797
1409.0,0.0843
1408.0,0.0859
1407.0,0.0843
1406.0,0.0799
1405.0,0.0737
1404.0,0.0675
1403.0,0.0622
1402.0,0.0578
1401.0,0.0538
1400.0,0.0497
1399.0,0.0458
1398.0,0.0427
1397.0,0.0403
1396.0,0.0382
1395.0,0.0359
1394.0,0.0338
1393.0,0.0322
1392.0,0.0311
1391.0,0.0301
1390.0,0.0292
1389.0,0.0284
1388.0,0.0277
1387.0,0.0272
1386.0,0.027
1385.0,0.027
1384.0,0.0272
1383.0,0.0276
1382.0,0.0282
1381.0,0.0289
1380.0,0.0299
1379.0,0.031
1378.0,0.032
1377.0,0.033
1376.0,0.0339
1375.0,0.0348
1374.0,0.0356
1373.0,0.0362
1372.0,0.0365
1371.0,0.0366
1370.0,0.0364
1369.0,0.0358
1368.0,0.0347
1367.0,0.0333
1366.0,0.0315
1365.0,0.0296
1364.0,0.0273
1363.0,0.0249
1362.0,0.0226
1361.0,0.0209
1360.0,0.0197
1359.0,0.0188
1358.0,0.0181
1357.0,0.0177
1356.0,0.0177
1355.0,0.0178
1354.0,0.0182
1353.0,0.0189
1352.0,0.0199
1351.0,0.0212
1350.0,0.023
1349.0,0.0253
1348.0,0.0282
1347.0,0.0316
1346.0,0.0357
1345.0,0.0403
1344.0,0.0454
1343.0,0.0505
1342.0,0.0555
1341.0,0.0601
1340.0,0.0637
1339.0,0.0654
1338.0,0.0644
1337.0,0.061
1336.0,0.0558
1335.0,0.0496
1334.0,0.0429
1333.0,0.0364
1332.0,0.0307
1331.0,0.0261
1330.0,0.0226
1329.0,0.0202
1328.0,0.0186
1327.0,0.0177
1326.0,0.0173
1325.0,0.0175
1324.0,0.0179
1323.0,0.0186
1322.0,0.0194
1321.0,0.0204
1320.0,0.0214
1319.0,0.0225
1318.0,0.0236
1317.0,0.0247
1316.0,0.0258
1315.0,0.0271
1314.0,0.0284
1313.0,0.03
1312.0,0.0316
1311.0,0.0333
1310.0,0.035
1309.0,0.0369
1308.0,0.0388
1307.0,0.0407
1306.0,0.0424
1305.0,0.0442
1304.0,0.0459
1303.0,0.0479
1302.0,0.0503
1301.0,0.0531
1300.0,0.0565
1299.0,0.0603
1298.0,0.0644
1297.0,0.0688
1296.0,0.0734
1295.0,0.078
1294.0,0.0825
1293.0,0.087
1292.0,0.0914
1291.0,0.0957
1290.0,0.0999
1289.0,0.1039
1288.0,0.1078
1287.0,0.1114
1286.0,0.1147
1285.0,0.1178
1284.0,0.1207
1283.0,0.1235
1282.0,0.1261
1281.0,0.1286
1280.0,0.131
1279.0,0.1333
1278.0,0.1357
1277.0,0.1383
1276.0,0.1413
1275.0,0.1448
1274.0,0.1488
1273.0,0.1537
1272.0,0.1596
1271.0,0.1664
1270.0,0.1738
1269.0,0.1818
1268.0,0.1902
1267.0,0.1987
1266.0,0.2071
1265.0,0.2153
1264.0,0.2231
1263.0,0.2301
1262.0,0.2362
1261.0,0.2414
1260.0,0.2458
1259.0,0.249
1258.0,0.2512
1257.0,0.253
1256.0,0.2549
1255.0,0.2569
1254.0,0.2592
1253.0,0.2623
1252.0,0.2662
1251.0,0.2707
1250.0,0.2758
1249.0,0.2814
1248.0,0.2876
1247.0,0.2938
1246.0,0.2998
1245.0,0.3056
1244.0,0.3112
1243.0,0.3159
1242.0,0.3194
1241.0,0.3219
1240.0,0.323
1239.0,0.3224
1238.0,0.3198
1237.0,0.3158
1236.0,0.3104
1235.0,0.3035
1234.0,0.2954
1233.0,0.2867
1232.0,0.2776
1231.0,0.2681
1230.0,0.2585
1229.0,0.2491
1228.0,0.24
1227.0,0.2311
1226.0,0.2223
1225.0,0.2139
1224.0,0.2058
1223.0,0.198
1222.0,0.1904
1221.0,0.1831
1220.0,0.1762
1219.0,0.1695
1218.0,0.1631
1217.0,0.1571
1216.0,0.1517
1215.0,0.1465
1214.0,0.1416
1213.0,0.137
1212.0,0.1328
1211.0,0.1289
1210.0,0.1251
1209.0,0.1216
1208.0,0.1183
1207.0,0.1151
1206.0,0.112
1205.0,0.1091
1204.0,0.1063
1203.0,0.1036
1202.0,0.1009
1201.0,0.0984
1200.0,0.096
1199.0,0.0936
1198.0,0.0913
1197.0,0.089
1196.0,0.0869
1195.0,0.0848
1194.0,0.0828
1193.0,0.0808
1192.0,0.079
1191.0,0.0773
1190.0,0.0757
1189.0,0.0742
1188.0,0.073
1187.0,0.0719
1186.0,0.0711
1185.0,0.0706
1184.0,0.0704
1183.0,0.0705
1182.0,0.0709
1181.0,0.0716
1180.0,0.0726
1179.0,0.0737
1178.0,0.0749
1177.0,0.076
1176.0,0.0769
1175.0,0.0774
1174.0,0.0774
1173.0,0.0768
1172.0,0.0757
1171.0,0.0739
1170.0,0.0717
1169.0,0.0692
1168.0,0.0667
1167.0,0.0644
1166.0,0.0625
1165.0,0.0608
1164.0,0.0595
1163.0,0.0585
1162.0,0.0576
1161.0,0.057
1160.0,0.0564
1159.0,0.0559
1158.0,0.0555
1157.0,0.0553
1156.0,0.0554
1155.0,0.0557
1154.0,0.0562
1153.0,0.057
1152.0,0.0581
1151.0,0.0593
1150.0,0.0608
1149.0,0.0625
1148.0,0.0644
1147.0,0.0666
1146.0,0.0691
1145.0,0.0717
1144.0,0.0746
1143.0,0.0775
1142.0,0.0806
1141.0,0.0838
1140.0,0.0871
1139.0,0.0904
1138.0,0.0937
1137.0,0.0971
1136.0,0.1007
1135.0,0.1046
1134.0,0.1086
1133.0,0.1131
1132.0,0.1179
1131.0,0.1231
1130.0,0.1286
1129.0,0.1346
1128.0,0.141
1127.0,0.1479
1126.0,0.1551
1125.0,0.1626
1124.0,0.1703
1123.0,0.178
1122.0,0.1855
1121.0,0.1926
1120.0,0.1992
1119.0,0.2048
1118.0,0.209
1117.0,0.2118
1116.0,0.213
1115.0,0.2126
1114.0,0.2109
1113.0,0.2089
1112.0,0.2074
1111.0,0.2071
1110.0,0.2088
1109.0,0.2129
1108.0,0.2197
1107.0,0.2285
1106.0,0.2389
1105.0,0.2502
1104.0,0.2621
1103.0,0.274
1102.0,0.2855
1101.0,0.2967
1100.0,0.3073
1099.0,0.3168
1098.0,0.3249
1097.0,0.3319
1096.0,0.3376
1095.0,0.3416
1094.0,0.3437
1093.0,0.3443
1092.0,0.3437
1091.0,0.3417
1090.0,0.3384
1089.0,0.3344
1088.0,0.3299
1087.0,0.3248
1086.0,0.3192
1085.0,0.3137
1084.0,0.3082
1083.0,0.3022
1082.0,0.2954
1081.0,0.288
1080.0,0.2798
1079.0,0.2708
1078.0,0.2611
1077.0,0.2512
1076.0,0.2414
1075.0,0.2316
1074.0,0.2221
1073.0,0.2132
1072.0,0.2049
1071.0,0.1972
1070.0,0.19
1069.0,0.1833
1068.0,0.1772
1067.0,0.1714
1066.0,0.1661
1065.0,0.1612
1064.0,0.1569
1063.0,0.1527
1062.0,0.1488
1061.0,0.1453
1060.0,0.1421
1059.0,0.1393
1058.0,0.137
1057.0,0.1351
1056.0,0.1338
1055.0,0.1328
1054.0,0.1322
1053.0,0.1321
1052.0,0.1324
1051.0,0.133
1050.0,0.1337
1049.0,0.1347
1048.0,0.1357
1047.0,0.1367
1046.0,0.1374
1045.0,0.138
1044.0,0.1384
1043.0,0.1384
1042.0,0.1381
1041.0,0.1373
1040.0,0.1362
1039.0,0.1347
1038.0,0.1329
1037.0,0.1309
1036.0,0.129
1035.0,0.127
1034.0,0.125
1033.0,0.123
1032.0,0.1211
1031.0,0.1192
1030.0,0.1174
1029.0,0.1159
1028.0,0.115
1027.0,0.1152
1026.0,0.117
1025.0,0.1213
1024.0,0.1287
1023.0,0.1395
1022.0,0.1539
1021.0,0.1714
1020.0,0.1906
1019.0,0.2091
1018.0,0.2237
1017.0,0.2314
1016.0,0.2307
1015.0,0.2219
1014.0,0.2078
1013.0,0.192
1012.0,0.1769
1011.0,0.1639
1010.0,0.1532
1009.0,0.1446
1008.0,0.1376
1007.0,0.1318
1006.0,0.127
1005.0,0.1231
1004.0,0.1199
1003.0,0.1172
1002.0,0.1147
1001.0,0.1125
1000.0,0.1105
999.0,0.1088
998.0,0.1072
997.0,0.1057
996.0,0.1044
995.0,0.1032
994.0,0.102
993.0,0.1009
992.0,0.1
991.0,0.0992
990.0,0.0985
989.0,0.098
988.0,0.0977
987.0,0.0974
986.0,0.0973
985.0,0.0974
984.0,0.0976
983.0,0.0979
982.0,0.0985
981.0,0.0992
980.0,0.1001
979.0,0.1012
978.0,0.1022
977.0,0.1033
976.0,0.1043
975.0,0.1051
974.0,0.1058
973.0,0.1064
972.0,0.1067
971.0,0.1066
970.0,0.1062
969.0,0.1055
968.0,0.1045
967.0,0.1031
966.0,0.1016
965.0,0.0999
964.0,0.0982
963.0,0.0966
962.0,0.095
961.0,0.0934
960.0,0.0919
959.0,0.0905
958.0,0.0891
957.0,0.0878
956.0,0.0866
955.0,0.0854
954.0,0.0843
953.0,0.0834
952.0,0.0825
951.0,0.0816
950.0,0.0807
949.0,0.0799
948.0,0.0791
947.0,0.0784
946.0,0.0777
945.0,0.0772
944.0,0.0766
943.0,0.0761
942.0,0.0756
941.0,0.0751
940.0,0.0747
939.0,0.0742
938.0,0.0738
937.0,0.0733
936.0,0.0729
935.0,0.0725
934.0,0.0721
933.0,0.0717
932.0,0.0713
931.0,0.0709
930.0,0.0704
929.0,0.07
928.0,0.0695
927.0,0.0691
926.0,0.0686
925.0,0.068
924.0,0.0675
923.0,0.067
922.0,0.0665
921.0,0.0661
920.0,0.0658
919.0,0.0655
918.0,0.0652
917.0,0.065
916.0,0.0648
915.0,0.0647
914.0,0.0645
913.0,0.0645
912.0,0.0648
911.0,0.0653
910.0,0.066
909.0,0.0669
908.0,0.0679
907.0,0.069
906.0,0.0701
905.0,0.0714
904.0,0.0728
903.0,0.0742
902.0,0.0755
901.0,0.0766
900.0,0.0775
899.0,0.0781
898.0,0.0785
897.0,0.0786
896.0,0.0787
895.0,0.0784
894.0,0.078
893.0,0.0776
892.0,0.0773
891.0,0.0771
890.0,0.0771
889.0,0.0772
888.0,0.0776
887.0,0.0783
886.0,0.0793
885.0,0.0809
884.0,0.0833
883.0,0.0864
882.0,0.0904
881.0,0.0952
880.0,0.1009
879.0,0.1074
878.0,0.1145
877.0,0.1222
876.0,0.1302
875.0,0.1379
874.0,0.1444
873.0,0.1485
872.0,0.1494
871.0,0.1466
870.0,0.1411
869.0,0.1344
868.0,0.1276
867.0,0.1214
866.0,0.1161
865.0,0.1118
864.0,0.1084
863.0,0.1057
862.0,0.1035
861.0,0.1019
860.0,0.1007
859.0,0.0998
858.0,0.099
857.0,0.0984
856.0,0.098
855.0,0.0978
854.0,0.0977
853.0,0.0979
852.0,0.0981
851.0,0.0984
850.0,0.0987
849.0,0.0991
848.0,0.0995
847.0,0.0998
846.0,0.1
845.0,0.1
844.0,0.0998
843.0,0.0995
842.0,0.099
841.0,0.0985
840.0,0.098
839.0,0.0972
838.0,0.0961
837.0,0.095
836.0,0.0938
835.0,0.0925
834.0,0.091
833.0,0.0896
832.0,0.0883
831.0,0.0871
830.0,0.0859
829.0,0.0849
828.0,0.084
827.0,0.0831
826.0,0.0824
825.0,0.0817
824.0,0.0811
823.0,0.0805
822.0,0.0799
821.0,0.0795
820.0,0.0792
819.0,0.0791
818.0,0.0788
817.0,0.0786
816.0,0.0782
815.0,0.0778
814.0,0.0774
813.0,0.0771
812.0,0.077
811.0,0.0769
810.0,0.0767
809.0,0.0765
808.0,0.0762
807.0,0.0758
806.0,0.0754
805.0,0.0748
804.0,0.0743
803.0,0.0737
802.0,0.073
801.0,0.0724
800.0,0.0723
799.0,0.0728
798.0,0.0744
797.0,0.0771
796.0,0.0804
795.0,0.0837
794.0,0.086
793.0,0.0869
792.0,0.0865
791.0,0.0849
790.0,0.0826
789.0,0.0801
788.0,0.0778
787.0,0.0756
786.0,0.0736
785.0,0.0718
784.0,0.0702
783.0,0.0689
782.0,0.0676
781.0,0.0664
780.0,0.0654
779.0,0.0645
778.0,0.0635
777.0,0.0627
776.0,0.062
775.0,0.0614
774.0,0.0608
773.0,0.0599
772.0,0.0589
771.0,0.0577
770.0,0.0565
769.0,0.0553
768.0,0.0541
767.0,0.0528
766.0,0.0513
765.0,0.0498
764.0,0.0485
763.0,0.0473
762.0,0.0461
761.0,0.0449
760.0,0.0437
759.0,0.0424
758.0,0.0412
757.0,0.0402
756.0,0.0393
755.0,0.0384
754.0,0.0375
753.0,0.0365
752.0,0.0356
751.0,0.0347
750.0,0.0338
749.0,0.033
748.0,0.0324
747.0,0.0319
746.0,0.0319
745.0,0.0325
744.0,0.0341
743.0,0.0368
742.0,0.0411
741.0,0.0475
740.0,0.0567
739.0,0.0685
738.0,0.0826
737.0,0.0989
736.0,0.1169
735.0,0.1359
734.0,0.1558
733.0,0.1768
732.0,0.1994
731.0,0.2238
730.0,0.2506
729.0,0.2805
728.0,0.3137
727.0,0.3481
726.0,0.3798
725.0,0.4042
724.0,0.4175
723.0,0.4183
722.0,0.408
721.0,0.3903
720.0,0.3684
719.0,0.345
718.0,0.3223
717.0,0.3017
716.0,0.2834
715.0,0.2672
714.0,0.253
713.0,0.2413
712.0,0.2321
711.0,0.2246
710.0,0.2179
709.0,0.2118
708.0,0.2062
707.0,0.201
706.0,0.1959
705.0,0.1912
704.0,0.187
703.0,0.1828
702.0,0.1783
701.0,0.1733
700.0,0.1683
699.0,0.1633
698.0,0.1586
697.0,0.1545
696.0,0.151
695.0,0.1477
694.0,0.1442
693.0,0.1409
692.0,0.1381
691.0,0.1359
690.0,0.1342
689.0,0.1331
688.0,0.1323
687.0,0.1315
686.0,0.1305
685.0,0.1297
684.0,0.1291
683.0,0.1285
682.0,0.1278
681.0,0.1273
680.0,0.1272
679.0,0.1271
678.0,0.1265
677.0,0.1252
676.0,0.1236
675.0,0.1218
674.0,0.1202
673.0,0.1192
672.0,0.1183
671.0,0.1168
670.0,0.1141
669.0,0.111
668.0,0.1096
667.0,0.1107
666.0,0.1124
665.0,0.1134
664.0,0.1138
663.0,0.1134
662.0,0.1121
661.0,0.1103
660.0,0.1088
659.0,0.1079
658.0,0.1075
657.0,0.1075
656.0,0.1075
655.0,0.1074
654.0,0.107
653.0,0.1064
652.0,0.1055
651.0,0.1043
650.0,0.1032
649.0,0.1025
648.0,0.1027
647.0,0.1034
646.0,0.1039
645.0,0.1041
644.0,0.1039
643.0,0.1034
642.0,0.1029
641.0,0.1028
640.0,0.1032
639.0,0.104
638.0,0.1054
637.0,0.1074
636.0,0.1102
635.0,0.1129
634.0,0.1148
633.0,0.1153
632.0,0.1143
631.0,0.112
630.0,0.1095
629.0,0.1077
628.0,0.1069
627.0,0.1061
626.0,0.1048
625.0,0.1035
624.0,0.1026
623.0,0.1024
622.0,0.1027
621.0,0.1033
620.0,0.1038
619.0,0.1038
618.0,0.103
617.0,0.1018
616.0,0.1005
615.0,0.0994
614.0,0.0985
613.0,0.0978
612.0,0.0972
611.0,0.0964
610.0,0.0956
609.0,0.0954
608.0,0.096
607.0,0.0969
606.0,0.0969
605.0,0.096
604.0,0.0948
603.0,0.094
602.0,0.0939
601.0,0.0943
600.0,0.0943
