cm-1,A
4000.0,0.0092
3999.0,0.0092
3998.0,0.0092
3997.0,0.0092
3996.0,0.0091
3995.0,0.009
3994.0,0.009
3993.0,0.009
3992.0,0.0092
3991.0,0.0093
3990.0,0.0093
3989.0,0.0093
3988.0,0.0093
3987.0,0.0092
3986.0,0.0092
3985.0,0.0092
3984.0,0.0092
3983.0,0.0092
3982.0,0.0091
3981.0,0.0091
3980.0,0.009
3979.0,0.009
3978.0,0.0091
3977.0,0.0091
3976.0,0.0091
3975.0,0.0091
3974.0,0.0091
3973.0,0.0091
3972.0,0.0091
3971.0,0.0092
3970.0,0.0092
3969.0,0.0092
3968.0,0.0092
3967.0,0.0092
3966.0,0.0091
3965.0,0.0091
3964.0,0.009
3963.0,0.0091
3962.0,0.0091
3961.0,0.0091
3960.0,0.0091
3959.0,0.0091
3958.0,0.009
3957.0,0.009
3956.0,0.0089
3955.0,0.0089
3954.0,0.0089
3953.0,0.009
3952.0,0.009
3951.0,0.009
3950.0,0.009
3949.0,0.009
3948.0,0.009
3947.0,0.0089
3946.0,0.0089
3945.0,0.0088
3944.0,0.0089
3943.0,0.0089
3942.0,0.009
3941.0,0.0091
3940.0,0.0091
3939.0,0.0092
3938.0,0.0092
3937.0,0.0091
3936.0,0.0091
3935.0,0.009
3934.0,0.009
3933.0,0.009
3932.0,0.009
3931.0,0.009
3930.0,0.0089
3929.0,0.0089
3928.0,0.0089
3927.0,0.0089
3926.0,0.0089
3925.0,0.009
3924.0,0.009
3923.0,0.0091
3922.0,0.0091
3921.0,0.0091
3920.0,0.0091
3919.0,0.0091
3918.0,0.0092
3917.0,0.0092
3916.0,0.0092
3915.0,0.0092
3914.0,0.0093
3913.0,0.0093
3912.0,0.0094
3911.0,0.0094
3910.0,0.0094
3909.0,0.0093
3908.0,0.0092
3907.0,0.0091
3906.0,0.0089
3905.0,0.0088
3904.0,0.0087
3903.0,0.0087
3902.0,0.0087
3901.0,0.0088
3900.0,0.0089
3899.0,0.009
3898.0,0.0091
3897.0,0.0092
3896.0,0.0092
3895.0,0.0092
3894.0,0.0092
3893.0,0.0092
3892.0,0.0092
3891.0,0.0091
3890.0,0.009
3889.0,0.0091
3888.0,0.0093
3887.0,0.0094
3886.0,0.0094
3885.0,0.0093
3884.0,0.0091
3883.0,0.0091
3882.0,0.0091
3881.0,0.0092
3880.0,0.0091
3879.0,0.0091
3878.0,0.0092
3877.0,0.0093
3876.0,0.0094
3875.0,0.0093
3874.0,0.0092
3873.0,0.0092
3872.0,0.0094
3871.0,0.0096
3870.0,0.0095
3869.0,0.0093
3868.0,0.0092
3867.0,0.0092
3866.0,0.0091
3865.0,0.009
3864.0,0.009
3863.0,0.0091
3862.0,0.0092
3861.0,0.0092
3860.0,0.0092
3859.0,0.0092
3858.0,0.0091
3857.0,0.009
3856.0,0.0091
3855.0,0.0094
3854.0,0.0096
3853.0,0.0096
3852.0,0.0094
3851.0,0.0095
3850.0,0.0097
3849.0,0.0097
3848.0,0.0095
3847.0,0.0094
3846.0,0.0093
3845.0,0.0092
3844.0,0.0091
3843.0,0.0091
3842.0,0.0091
3841.0,0.0092
3840.0,0.0093
3839.0,0.0094
3838.0,0.0094
3837.0,0.0093
3836.0,0.0093
3835.0,0.0093
3834.0,0.0093
3833.0,0.0093
3832.0,0.0093
3831.0,0.0093
3830.0,0.0093
3829.0,0.0093
3828.0,0.0093
3827.0,0.0092
3826.0,0.0091
3825.0,0.0091
3824.0,0.0093
3823.0,0.0095
3822.0,0.0096
3821.0,0.0095
3820.0,0.0093
3819.0,0.0094
3818.0,0.0096
3817.0,0.0097
3816.0,0.0098
3815.0,0.0097
3814.0,0.0098
3813.0,0.0098
3812.0,0.0097
3811.0,0.0096
3810.0,0.0096
3809.0,0.0097
3808.0,0.0098
3807.0,0.0097
3806.0,0.0096
3805.0,0.0095
3804.0,0.0094
3803.0,0.0094
3802.0,0.0093
3801.0,0.0093
3800.0,0.0093
3799.0,0.0094
3798.0,0.0096
3797.0,0.0096
3796.0,0.0096
3795.0,0.0095
3794.0,0.0096
3793.0,0.0097
3792.0,0.0097
3791.0,0.0097
3790.0,0.0096
3789.0,0.0096
3788.0,0.0095
3787.0,0.0095
3786.0,0.0096
3785.0,0.0097
3784.0,0.0097
3783.0,0.0096
3782.0,0.0096
3781.0,0.0096
3780.0,0.0097
3779.0,0.0097
3778.0,0.0097
3777.0,0.0098
3776.0,0.0098
3775.0,0.0097
3774.0,0.0096
3773.0,0.0095
3772.0,0.0095
3771.0,0.0096
3770.0,0.0096
3769.0,0.0096
3768.0,0.0097
3767.0,0.0098
3766.0,0.0097
3765.0,0.0096
3764.0,0.0096
3763.0,0.0096
3762.0,0.0095
3761.0,0.0095
3760.0,0.0094
3759.0,0.0094
3758.0,0.0094
3757.0,0.0094
3756.0,0.0093
3755.0,0.0093
3754.0,0.0092
3753.0,0.0092
3752.0,0.0092
3751.0,0.0094
3750.0,0.0094
3749.0,0.0093
3748.0,0.0094
3747.0,0.0095
3746.0,0.0096
3745.0,0.0094
3744.0,0.0089
3743.0,0.0085
3742.0,0.0084
3741.0,0.0083
3740.0,0.008
3739.0,0.0077
3738.0,0.0075
3737.0,0.0073
3736.0,0.0072
3735.0,0.0072
3734.0,0.0072
3733.0,0.0072
3732.0,0.0072
3731.0,0.007
3730.0,0.0069
3729.0,0.0069
3728.0,0.0068
3727.0,0.0067
3726.0,0.0068
3725.0,0.0071
3724.0,0.0073
3723.0,0.0076
3722.0,0.0079
3721.0,0.0082
3720.0,0.0084
3719.0,0.0086
3718.0,0.0088
3717.0,0.009
3716.0,0.0091
3715.0,0.0091
3714.0,0.009
3713.0,0.0088
3712.0,0.0086
3711.0,0.0083
3710.0,0.0082
3709.0,0.0081
3708.0,0.0081
3707.0,0.0081
3706.0,0.0081
3705.0,0.0081
3704.0,0.0082
3703.0,0.0083
3702.0,0.0083
3701.0,0.0083
3700.0,0.0083
3699.0,0.0083
3698.0,0.0084
3697.0,0.0084
3696.0,0.0084
3695.0,0.0083
3694.0,0.0083
3693.0,0.0084
3692.0,0.0085
3691.0,0.0087
3690.0,0.009
3689.0,0.0091
3688.0,0.009
3687.0,0.0091
3686.0,0.0093
3685.0,0.0095
3684.0,0.0095
3683.0,0.0095
3682.0,0.0095
3681.0,0.0095
3680.0,0.0095
3679.0,0.0094
3678.0,0.0095
3677.0,0.0097
3676.0,0.0098
3675.0,0.0097
3674.0,0.0096
3673.0,0.0098
3672.0,0.0101
3671.0,0.0102
3670.0,0.0102
3669.0,0.0101
3668.0,0.0101
3667.0,0.0102
3666.0,0.0103
3665.0,0.0103
3664.0,0.0103
3663.0,0.0103
3662.0,0.0103
3661.0,0.0102
3660.0,0.0102
3659.0,0.0102
3658.0,0.0103
3657.0,0.0103
3656.0,0.0103
3655.0,0.0102
3654.0,0.0101
3653.0,0.0101
3652.0,0.01
3651.0,0.01
3650.0,0.0101
3649.0,0.0101
3648.0,0.01
3647.0,0.0098
3646.0,0.0099
3645.0,0.01
3644.0,0.0101
3643.0,0.0101
3642.0,0.01
3641.0,0.0099
3640.0,0.0098
3639.0,0.0098
3638.0,0.0096
3637.0,0.0095
3636.0,0.0094
3635.0,0.0092
3634.0,0.0091
3633.0,0.009
3632.0,0.0089
3631.0,0.0089
3630.0,0.009
3629.0,0.009
3628.0,0.0089
3627.0,0.0089
3626.0,0.009
3625.0,0.0091
3624.0,0.0091
3623.0,0.0091
3622.0,0.0091
3621.0,0.0093
3620.0,0.0095
3619.0,0.0096
3618.0,0.0097
3617.0,0.0098
3616.0,0.0099
3615.0,0.0101
3614.0,0.0102
3613.0,0.0103
3612.0,0.0103
3611.0,0.0102
3610.0,0.0101
3609.0,0.0101
3608.0,0.0101
3607.0,0.0101
3606.0,0.0101
3605.0,0.01
3604.0,0.0098
3603.0,0.0097
3602.0,0.0096
3601.0,0.0096
3600.0,0.0097
3599.0,0.0098
3598.0,0.0098
3597.0,0.0099
3596.0,0.0099
3595.0,0.0099
3594.0,0.01
3593.0,0.0101
3592.0,0.0102
3591.0,0.0102
3590.0,0.0103
3589.0,0.0103
3588.0,0.0103
3587.0,0.0103
3586.0,0.0105
3585.0,0.0107
3584.0,0.011
3583.0,0.0112
3582.0,0.0113
3581.0,0.0113
3580.0,0.0114
3579.0,0.0114
3578.0,0.0115
3577.0,0.0115
3576.0,0.0115
3575.0,0.0114
3574.0,0.0114
3573.0,0.0113
3572.0,0.0113
3571.0,0.0112
3570.0,0.0111
3569.0,0.011
3568.0,0.011
3567.0,0.0111
3566.0,0.0111
3565.0,0.0111
3564.0,0.0113
3563.0,0.0114
3562.0,0.0116
3561.0,0.0118
3560.0,0.0119
3559.0,0.0119
3558.0,0.0119
3557.0,0.0118
3556.0,0.0119
3555.0,0.0119
3554.0,0.0119
3553.0,0.0119
3552.0,0.0118
3551.0,0.0117
3550.0,0.0117
3549.0,0.0117
3548.0,0.0117
3547.0,0.0118
3546.0,0.0119
3545.0,0.012
3544.0,0.012
3543.0,0.012
3542.0,0.012
3541.0,0.012
3540.0,0.012
3539.0,0.012
3538.0,0.0121
3537.0,0.0121
3536.0,0.0121
3535.0,0.0121
3534.0,0.0121
3533.0,0.0121
3532.0,0.0122
3531.0,0.0122
3530.0,0.0122
3529.0,0.0122
3528.0,0.0122
3527.0,0.0121
3526.0,0.012
3525.0,0.012
3524.0,0.012
3523.0,0.012
3522.0,0.0121
3521.0,0.0122
3520.0,0.0122
3519.0,0.0123
3518.0,0.0124
3517.0,0.0124
3516.0,0.0124
3515.0,0.0124
3514.0,0.0124
3513.0,0.0124
3512.0,0.0124
3511.0,0.0124
3510.0,0.0124
3509.0,0.0123
3508.0,0.0122
3507.0,0.0122
3506.0,0.0122
3505.0,0.0122
3504.0,0.0122
3503.0,0.0122
3502.0,0.0122
3501.0,0.0123
3500.0,0.0124
3499.0,0.0125
3498.0,0.0126
3497.0,0.0126
3496.0,0.0127
3495.0,0.0128
3494.0,0.0127
3493.0,0.0127
3492.0,0.0125
3491.0,0.0125
3490.0,0.0124
3489.0,0.0125
3488.0,0.0125
3487.0,0.0125
3486.0,0.0125
3485.0,0.0125
3484.0,0.0125
3483.0,0.0125
3482.0,0.0126
3481.0,0.0127
3480.0,0.0127
3479.0,0.0128
3478.0,0.0128
3477.0,0.0128
3476.0,0.0128
3475.0,0.0128
3474.0,0.0128
3473.0,0.0128
3472.0,0.0129
3471.0,0.0129
3470.0,0.0129
3469.0,0.0129
3468.0,0.0128
3467.0,0.0128
3466.0,0.0129
3465.0,0.0129
3464.0,0.0129
3463.0,0.0129
3462.0,0.0128
3461.0,0.0127
3460.0,0.0127
3459.0,0.0128
3458.0,0.0129
3457.0,0.0129
3456.0,0.0129
3455.0,0.0129
3454.0,0.0129
3453.0,0.0128
3452.0,0.0128
3451.0,0.0128
3450.0,0.0128
3449.0,0.0128
3448.0,0.0128
3447.0,0.0128
3446.0,0.0128
3445.0,0.0127
3444.0,0.0127
3443.0,0.0128
3442.0,0.0128
3441.0,0.0128
3440.0,0.0128
3439.0,0.0128
3438.0,0.0129
3437.0,0.013
3436.0,0.0131
3435.0,0.0131
3434.0,0.0131
3433.0,0.0131
3432.0,0.013
3431.0,0.0129
3430.0,0.0129
3429.0,0.0129
3428.0,0.013
3427.0,0.0131
3426.0,0.013
3425.0,0.013
3424.0,0.013
3423.0,0.013
3422.0,0.0131
3421.0,0.0132
3420.0,0.0132
3419.0,0.0131
3418.0,0.0131
3417.0,0.013
3416.0,0.013
3415.0,0.013
3414.0,0.0131
3413.0,0.0131
3412.0,0.013
3411.0,0.013
3410.0,0.0131
3409.0,0.0131
3408.0,0.0131
3407.0,0.0131
3406.0,0.0131
3405.0,0.0132
3404.0,0.0132
3403.0,0.0132
3402.0,0.0131
3401.0,0.0131
3400.0,0.013
3399.0,0.013
3398.0,0.013
3397.0,0.013
3396.0,0.0131
3395.0,0.0131
3394.0,0.013
3393.0,0.013
3392.0,0.0129
3391.0,0.0129
3390.0,0.0129
3389.0,0.0129
3388.0,0.013
3387.0,0.013
3386.0,0.0129
3385.0,0.0129
3384.0,0.0128
3383.0,0.0128
3382.0,0.0128
3381.0,0.0128
3380.0,0.0128
3379.0,0.0127
3378.0,0.0127
3377.0,0.0127
3376.0,0.0128
3375.0,0.0128
3374.0,0.0129
3373.0,0.013
3372.0,0.013
3371.0,0.013
3370.0,0.0129
3369.0,0.0129
3368.0,0.0128
3367.0,0.0128
3366.0,0.0128
3365.0,0.0128
3364.0,0.0129
3363.0,0.0129
3362.0,0.0129
3361.0,0.0128
3360.0,0.0128
3359.0,0.0128
3358.0,0.0128
3357.0,0.0129
3356.0,0.013
3355.0,0.0131
3354.0,0.0132
3353.0,0.0131
3352.0,0.013
3351.0,0.0129
3350.0,0.0129
3349.0,0.0128
3348.0,0.0129
3347.0,0.0129
3346.0,0.0129
3345.0,0.0129
3344.0,0.0129
3343.0,0.013
3342.0,0.013
3341.0,0.013
3340.0,0.0129
3339.0,0.0128
3338.0,0.0126
3337.0,0.0125
3336.0,0.0124
3335.0,0.0124
3334.0,0.0125
3333.0,0.0127
3332.0,0.0127
3331.0,0.0127
3330.0,0.0127
3329.0,0.0126
3328.0,0.0126
3327.0,0.0126
3326.0,0.0125
3325.0,0.0124
3324.0,0.0124
3323.0,0.0124
3322.0,0.0124
3321.0,0.0124
3320.0,0.0124
3319.0,0.0125
3318.0,0.0125
3317.0,0.0125
3316.0,0.0124
3315.0,0.0124
3314.0,0.0124
3313.0,0.0124
3312.0,0.0124
3311.0,0.0124
3310.0,0.0125
3309.0,0.0125
3308.0,0.0125
3307.0,0.0125
3306.0,0.0126
3305.0,0.0126
3304.0,0.0126
3303.0,0.0126
3302.0,0.0125
3301.0,0.0124
3300.0,0.0124
3299.0,0.0124
3298.0,0.0124
3297.0,0.0125
3296.0,0.0125
3295.0,0.0125
3294.0,0.0125
3293.0,0.0124
3292.0,0.0123
3291.0,0.0123
3290.0,0.0122
3289.0,0.0122
3288.0,0.0123
3287.0,0.0123
3286.0,0.0122
3285.0,0.0122
3284.0,0.0122
3283.0,0.0122
3282.0,0.0122
3281.0,0.0122
3280.0,0.0123
3279.0,0.0123
3278.0,0.0123
3277.0,0.0122
3276.0,0.0121
3275.0,0.0121
3274.0,0.0121
3273.0,0.0121
3272.0,0.012
3271.0,0.012
3270.0,0.0121
3269.0,0.0121
3268.0,0.0121
3267.0,0.012
3266.0,0.0119
3265.0,0.0119
3264.0,0.0119
3263.0,0.0119
3262.0,0.0119
3261.0,0.0119
3260.0,0.0118
3259.0,0.0117
3258.0,0.0117
3257.0,0.0117
3256.0,0.0118
3255.0,0.0119
3254.0,0.0119
3253.0,0.0118
3252.0,0.0117
3251.0,0.0116
3250.0,0.0115
3249.0,0.0115
3248.0,0.0115
3247.0,0.0115
3246.0,0.0115
3245.0,0.0116
3244.0,0.0116
3243.0,0.0116
3242.0,0.0116
3241.0,0.0116
3240.0,0.0116
3239.0,0.0117
3238.0,0.0117
3237.0,0.0117
3236.0,0.0116
3235.0,0.0116
3234.0,0.0115
3233.0,0.0114
3232.0,0.0114
3231.0,0.0115
3230.0,0.0116
3229.0,0.0117
3228.0,0.0118
3227.0,0.0118
3226.0,0.0117
3225.0,0.0116
3224.0,0.0115
3223.0,0.0115
3222.0,0.0116
3221.0,0.0118
3220.0,0.0119
3219.0,0.0119
3218.0,0.0118
3217.0,0.0118
3216.0,0.0117
3215.0,0.0117
3214.0,0.0117
3213.0,0.0118
3212.0,0.0118
3211.0,0.0118
3210.0,0.0117
3209.0,0.0117
3208.0,0.0117
3207.0,0.0117
3206.0,0.0117
3205.0,0.0117
3204.0,0.0117
3203.0,0.0117
3202.0,0.0116
3201.0,0.0115
3200.0,0.0115
3199.0,0.0115
3198.0,0.0115
3197.0,0.0116
3196.0,0.0116
3195.0,0.0115
3194.0,0.0115
3193.0,0.0114
3192.0,0.0114
3191.0,0.0113
3190.0,0.0112
3189.0,0.0112
3188.0,0.0112
3187.0,0.0112
3186.0,0.0112
3185.0,0.0111
3184.0,0.011
3183.0,0.0109
3182.0,0.0109
3181.0,0.011
3180.0,0.011
3179.0,0.0111
3178.0,0.011
3177.0,0.011
3176.0,0.0109
3175.0,0.0109
3174.0,0.011
3173.0,0.0111
3172.0,0.0111
3171.0,0.0111
3170.0,0.011
3169.0,0.0109
3168.0,0.0108
3167.0,0.0107
3166.0,0.0106
3165.0,0.0105
3164.0,0.0105
3163.0,0.0105
3162.0,0.0105
3161.0,0.0105
3160.0,0.0105
3159.0,0.0105
3158.0,0.0105
3157.0,0.0105
3156.0,0.0105
3155.0,0.0105
3154.0,0.0105
3153.0,0.0105
3152.0,0.0105
3151.0,0.0105
3150.0,0.0105
3149.0,0.0105
3148.0,0.0105
3147.0,0.0105
3146.0,0.0104
3145.0,0.0104
3144.0,0.0103
3143.0,0.0103
3142.0,0.0103
3141.0,0.0103
3140.0,0.0103
3139.0,0.0103
3138.0,0.0102
3137.0,0.0102
3136.0,0.0101
3135.0,0.01
3134.0,0.0099
3133.0,0.0098
3132.0,0.0099
3131.0,0.0099
3130.0,0.01
3129.0,0.01
3128.0,0.01
3127.0,0.01
3126.0,0.01
3125.0,0.0099
3124.0,0.0098
3123.0,0.0097
3122.0,0.0096
3121.0,0.0096
3120.0,0.0096
3119.0,0.0095
3118.0,0.0095
3117.0,0.0095
3116.0,0.0095
3115.0,0.0095
3114.0,0.0095
3113.0,0.0094
3112.0,0.0093
3111.0,0.0092
3110.0,0.0091
3109.0,0.009
3108.0,0.009
3107.0,0.009
3106.0,0.009
3105.0,0.009
3104.0,0.009
3103.0,0.009
3102.0,0.0089
3101.0,0.0089
3100.0,0.0089
3099.0,0.009
3098.0,0.009
3097.0,0.009
3096.0,0.0089
3095.0,0.0088
3094.0,0.0088
3093.0,0.0087
3092.0,0.0086
3091.0,0.0086
3090.0,0.0085
3089.0,0.0085
3088.0,0.0085
3087.0,0.0084
3086.0,0.0083
3085.0,0.0083
3084.0,0.0083
3083.0,0.0083
3082.0,0.0083
3081.0,0.0083
3080.0,0.0082
3079.0,0.0081
3078.0,0.0081
3077.0,0.008
3076.0,0.008
3075.0,0.008
3074.0,0.008
3073.0,0.008
3072.0,0.0079
3071.0,0.0078
3070.0,0.0078
3069.0,0.0078
3068.0,0.0077
3067.0,0.0077
3066.0,0.0076
3065.0,0.0076
3064.0,0.0075
3063.0,0.0074
3062.0,0.0074
3061.0,0.0073
3060.0,0.0073
3059.0,0.0073
3058.0,0.0074
3057.0,0.0073
3056.0,0.0073
3055.0,0.0072
3054.0,0.0071
3053.0,0.007
3052.0,0.0069
3051.0,0.0069
3050.0,0.0069
3049.0,0.0069
3048.0,0.0069
3047.0,0.0068
3046.0,0.0067
3045.0,0.0067
3044.0,0.0066
3043.0,0.0065
3042.0,0.0064
3041.0,0.0063
3040.0,0.0063
3039.0,0.0062
3038.0,0.0062
3037.0,0.0061
3036.0,0.006
3035.0,0.0059
3034.0,0.0059
3033.0,0.0058
3032.0,0.0058
3031.0,0.0057
3030.0,0.0056
3029.0,0.0055
3028.0,0.0055
3027.0,0.0055
3026.0,0.0055
3025.0,0.0055
3024.0,0.0055
3023.0,0.0054
3022.0,0.0053
3021.0,0.0053
3020.0,0.0052
3019.0,0.0052
3018.0,0.0051
3017.0,0.005
3016.0,0.005
3015.0,0.0049
3014.0,0.0048
3013.0,0.0048
3012.0,0.0047
3011.0,0.0047
3010.0,0.0046
3009.0,0.0045
3008.0,0.0045
3007.0,0.0045
3006.0,0.0045
3005.0,0.0045
3004.0,0.0045
3003.0,0.0046
3002.0,0.0047
3001.0,0.0047
3000.0,0.0047
2999.0,0.0047
2998.0,0.0048
2997.0,0.0049
2996.0,0.005
2995.0,0.0051
2994.0,0.0052
2993.0,0.0053
2992.0,0.0055
2991.0,0.0057
2990.0,0.006
2989.0,0.0064
2988.0,0.0069
2987.0,0.0074
2986.0,0.0079
2985.0,0.0086
2984.0,0.0093
2983.0,0.0102
2982.0,0.0111
2981.0,0.0122
2980.0,0.0134
2979.0,0.0149
2978.0,0.0166
2977.0,0.0186
2976.0,0.0209
2975.0,0.0234
2974.0,0.0264
2973.0,0.0298
2972.0,0.0336
2971.0,0.0377
2970.0,0.0423
2969.0,0.0472
2968.0,0.0525
2967.0,0.0581
2966.0,0.0639
2965.0,0.0695
2964.0,0.075
2963.0,0.0799
2962.0,0.0842
2961.0,0.0878
2960.0,0.0907
2959.0,0.0933
2958.0,0.096
2957.0,0.0993
2956.0,0.1034
2955.0,0.1086
2954.0,0.1145
2953.0,0.1208
2952.0,0.1267
2951.0,0.1313
2950.0,0.1338
2949.0,0.1335
2948.0,0.1303
2947.0,0.1243
2946.0,0.1164
2945.0,0.1075
2944.0,0.0985
2943.0,0.0903
2942.0,0.0835
2941.0,0.0783
2940.0,0.0747
2939.0,0.0726
2938.0,0.072
2937.0,0.0727
2936.0,0.0746
2935.0,0.0777
2934.0,0.0818
2933.0,0.0868
2932.0,0.0925
2931.0,0.0989
2930.0,0.1056
2929.0,0.1126
2928.0,0.1196
2927.0,0.1263
2926.0,0.1328
2925.0,0.139
2924.0,0.1451
2923.0,0.1513
2922.0,0.1575
2921.0,0.1637
2920.0,0.1693
2919.0,0.1738
2918.0,0.1766
2917.0,0.1771
2916.0,0.1753
2915.0,0.1715
2914.0,0.1664
2913.0,0.1608
2912.0,0.1552
2911.0,0.1501
2910.0,0.1454
2909.0,0.1412
2908.0,0.1372
2907.0,0.1333
2906.0,0.1294
2905.0,0.1255
2904.0,0.1216
2903.0,0.1176
2902.0,0.1137
2901.0,0.1098
2900.0,0.106
2899.0,0.1024
2898.0,0.0991
2897.0,0.0959
2896.0,0.0932
2895.0,0.0908
2894.0,0.0888
2893.0,0.0871
2892.0,0.0859
2891.0,0.0851
2890.0,0.0846
2889.0,0.0845
2888.0,0.0847
2887.0,0.0851
2886.0,0.0857
2885.0,0.0866
2884.0,0.0878
2883.0,0.0894
2882.0,0.0913
2881.0,0.0934
2880.0,0.0955
2879.0,0.0974
2878.0,0.0987
2877.0,0.0992
2876.0,0.0991
2875.0,0.0986
2874.0,0.0982
2873.0,0.0981
2872.0,0.0987
2871.0,0.0998
2870.0,0.1014
2869.0,0.1031
2868.0,0.1043
2867.0,0.1046
2866.0,0.1032
2865.0,0.1
2864.0,0.095
2863.0,0.089
2862.0,0.0827
2861.0,0.0766
2860.0,0.0712
2859.0,0.0668
2858.0,0.0633
2857.0,0.0606
2856.0,0.0586
2855.0,0.0572
2854.0,0.0563
2853.0,0.0559
2852.0,0.056
2851.0,0.0566
2850.0,0.0577
2849.0,0.0593
2848.0,0.0615
2847.0,0.0643
2846.0,0.0678
2845.0,0.0719
2844.0,0.0765
2843.0,0.0816
2842.0,0.0867
2841.0,0.0916
2840.0,0.0957
2839.0,0.0986
2838.0,0.0999
2837.0,0.0993
2836.0,0.0966
2835.0,0.0921
2834.0,0.0864
2833.0,0.0802
2832.0,0.0741
2831.0,0.0686
2830.0,0.0638
2829.0,0.0598
2828.0,0.0565
2827.0,0.0538
2826.0,0.0516
2825.0,0.0497
2824.0,0.0481
2823.0,0.0467
2822.0,0.0454
2821.0,0.0442
2820.0,0.0432
2819.0,0.0423
2818.0,0.0415
2817.0,0.0408
2816.0,0.0402
2815.0,0.0397
2814.0,0.0391
2813.0,0.0386
2812.0,0.0381
2811.0,0.0376
2810.0,0.0371
2809.0,0.0366
2808.0,0.036
2807.0,0.0354
2806.0,0.0349
2805.0,0.0344
2804.0,0.0339
2803.0,0.0334
2802.0,0.0329
2801.0,0.0324
2800.0,0.032
2799.0,0.0316
2798.0,0.0313
2797.0,0.031
2796.0,0.0308
2795.0,0.0305
2794.0,0.0302
2793.0,0.03
2792.0,0.0296
2791.0,0.0293
2790.0,0.0289
2789.0,0.0286
2788.0,0.0283
2787.0,0.0281
2786.0,0.0279
2785.0,0.0276
2784.0,0.0274
2783.0,0.0271
2782.0,0.0268
2781.0,0.0266
2780.0,0.0264
2779.0,0.0262
2778.0,0.0261
2777.0,0.0259
2776.0,0.0258
2775.0,0.0257
2774.0,0.0255
2773.0,0.0254
2772.0,0.0252
2771.0,0.0251
2770.0,0.0249
2769.0,0.0248
2768.0,0.0247
2767.0,0.0246
2766.0,0.0245
2765.0,0.0245
2764.0,0.0244
2763.0,0.0243
2762.0,0.0241
2761.0,0.024
2760.0,0.0239
2759.0,0.0238
2758.0,0.0237
2757.0,0.0235
2756.0,0.0234
2755.0,0.0234
2754.0,0.0233
2753.0,0.0233
2752.0,0.0232
2751.0,0.0231
2750.0,0.0231
2749.0,0.023
2748.0,0.023
2747.0,0.023
2746.0,0.023
2745.0,0.023
2744.0,0.023
2743.0,0.023
2742.0,0.0231
2741.0,0.0231
2740.0,0.0231
2739.0,0.0232
2738.0,0.0232
2737.0,0.0233
2736.0,0.0234
2735.0,0.0235
2734.0,0.0236
2733.0,0.0237
2732.0,0.0238
2731.0,0.0239
2730.0,0.0241
2729.0,0.0243
2728.0,0.0245
2727.0,0.0247
2726.0,0.0249
2725.0,0.0251
2724.0,0.0253
2723.0,0.0254
2722.0,0.0254
2721.0,0.0252
2720.0,0.025
2719.0,0.0248
2718.0,0.0245
2717.0,0.0243
2716.0,0.024
2715.0,0.0238
2714.0,0.0236
2713.0,0.0235
2712.0,0.0233
2711.0,0.0231
2710.0,0.0229
2709.0,0.0227
2708.0,0.0225
2707.0,0.0223
2706.0,0.0222
2705.0,0.0221
2704.0,0.0219
2703.0,0.0218
2702.0,0.0217
2701.0,0.0216
2700.0,0.0216
2699.0,0.0216
2698.0,0.0215
2697.0,0.0214
2696.0,0.0214
2695.0,0.0213
2694.0,0.0213
2693.0,0.0213
2692.0,0.0212
2691.0,0.0211
2690.0,0.021
2689.0,0.021
2688.0,0.021
2687.0,0.0209
2686.0,0.0209
2685.0,0.0209
2684.0,0.0209
2683.0,0.0209
2682.0,0.0209
2681.0,0.0209
2680.0,0.0209
2679.0,0.0209
2678.0,0.0209
2677.0,0.0209
2676.0,0.0209
2675.0,0.0209
2674.0,0.0208
2673.0,0.0207
2672.0,0.0207
2671.0,0.0206
2670.0,0.0206
2669.0,0.0206
2668.0,0.0207
2667.0,0.0207
2666.0,0.0207
2665.0,0.0207
2664.0,0.0207
2663.0,0.0206
2662.0,0.0206
2661.0,0.0205
2660.0,0.0205
2659.0,0.0205
2658.0,0.0204
2657.0,0.0203
2656.0,0.0203
2655.0,0.0202
2654.0,0.0202
2653.0,0.0201
2652.0,0.02
2651.0,0.0199
2650.0,0.0199
2649.0,0.0198
2648.0,0.0198
2647.0,0.0198
2646.0,0.0198
2645.0,0.0198
2644.0,0.0197
2643.0,0.0196
2642.0,0.0196
2641.0,0.0195
2640.0,0.0195
2639.0,0.0195
2638.0,0.0194
2637.0,0.0194
2636.0,0.0194
2635.0,0.0193
2634.0,0.0193
2633.0,0.0192
2632.0,0.0192
2631.0,0.0193
2630.0,0.0193
2629.0,0.0194
2628.0,0.0194
2627.0,0.0194
2626.0,0.0194
2625.0,0.0194
2624.0,0.0194
2623.0,0.0194
2622.0,0.0194
2621.0,0.0193
2620.0,0.0193
2619.0,0.0193
2618.0,0.0193
2617.0,0.0193
2616.0,0.0194
2615.0,0.0194
2614.0,0.0194
2613.0,0.0194
2612.0,0.0194
2611.0,0.0193
2610.0,0.0192
2609.0,0.0192
2608.0,0.0192
2607.0,0.0192
2606.0,0.0192
2605.0,0.019
2604.0,0.0189
2603.0,0.0188
2602.0,0.0187
2601.0,0.0187
2600.0,0.0188
2599.0,0.0188
2598.0,0.0188
2597.0,0.0187
2596.0,0.0187
2595.0,0.0187
2594.0,0.0187
2593.0,0.0187
2592.0,0.0187
2591.0,0.0188
2590.0,0.0189
2589.0,0.019
2588.0,0.0191
2587.0,0.0192
2586.0,0.0193
2585.0,0.0193
2584.0,0.0193
2583.0,0.0193
2582.0,0.0194
2581.0,0.0194
2580.0,0.0194
2579.0,0.0194
2578.0,0.0194
2577.0,0.0193
2576.0,0.0192
2575.0,0.019
2574.0,0.0189
2573.0,0.0188
2572.0,0.0187
2571.0,0.0185
2570.0,0.0184
2569.0,0.0183
2568.0,0.0183
2567.0,0.0182
2566.0,0.0182
2565.0,0.0182
2564.0,0.0182
2563.0,0.0182
2562.0,0.0182
2561.0,0.0181
2560.0,0.0181
2559.0,0.018
2558.0,0.018
2557.0,0.018
2556.0,0.018
2555.0,0.018
2554.0,0.0179
2553.0,0.0179
2552.0,0.0178
2551.0,0.0178
2550.0,0.0177
2549.0,0.0176
2548.0,0.0176
2547.0,0.0175
2546.0,0.0175
2545.0,0.0175
2544.0,0.0175
2543.0,0.0174
2542.0,0.0174
2541.0,0.0174
2540.0,0.0173
2539.0,0.0173
2538.0,0.0173
2537.0,0.0173
2536.0,0.0173
2535.0,0.0172
2534.0,0.0171
2533.0,0.0171
2532.0,0.017
2531.0,0.017
2530.0,0.017
2529.0,0.0171
2528.0,0.0171
2527.0,0.0172
2526.0,0.0172
2525.0,0.0172
2524.0,0.0172
2523.0,0.0171
2522.0,0.017
2521.0,0.0169
2520.0,0.0168
2519.0,0.0168
2518.0,0.0168
2517.0,0.0168
2516.0,0.0168
2515.0,0.0168
2514.0,0.0168
2513.0,0.0168
2512.0,0.0168
2511.0,0.0167
2510.0,0.0167
2509.0,0.0166
2508.0,0.0166
2507.0,0.0165
2506.0,0.0165
2505.0,0.0165
2504.0,0.0165
2503.0,0.0165
2502.0,0.0165
2501.0,0.0165
2500.0,0.0166
2499.0,0.0166
2498.0,0.0166
2497.0,0.0166
2496.0,0.0166
2495.0,0.0166
2494.0,0.0166
2493.0,0.0165
2492.0,0.0165
2491.0,0.0164
2490.0,0.0164
2489.0,0.0165
2488.0,0.0165
2487.0,0.0165
2486.0,0.0165
2485.0,0.0165
2484.0,0.0164
2483.0,0.0164
2482.0,0.0163
2481.0,0.0163
2480.0,0.0163
2479.0,0.0163
2478.0,0.0163
2477.0,0.0163
2476.0,0.0163
2475.0,0.0164
2474.0,0.0163
2473.0,0.0163
2472.0,0.0162
2471.0,0.0162
2470.0,0.0161
2469.0,0.0161
2468.0,0.0161
2467.0,0.0161
2466.0,0.016
2465.0,0.016
2464.0,0.0161
2463.0,0.0161
2462.0,0.0161
2461.0,0.0161
2460.0,0.0161
2459.0,0.0161
2458.0,0.0161
2457.0,0.0161
2456.0,0.0161
2455.0,0.016
2454.0,0.0161
2453.0,0.0161
2452.0,0.0162
2451.0,0.0162
2450.0,0.0162
2449.0,0.0161
2448.0,0.0161
2447.0,0.016
2446.0,0.016
2445.0,0.016
2444.0,0.016
2443.0,0.016
2442.0,0.0161
2441.0,0.0161
2440.0,0.0161
2439.0,0.0162
2438.0,0.0161
2437.0,0.0161
2436.0,0.016
2435.0,0.016
2434.0,0.016
2433.0,0.016
2432.0,0.016
2431.0,0.016
2430.0,0.016
2429.0,0.0161
2428.0,0.0162
2427.0,0.0162
2426.0,0.0162
2425.0,0.0162
2424.0,0.0162
2423.0,0.0162
2422.0,0.0162
2421.0,0.0161
2420.0,0.0161
2419.0,0.016
2418.0,0.016
2417.0,0.016
2416.0,0.016
2415.0,0.016
2414.0,0.0159
2413.0,0.0159
2412.0,0.0158
2411.0,0.0158
2410.0,0.0159
2409.0,0.0159
2408.0,0.016
2407.0,0.016
2406.0,0.016
2405.0,0.0159
2404.0,0.0158
2403.0,0.0158
2402.0,0.0158
2401.0,0.0158
2400.0,0.0159
2399.0,0.0159
2398.0,0.016
2397.0,0.0159
2396.0,0.0159
2395.0,0.0158
2394.0,0.0158
2393.0,0.0157
2392.0,0.0157
2391.0,0.0156
2390.0,0.0154
2389.0,0.0151
2388.0,0.0148
2387.0,0.0142
2386.0,0.0135
2385.0,0.0126
2384.0,0.0115
2383.0,0.0102
2382.0,0.0089
2381.0,0.0076
2380.0,0.0065
2379.0,0.0057
2378.0,0.0051
2377.0,0.005
2376.0,0.0051
2375.0,0.0054
2374.0,0.0057
2373.0,0.0056
2372.0,0.0054
2371.0,0.0049
2370.0,0.0043
2369.0,0.004
2368.0,0.0041
2367.0,0.0043
2366.0,0.0041
2365.0,0.0036
2364.0,0.0037
2363.0,0.005
2362.0,0.0067
2361.0,0.007
2360.0,0.005
2359.0,0.002
2358.0,-0.0003
2357.0,-0.0008
2356.0,0.0003
2355.0,0.0022
2354.0,0.0039
2353.0,0.0044
2352.0,0.0035
2351.0,0.002
2350.0,0.0007
2349.0,0.0
2348.0,-0.0002
2347.0,-0.0002
2346.0,-0.0003
2345.0,-0.0004
2344.0,-0.0009
2343.0,-0.0019
2342.0,-0.0027
2341.0,-0.0026
2340.0,-0.002
2339.0,-0.0013
2338.0,-0.0008
2337.0,-0.0009
2336.0,-0.0016
2335.0,-0.0025
2334.0,-0.003
2333.0,-0.0031
2332.0,-0.0032
2331.0,-0.0036
2330.0,-0.0038
2329.0,-0.0036
2328.0,-0.0028
2327.0,-0.0015
2326.0,0.0002
2325.0,0.0018
2324.0,0.0031
2323.0,0.0039
2322.0,0.0043
2321.0,0.0046
2320.0,0.0048
2319.0,0.0051
2318.0,0.0054
2317.0,0.0057
2316.0,0.0058
2315.0,0.0055
2314.0,0.005
2313.0,0.0044
2312.0,0.004
2311.0,0.0039
2310.0,0.0039
2309.0,0.0042
2308.0,0.0046
2307.0,0.0052
2306.0,0.0059
2305.0,0.0065
2304.0,0.0069
2303.0,0.0071
2302.0,0.0074
2301.0,0.0077
2300.0,0.008
2299.0,0.0084
2298.0,0.0087
2297.0,0.0091
2296.0,0.0095
2295.0,0.01
2294.0,0.0105
2293.0,0.011
2292.0,0.0114
2291.0,0.0117
2290.0,0.012
2289.0,0.0123
2288.0,0.0126
2287.0,0.013
2286.0,0.0133
2285.0,0.0136
2284.0,0.0137
2283.0,0.0137
2282.0,0.0137
2281.0,0.0136
2280.0,0.0135
2279.0,0.0135
2278.0,0.0134
2277.0,0.0134
2276.0,0.0134
2275.0,0.0134
2274.0,0.0135
2273.0,0.0135
2272.0,0.0136
2271.0,0.0136
2270.0,0.0136
2269.0,0.0136
2268.0,0.0136
2267.0,0.0136
2266.0,0.0137
2265.0,0.0137
2264.0,0.0137
2263.0,0.0138
2262.0,0.0138
2261.0,0.0138
2260.0,0.0139
2259.0,0.014
2258.0,0.0142
2257.0,0.0142
2256.0,0.0142
2255.0,0.0142
2254.0,0.0143
2253.0,0.0144
2252.0,0.0144
2251.0,0.0144
2250.0,0.0144
2249.0,0.0144
2248.0,0.0144
2247.0,0.0144
2246.0,0.0145
2245.0,0.0146
2244.0,0.0146
2243.0,0.0146
2242.0,0.0146
2241.0,0.0146
2240.0,0.0146
2239.0,0.0146
2238.0,0.0146
2237.0,0.0146
2236.0,0.0146
2235.0,0.0147
2234.0,0.0147
2233.0,0.0148
2232.0,0.0148
2231.0,0.0147
2230.0,0.0147
2229.0,0.0147
2228.0,0.0147
2227.0,0.0147
2226.0,0.0147
2225.0,0.0146
2224.0,0.0146
2223.0,0.0146
2222.0,0.0146
2221.0,0.0146
2220.0,0.0146
2219.0,0.0146
2218.0,0.0146
2217.0,0.0146
2216.0,0.0146
2215.0,0.0147
2214.0,0.0147
2213.0,0.0147
2212.0,0.0147
2211.0,0.0147
2210.0,0.0147
2209.0,0.0147
2208.0,0.0147
2207.0,0.0146
2206.0,0.0146
2205.0,0.0147
2204.0,0.0147
2203.0,0.0147
2202.0,0.0147
2201.0,0.0147
2200.0,0.0147
2199.0,0.0147
2198.0,0.0147
2197.0,0.0148
2196.0,0.0148
2195.0,0.0148
2194.0,0.0147
2193.0,0.0147
2192.0,0.0147
2191.0,0.0148
2190.0,0.0148
2189.0,0.0149
2188.0,0.0148
2187.0,0.0148
2186.0,0.0148
2185.0,0.0147
2184.0,0.0147
2183.0,0.0147
2182.0,0.0147
2181.0,0.0147
2180.0,0.0147
2179.0,0.0147
2178.0,0.0147
2177.0,0.0147
2176.0,0.0147
2175.0,0.0148
2174.0,0.0148
2173.0,0.0148
2172.0,0.0148
2171.0,0.0148
2170.0,0.0148
2169.0,0.0148
2168.0,0.0147
2167.0,0.0147
2166.0,0.0147
2165.0,0.0147
2164.0,0.0147
2163.0,0.0147
2162.0,0.0147
2161.0,0.0148
2160.0,0.0148
2159.0,0.0147
2158.0,0.0147
2157.0,0.0146
2156.0,0.0146
2155.0,0.0146
2154.0,0.0146
2153.0,0.0147
2152.0,0.0146
2151.0,0.0146
2150.0,0.0145
2149.0,0.0145
2148.0,0.0144
2147.0,0.0144
2146.0,0.0145
2145.0,0.0145
2144.0,0.0145
2143.0,0.0145
2142.0,0.0145
2141.0,0.0145
2140.0,0.0144
2139.0,0.0145
2138.0,0.0145
2137.0,0.0145
2136.0,0.0146
2135.0,0.0146
2134.0,0.0146
2133.0,0.0146
2132.0,0.0145
2131.0,0.0145
2130.0,0.0145
2129.0,0.0145
2128.0,0.0145
2127.0,0.0145
2126.0,0.0144
2125.0,0.0144
2124.0,0.0145
2123.0,0.0145
2122.0,0.0145
2121.0,0.0144
2120.0,0.0144
2119.0,0.0144
2118.0,0.0145
2117.0,0.0145
2116.0,0.0145
2115.0,0.0144
2114.0,0.0144
2113.0,0.0143
2112.0,0.0143
2111.0,0.0143
2110.0,0.0143
2109.0,0.0144
2108.0,0.0144
2107.0,0.0143
2106.0,0.0143
2105.0,0.0143
2104.0,0.0144
2103.0,0.0144
2102.0,0.0144
2101.0,0.0144
2100.0,0.0144
2099.0,0.0143
2098.0,0.0143
2097.0,0.0143
2096.0,0.0143
2095.0,0.0143
2094.0,0.0143
2093.0,0.0143
2092.0,0.0143
2091.0,0.0143
2090.0,0.0142
2089.0,0.0142
2088.0,0.0142
2087.0,0.0142
2086.0,0.0142
2085.0,0.0142
2084.0,0.0143
2083.0,0.0143
2082.0,0.0143
2081.0,0.0143
2080.0,0.0143
2079.0,0.0142
2078.0,0.0142
2077.0,0.0141
2076.0,0.0141
2075.0,0.0142
2074.0,0.0142
2073.0,0.0142
2072.0,0.0142
2071.0,0.0142
2070.0,0.0142
2069.0,0.0142
2068.0,0.0142
2067.0,0.0143
2066.0,0.0143
2065.0,0.0143
2064.0,0.0143
2063.0,0.0143
2062.0,0.0143
2061.0,0.0143
2060.0,0.0143
2059.0,0.0143
2058.0,0.0142
2057.0,0.0142
2056.0,0.0142
2055.0,0.0142
2054.0,0.0142
2053.0,0.0142
2052.0,0.0142
2051.0,0.0142
2050.0,0.0142
2049.0,0.0142
2048.0,0.0142
2047.0,0.0141
2046.0,0.0141
2045.0,0.0141
2044.0,0.0141
2043.0,0.0142
2042.0,0.0142
2041.0,0.0142
2040.0,0.0142
2039.0,0.0142
2038.0,0.0142
2037.0,0.0142
2036.0,0.0142
2035.0,0.0142
2034.0,0.0142
2033.0,0.0142
2032.0,0.0143
2031.0,0.0143
2030.0,0.0142
2029.0,0.0142
2028.0,0.0142
2027.0,0.0142
2026.0,0.0142
2025.0,0.0142
2024.0,0.0142
2023.0,0.0142
2022.0,0.0142
2021.0,0.0142
2020.0,0.0142
2019.0,0.0141
2018.0,0.0141
2017.0,0.0141
2016.0,0.0141
2015.0,0.0142
2014.0,0.0142
2013.0,0.0141
2012.0,0.0141
2011.0,0.0141
2010.0,0.0141
2009.0,0.0142
2008.0,0.0142
2007.0,0.0142
2006.0,0.0142
2005.0,0.0142
2004.0,0.0142
2003.0,0.0143
2002.0,0.0143
2001.0,0.0143
2000.0,0.0143
1999.0,0.0142
1998.0,0.0142
1997.0,0.0142
1996.0,0.0142
1995.0,0.0142
1994.0,0.0143
1993.0,0.0143
1992.0,0.0143
1991.0,0.0143
1990.0,0.0142
1989.0,0.0142
1988.0,0.0141
1987.0,0.0141
1986.0,0.0141
1985.0,0.0141
1984.0,0.0141
1983.0,0.014
1982.0,0.0141
1981.0,0.0141
1980.0,0.0142
1979.0,0.0143
1978.0,0.0143
1977.0,0.0142
1976.0,0.0142
1975.0,0.0142
1974.0,0.0142
1973.0,0.0142
1972.0,0.0142
1971.0,0.0142
1970.0,0.0142
1969.0,0.0142
1968.0,0.0141
1967.0,0.0141
1966.0,0.0141
1965.0,0.0142
1964.0,0.0142
1963.0,0.0142
1962.0,0.0142
1961.0,0.0143
1960.0,0.0143
1959.0,0.0143
1958.0,0.0142
1957.0,0.0142
1956.0,0.0142
1955.0,0.0141
1954.0,0.0141
1953.0,0.014
1952.0,0.014
1951.0,0.014
1950.0,0.0141
1949.0,0.0141
1948.0,0.0142
1947.0,0.0142
1946.0,0.0142
1945.0,0.0142
1944.0,0.0141
1943.0,0.0142
1942.0,0.0142
1941.0,0.0142
1940.0,0.0141
1939.0,0.0141
1938.0,0.0141
1937.0,0.0142
1936.0,0.0142
1935.0,0.0142
1934.0,0.0142
1933.0,0.0142
1932.0,0.0142
1931.0,0.0142
1930.0,0.0141
1929.0,0.0141
1928.0,0.0141
1927.0,0.0141
1926.0,0.0141
1925.0,0.0141
1924.0,0.0142
1923.0,0.0142
1922.0,0.0142
1921.0,0.0143
1920.0,0.0142
1919.0,0.0142
1918.0,0.0142
1917.0,0.0143
1916.0,0.0143
1915.0,0.0142
1914.0,0.0142
1913.0,0.0142
1912.0,0.0142
1911.0,0.0142
1910.0,0.0141
1909.0,0.0141
1908.0,0.0141
1907.0,0.0141
1906.0,0.0142
1905.0,0.0142
1904.0,0.0142
1903.0,0.0142
1902.0,0.0142
1901.0,0.0142
1900.0,0.0142
1899.0,0.0143
1898.0,0.0143
1897.0,0.0143
1896.0,0.0143
1895.0,0.0143
1894.0,0.0144
1893.0,0.0144
1892.0,0.0143
1891.0,0.0143
1890.0,0.0142
1889.0,0.0142
1888.0,0.0142
1887.0,0.0142
1886.0,0.0142
1885.0,0.0142
1884.0,0.0142
1883.0,0.0142
1882.0,0.0142
1881.0,0.0142
1880.0,0.0141
1879.0,0.0141
1878.0,0.0141
1877.0,0.0142
1876.0,0.0142
1875.0,0.0142
1874.0,0.0142
1873.0,0.0141
1872.0,0.0141
1871.0,0.0141
1870.0,0.014
1869.0,0.014
1868.0,0.0141
1867.0,0.0142
1866.0,0.0143
1865.0,0.0143
1864.0,0.0143
1863.0,0.0142
1862.0,0.0142
1861.0,0.0142
1860.0,0.0142
1859.0,0.0142
1858.0,0.0142
1857.0,0.0142
1856.0,0.0142
1855.0,0.0142
1854.0,0.0142
1853.0,0.0142
1852.0,0.0142
1851.0,0.0142
1850.0,0.0143
1849.0,0.0143
1848.0,0.0143
1847.0,0.0144
1846.0,0.0144
1845.0,0.0143
1844.0,0.0143
1843.0,0.0143
1842.0,0.0144
1841.0,0.0144
1840.0,0.0144
1839.0,0.0144
1838.0,0.0143
1837.0,0.0143
1836.0,0.0143
1835.0,0.0143
1834.0,0.0143
1833.0,0.0143
1832.0,0.0142
1831.0,0.0141
1830.0,0.0141
1829.0,0.0141
1828.0,0.0142
1827.0,0.0143
1826.0,0.0143
1825.0,0.0143
1824.0,0.0142
1823.0,0.0142
1822.0,0.0142
1821.0,0.0142
1820.0,0.0142
1819.0,0.0142
1818.0,0.0141
1817.0,0.0142
1816.0,0.0142
1815.0,0.0142
1814.0,0.0141
1813.0,0.0141
1812.0,0.0141
1811.0,0.0141
1810.0,0.0142
1809.0,0.0142
1808.0,0.0143
1807.0,0.0142
1806.0,0.0142
1805.0,0.0141
1804.0,0.0141
1803.0,0.0141
1802.0,0.0141
1801.0,0.0141
1800.0,0.0141
1799.0,0.0141
1798.0,0.014
1797.0,0.014
1796.0,0.014
1795.0,0.0141
1794.0,0.0141
1793.0,0.0141
1792.0,0.0141
1791.0,0.0142
1790.0,0.0142
1789.0,0.0142
1788.0,0.0142
1787.0,0.0142
1786.0,0.0142
1785.0,0.0142
1784.0,0.0142
1783.0,0.0142
1782.0,0.0141
1781.0,0.0141
1780.0,0.0142
1779.0,0.0142
1778.0,0.0142
1777.0,0.0141
1776.0,0.0141
1775.0,0.0141
1774.0,0.0141
1773.0,0.0141
1772.0,0.0142
1771.0,0.0143
1770.0,0.0143
1769.0,0.0144
1768.0,0.0144
1767.0,0.0144
1766.0,0.0144
1765.0,0.0144
1764.0,0.0144
1763.0,0.0144
1762.0,0.0144
1761.0,0.0144
1760.0,0.0145
1759.0,0.0146
1758.0,0.0147
1757.0,0.0148
1756.0,0.0148
1755.0,0.0149
1754.0,0.015
1753.0,0.015
1752.0,0.015
1751.0,0.0151
1750.0,0.0152
1749.0,0.0153
1748.0,0.0154
1747.0,0.0155
1746.0,0.0155
1745.0,0.0155
1744.0,0.0156
1743.0,0.0156
1742.0,0.0156
1741.0,0.0156
1740.0,0.0155
1739.0,0.0155
1738.0,0.0154
1737.0,0.0155
1736.0,0.0154
1735.0,0.0154
1734.0,0.0153
1733.0,0.0151
1732.0,0.0151
1731.0,0.0152
1730.0,0.0152
1729.0,0.0152
1728.0,0.0152
1727.0,0.0152
1726.0,0.0152
1725.0,0.0151
1724.0,0.0151
1723.0,0.0151
1722.0,0.0151
1721.0,0.0151
1720.0,0.0151
1719.0,0.015
1718.0,0.015
1717.0,0.0151
1716.0,0.0152
1715.0,0.0153
1714.0,0.0153
1713.0,0.0153
1712.0,0.0154
1711.0,0.0154
1710.0,0.0154
1709.0,0.0153
1708.0,0.0153
1707.0,0.0152
1706.0,0.0152
1705.0,0.0153
1704.0,0.0155
1703.0,0.0158
1702.0,0.0159
1701.0,0.0159
1700.0,0.0159
1699.0,0.0158
1698.0,0.0158
1697.0,0.0159
1696.0,0.016
1695.0,0.016
1694.0,0.016
1693.0,0.016
1692.0,0.016
1691.0,0.0159
1690.0,0.0159
1689.0,0.016
1688.0,0.0163
1687.0,0.0164
1686.0,0.0164
1685.0,0.0164
1684.0,0.0166
1683.0,0.0166
1682.0,0.0167
1681.0,0.0168
1680.0,0.0168
1679.0,0.0169
1678.0,0.0169
1677.0,0.017
1676.0,0.0169
1675.0,0.0169
1674.0,0.0169
1673.0,0.0169
1672.0,0.017
1671.0,0.017
1670.0,0.0171
1669.0,0.0172
1668.0,0.0172
1667.0,0.0173
1666.0,0.0173
1665.0,0.0172
1664.0,0.0172
1663.0,0.0173
1662.0,0.0175
1661.0,0.0175
1660.0,0.0175
1659.0,0.0174
1658.0,0.0173
1657.0,0.0173
1656.0,0.0175
1655.0,0.0176
1654.0,0.0179
1653.0,0.018
1652.0,0.0176
1651.0,0.0175
1650.0,0.0175
1649.0,0.0175
1648.0,0.0175
1647.0,0.0177
1646.0,0.0177
1645.0,0.0176
1644.0,0.0176
1643.0,0.0175
1642.0,0.0175
1641.0,0.0174
1640.0,0.0173
1639.0,0.0172
1638.0,0.0172
1637.0,0.0171
1636.0,0.0172
1635.0,0.0173
1634.0,0.0172
1633.0,0.0172
1632.0,0.0172
1631.0,0.0172
1630.0,0.0171
1629.0,0.0171
1628.0,0.017
1627.0,0.017
1626.0,0.017
1625.0,0.0169
1624.0,0.0168
1623.0,0.0168
1622.0,0.0167
1621.0,0.0167
1620.0,0.0167
1619.0,0.0167
1618.0,0.0167
1617.0,0.0167
1616.0,0.0167
1615.0,0.0166
1614.0,0.0166
1613.0,0.0165
1612.0,0.0164
1611.0,0.0163
1610.0,0.0163
1609.0,0.0163
1608.0,0.0163
1607.0,0.0163
1606.0,0.0163
1605.0,0.0162
1604.0,0.0162
1603.0,0.0162
1602.0,0.0161
1601.0,0.016
1600.0,0.016
1599.0,0.0159
1598.0,0.0159
1597.0,0.0159
1596.0,0.0159
1595.0,0.0158
1594.0,0.0158
1593.0,0.0158
1592.0,0.0157
1591.0,0.0157
1590.0,0.0157
1589.0,0.0157
1588.0,0.0157
1587.0,0.0157
1586.0,0.0157
1585.0,0.0157
1584.0,0.0157
1583.0,0.0157
1582.0,0.0156
1581.0,0.0156
1580.0,0.0156
1579.0,0.0155
1578.0,0.0154
1577.0,0.0153
1576.0,0.0153
1575.0,0.0153
1574.0,0.0153
1573.0,0.0155
1572.0,0.0154
1571.0,0.0153
1570.0,0.0153
1569.0,0.0153
1568.0,0.0153
1567.0,0.0152
1566.0,0.0152
1565.0,0.0151
1564.0,0.0152
1563.0,0.0153
1562.0,0.0154
1561.0,0.0153
1560.0,0.0153
1559.0,0.0154
1558.0,0.0153
1557.0,0.0153
1556.0,0.0154
1555.0,0.0155
1554.0,0.0154
1553.0,0.0154
1552.0,0.0153
1551.0,0.0153
1550.0,0.0152
1549.0,0.0152
1548.0,0.0152
1547.0,0.0152
1546.0,0.0151
1545.0,0.0151
1544.0,0.0151
1543.0,0.0151
1542.0,0.0151
1541.0,0.0152
1540.0,0.0151
1539.0,0.0148
1538.0,0.0146
1537.0,0.0147
1536.0,0.0148
1535.0,0.0147
1534.0,0.0145
1533.0,0.0144
1532.0,0.0143
1531.0,0.0142
1530.0,0.0142
1529.0,0.0141
1528.0,0.0142
1527.0,0.0141
1526.0,0.014
1525.0,0.0139
1524.0,0.0139
1523.0,0.0138
1522.0,0.0139
1521.0,0.014
1520.0,0.0141
1519.0,0.014
1518.0,0.0138
1517.0,0.0138
1516.0,0.0138
1515.0,0.0138
1514.0,0.0138
1513.0,0.0137
1512.0,0.0137
1511.0,0.0137
1510.0,0.0136
1509.0,0.0136
1508.0,0.0136
1507.0,0.0136
1506.0,0.0134
1505.0,0.0133
1504.0,0.0134
1503.0,0.0134
1502.0,0.0134
1501.0,0.0134
1500.0,0.0134
1499.0,0.0134
1498.0,0.0134
1497.0,0.0135
1496.0,0.0136
1495.0,0.0135
1494.0,0.0135
1493.0,0.0135
1492.0,0.0135
1491.0,0.0134
1490.0,0.0135
1489.0,0.0137
1488.0,0.014
1487.0,0.0141
1486.0,0.0143
1485.0,0.0145
1484.0,0.0148
1483.0,0.0151
1482.0,0.0154
1481.0,0.0159
1480.0,0.0165
1479.0,0.017
1478.0,0.0177
1477.0,0.0189
1476.0,0.0203
1475.0,0.0219
1474.0,0.0244
1473.0,0.0286
1472.0,0.0338
1471.0,0.0384
1470.0,0.0427
1469.0,0.0473
1468.0,0.0523
1467.0,0.058
1466.0,0.0651
1465.0,0.0734
1464.0,0.0805
1463.0,0.0851
1462.0,0.088
1461.0,0.0901
1460.0,0.0916
1459.0,0.0927
1458.0,0.0943
1457.0,0.0965
1456.0,0.0975
1455.0,0.0974
1454.0,0.0971
1453.0,0.0964
1452.0,0.095
1451.0,0.0929
1450.0,0.0898
1449.0,0.0853
1448.0,0.0793
1447.0,0.073
1446.0,0.0674
1445.0,0.0626
1444.0,0.0583
1443.0,0.0546
1442.0,0.0517
1441.0,0.0497
1440.0,0.0484
1439.0,0.0478
1438.0,0.0482
1437.0,0.049
1436.0,0.049
1435.0,0.0476
1434.0,0.0451
1433.0,0.0418
1432.0,0.0383
1431.0,0.035
1430.0,0.0324
1429.0,0.0305
1428.0,0.0291
1427.0,0.0282
1426.0,0.0274
1425.0,0.0266
1424.0,0.0259
1423.0,0.0254
1422.0,0.0251
1421.0,0.0246
1420.0,0.0241
1419.0,0.0237
1418.0,0.0235
1417.0,0.0232
1416.0,0.0229
1415.0,0.0226
1414.0,0.0223
1413.0,0.0221
1412.0,0.0218
1411.0,0.0215
1410.0,0.0214
1409.0,0.0211
1408.0,0.0208
1407.0,0.0206
1406.0,0.0204
1405.0,0.0202
1404.0,0.02
1403.0,0.0199
1402.0,0.0198
1401.0,0.0195
1400.0,0.0193
1399.0,0.0192
1398.0,0.0192
1397.0,0.0191
1396.0,0.0189
1395.0,0.0188
1394.0,0.0188
1393.0,0.0188
1392.0,0.0187
1391.0,0.0189
1390.0,0.0192
1389.0,0.0196
1388.0,0.0206
1387.0,0.0224
1386.0,0.0253
1385.0,0.0293
1384.0,0.0351
1383.0,0.0437
1382.0,0.0553
1381.0,0.0703
1380.0,0.089
1379.0,0.1103
1378.0,0.1308
1377.0,0.1463
1376.0,0.1532
1375.0,0.1488
1374.0,0.1347
1373.0,0.1171
1372.0,0.1009
1371.0,0.087
1370.0,0.075
1369.0,0.0652
1368.0,0.058
1367.0,0.0533
1366.0,0.0505
1365.0,0.049
1364.0,0.0488
1363.0,0.0497
1362.0,0.0514
1361.0,0.0533
1360.0,0.0549
1359.0,0.0554
1358.0,0.0548
1357.0,0.053
1356.0,0.0503
1355.0,0.0472
1354.0,0.0441
1353.0,0.0414
1352.0,0.0391
1351.0,0.0372
1350.0,0.0356
1349.0,0.0342
1348.0,0.0331
1347.0,0.0321
1346.0,0.0312
1345.0,0.0304
1344.0,0.0298
1343.0,0.0292
1342.0,0.0286
1341.0,0.0282
1340.0,0.0279
1339.0,0.0277
1338.0,0.0275
1337.0,0.0274
1336.0,0.0274
1335.0,0.0274
1334.0,0.0276
1333.0,0.0278
1332.0,0.0282
1331.0,0.0285
1330.0,0.0286
1329.0,0.0285
1328.0,0.0282
1327.0,0.0277
1326.0,0.0273
1325.0,0.0268
1324.0,0.0263
1323.0,0.0259
1322.0,0.0255
1321.0,0.0252
1320.0,0.0249
1319.0,0.0247
1318.0,0.0245
1317.0,0.0242
1316.0,0.024
1315.0,0.0238
1314.0,0.0237
1313.0,0.0236
1312.0,0.0236
1311.0,0.0236
1310.0,0.0237
1309.0,0.0239
1308.0,0.0244
1307.0,0.0249
1306.0,0.0255
1305.0,0.026
1304.0,0.0262
1303.0,0.0262
1302.0,0.0261
1301.0,0.026
1300.0,0.026
1299.0,0.0261
1298.0,0.0263
1297.0,0.0265
1296.0,0.0266
1295.0,0.0265
1294.0,0.0262
1293.0,0.0258
1292.0,0.0254
1291.0,0.025
1290.0,0.0247
1289.0,0.0244
1288.0,0.0241
1287.0,0.0239
1286.0,0.0236
1285.0,0.0235
1284.0,0.0233
1283.0,0.0231
1282.0,0.023
1281.0,0.0229
1280.0,0.0228
1279.0,0.0227
1278.0,0.0226
1277.0,0.0226
1276.0,0.0225
1275.0,0.0224
1274.0,0.0224
1273.0,0.0223
1272.0,0.0223
1271.0,0.0223
1270.0,0.0223
1269.0,0.0224
1268.0,0.0224
1267.0,0.0224
1266.0,0.0225
1265.0,0.0225
1264.0,0.0226
1263.0,0.0227
1262.0,0.0229
1261.0,0.0232
1260.0,0.0236
1259.0,0.0241
1258.0,0.0245
1257.0,0.0249
1256.0,0.025
1255.0,0.025
1254.0,0.0247
1253.0,0.0244
1252.0,0.024
1251.0,0.0236
1250.0,0.0233
1249.0,0.0231
1248.0,0.0229
1247.0,0.0227
1246.0,0.0226
1245.0,0.0225
1244.0,0.0224
1243.0,0.0223
1242.0,0.0222
1241.0,0.0222
1240.0,0.0221
1239.0,0.0221
1238.0,0.022
1237.0,0.022
1236.0,0.0219
1235.0,0.0219
1234.0,0.0219
1233.0,0.0219
1232.0,0.0219
1231.0,0.0219
1230.0,0.022
1229.0,0.0221
1228.0,0.0222
1227.0,0.0223
1226.0,0.0225
1225.0,0.0227
1224.0,0.023
1223.0,0.0234
1222.0,0.0237
1221.0,0.024
1220.0,0.0242
1219.0,0.0243
1218.0,0.0242
1217.0,0.0241
1216.0,0.024
1215.0,0.0238
1214.0,0.0237
1213.0,0.0236
1212.0,0.0235
1211.0,0.0233
1210.0,0.0232
1209.0,0.0232
1208.0,0.0231
1207.0,0.0231
1206.0,0.0232
1205.0,0.0232
1204.0,0.0232
1203.0,0.0232
1202.0,0.0233
1201.0,0.0233
1200.0,0.0233
1199.0,0.0234
1198.0,0.0234
1197.0,0.0235
1196.0,0.0236
1195.0,0.0236
1194.0,0.0236
1193.0,0.0237
1192.0,0.0238
1191.0,0.0239
1190.0,0.0239
1189.0,0.024
1188.0,0.024
1187.0,0.024
1186.0,0.0241
1185.0,0.0242
1184.0,0.0243
1183.0,0.0244
1182.0,0.0245
1181.0,0.0247
1180.0,0.025
1179.0,0.0253
1178.0,0.0257
1177.0,0.0263
1176.0,0.027
1175.0,0.028
1174.0,0.0292
1173.0,0.0308
1172.0,0.0327
1171.0,0.0347
1170.0,0.0366
1169.0,0.0382
1168.0,0.0392
1167.0,0.0395
1166.0,0.0394
1165.0,0.0389
1164.0,0.0383
1163.0,0.0378
1162.0,0.0372
1161.0,0.0368
1160.0,0.0365
1159.0,0.0363
1158.0,0.0361
1157.0,0.036
1156.0,0.036
1155.0,0.0361
1154.0,0.0362
1153.0,0.0363
1152.0,0.0361
1151.0,0.0357
1150.0,0.0352
1149.0,0.0345
1148.0,0.0338
1147.0,0.033
1146.0,0.0323
1145.0,0.0317
1144.0,0.0311
1143.0,0.0306
1142.0,0.0301
1141.0,0.0296
1140.0,0.0292
1139.0,0.0288
1138.0,0.0284
1137.0,0.0282
1136.0,0.028
1135.0,0.0278
1134.0,0.0277
1133.0,0.0275
1132.0,0.0273
1131.0,0.0272
1130.0,0.0271
1129.0,0.0271
1128.0,0.0271
1127.0,0.0271
1126.0,0.027
1125.0,0.027
1124.0,0.0271
1123.0,0.0271
1122.0,0.0271
1121.0,0.0271
1120.0,0.0271
1119.0,0.0271
1118.0,0.0271
1117.0,0.0272
1116.0,0.0273
1115.0,0.0274
1114.0,0.0274
1113.0,0.0275
1112.0,0.0277
1111.0,0.0278
1110.0,0.0281
1109.0,0.0284
1108.0,0.0288
1107.0,0.0294
1106.0,0.03
1105.0,0.0306
1104.0,0.0311
1103.0,0.0314
1102.0,0.0315
1101.0,0.0314
1100.0,0.031
1099.0,0.0306
1098.0,0.0302
1097.0,0.0298
1096.0,0.0294
1095.0,0.029
1094.0,0.0286
1093.0,0.0283
1092.0,0.0281
1091.0,0.0279
1090.0,0.0277
1089.0,0.0275
1088.0,0.0273
1087.0,0.0272
1086.0,0.027
1085.0,0.0269
1084.0,0.0268
1083.0,0.0267
1082.0,0.0266
1081.0,0.0265
1080.0,0.0263
1079.0,0.0261
1078.0,0.0259
1077.0,0.0258
1076.0,0.0257
1075.0,0.0256
1074.0,0.0255
1073.0,0.0253
1072.0,0.0252
1071.0,0.0252
1070.0,0.0252
1069.0,0.0251
1068.0,0.0251
1067.0,0.025
1066.0,0.0249
1065.0,0.0248
1064.0,0.0248
1063.0,0.0248
1062.0,0.0248
1061.0,0.0248
1060.0,0.0247
1059.0,0.0246
1058.0,0.0246
1057.0,0.0246
1056.0,0.0246
1055.0,0.0246
1054.0,0.0247
1053.0,0.0248
1052.0,0.0249
1051.0,0.0249
1050.0,0.0249
1049.0,0.0249
1048.0,0.0249
1047.0,0.025
1046.0,0.025
1045.0,0.025
1044.0,0.025
1043.0,0.0248
1042.0,0.0246
1041.0,0.0244
1040.0,0.0242
1039.0,0.024
1038.0,0.0239
1037.0,0.0238
1036.0,0.0238
1035.0,0.0237
1034.0,0.0236
1033.0,0.0235
1032.0,0.0233
1031.0,0.0232
1030.0,0.0231
1029.0,0.023
1028.0,0.0229
1027.0,0.0228
1026.0,0.0227
1025.0,0.0226
1024.0,0.0226
1023.0,0.0225
1022.0,0.0225
1021.0,0.0225
1020.0,0.0225
1019.0,0.0224
1018.0,0.0224
1017.0,0.0225
1016.0,0.0226
1015.0,0.0227
1014.0,0.0229
1013.0,0.0229
1012.0,0.023
1011.0,0.0231
1010.0,0.0232
1009.0,0.0233
1008.0,0.0236
1007.0,0.0241
1006.0,0.0247
1005.0,0.0255
1004.0,0.0265
1003.0,0.0279
1002.0,0.0297
1001.0,0.032
1000.0,0.0346
999.0,0.0368
998.0,0.0379
997.0,0.0377
996.0,0.0363
995.0,0.0341
994.0,0.0318
993.0,0.0297
992.0,0.028
991.0,0.0266
990.0,0.0256
989.0,0.0248
988.0,0.0243
987.0,0.024
986.0,0.0239
985.0,0.0239
984.0,0.024
983.0,0.0244
982.0,0.0251
981.0,0.0263
980.0,0.0279
979.0,0.0302
978.0,0.0331
977.0,0.0364
976.0,0.0399
975.0,0.043
974.0,0.0451
973.0,0.0458
972.0,0.0447
971.0,0.0423
970.0,0.0392
969.0,0.0361
968.0,0.0334
967.0,0.0313
966.0,0.0297
965.0,0.0285
964.0,0.0276
963.0,0.0269
962.0,0.0263
961.0,0.0258
960.0,0.0255
959.0,0.0251
958.0,0.0248
957.0,0.0244
956.0,0.0241
955.0,0.0238
954.0,0.0236
953.0,0.0234
952.0,0.0232
951.0,0.023
950.0,0.0228
949.0,0.0228
948.0,0.0228
947.0,0.0229
946.0,0.0231
945.0,0.0233
944.0,0.0236
943.0,0.024
942.0,0.0243
941.0,0.0246
940.0,0.0247
939.0,0.0245
938.0,0.0242
937.0,0.0237
936.0,0.0232
935.0,0.0228
934.0,0.0225
933.0,0.0222
932.0,0.022
931.0,0.0218
930.0,0.0217
929.0,0.0215
928.0,0.0214
927.0,0.0214
926.0,0.0214
925.0,0.0213
924.0,0.0213
923.0,0.0212
922.0,0.0211
921.0,0.0211
920.0,0.021
919.0,0.021
918.0,0.021
917.0,0.021
916.0,0.0211
915.0,0.0212
914.0,0.0212
913.0,0.0213
912.0,0.0214
911.0,0.0214
910.0,0.0214
909.0,0.0215
908.0,0.0217
907.0,0.0221
906.0,0.0227
905.0,0.0236
904.0,0.025
903.0,0.0267
902.0,0.0287
901.0,0.0306
900.0,0.032
899.0,0.0326
898.0,0.0324
897.0,0.0313
896.0,0.0298
895.0,0.0282
894.0,0.0269
893.0,0.0258
892.0,0.025
891.0,0.0244
890.0,0.0239
889.0,0.0235
888.0,0.0233
887.0,0.0232
886.0,0.0232
885.0,0.023
884.0,0.0229
883.0,0.0227
882.0,0.0227
881.0,0.0226
880.0,0.0226
879.0,0.0227
878.0,0.0229
877.0,0.0229
876.0,0.0229
875.0,0.0228
874.0,0.0227
873.0,0.0227
872.0,0.0227
871.0,0.0227
870.0,0.0227
869.0,0.0227
868.0,0.0228
867.0,0.0228
866.0,0.0228
865.0,0.0228
864.0,0.0227
863.0,0.0227
862.0,0.0227
861.0,0.0229
860.0,0.0231
859.0,0.0233
858.0,0.0234
857.0,0.0236
856.0,0.0237
855.0,0.0239
854.0,0.024
853.0,0.024
852.0,0.024
851.0,0.0242
850.0,0.0245
849.0,0.0248
848.0,0.0252
847.0,0.0258
846.0,0.0269
845.0,0.0288
844.0,0.0316
843.0,0.0348
842.0,0.0373
841.0,0.0379
840.0,0.0365
839.0,0.0338
838.0,0.031
837.0,0.029
836.0,0.0277
835.0,0.0269
834.0,0.0263
833.0,0.0258
832.0,0.0255
831.0,0.0252
830.0,0.0249
829.0,0.0247
828.0,0.0245
827.0,0.0244
826.0,0.0242
825.0,0.0241
824.0,0.024
823.0,0.0239
822.0,0.024
821.0,0.024
820.0,0.0241
819.0,0.0243
818.0,0.0245
817.0,0.0249
816.0,0.0256
815.0,0.0266
814.0,0.028
813.0,0.0297
812.0,0.0315
811.0,0.0333
810.0,0.0347
809.0,0.0356
808.0,0.0357
807.0,0.0351
806.0,0.0339
805.0,0.0324
804.0,0.0309
803.0,0.0296
802.0,0.0285
801.0,0.0277
800.0,0.0272
799.0,0.0267
798.0,0.0263
797.0,0.026
796.0,0.0256
795.0,0.0252
794.0,0.0249
793.0,0.0246
792.0,0.0245
791.0,0.0244
790.0,0.0242
789.0,0.0241
788.0,0.0239
787.0,0.0237
786.0,0.0235
785.0,0.0233
784.0,0.023
783.0,0.0228
782.0,0.0226
781.0,0.0224
780.0,0.0223
779.0,0.0221
778.0,0.0221
777.0,0.0221
776.0,0.0221
775.0,0.0221
774.0,0.0222
773.0,0.0223
772.0,0.0224
771.0,0.0224
770.0,0.0224
769.0,0.0224
768.0,0.0224
767.0,0.0223
766.0,0.0223
765.0,0.0223
764.0,0.0222
763.0,0.0221
762.0,0.022
761.0,0.0218
760.0,0.0217
759.0,0.0217
758.0,0.0218
757.0,0.0219
756.0,0.0219
755.0,0.022
754.0,0.022
753.0,0.022
752.0,0.022
751.0,0.0219
750.0,0.0218
749.0,0.0217
748.0,0.0216
747.0,0.0215
746.0,0.0214
745.0,0.0214
744.0,0.0214
743.0,0.0214
742.0,0.0214
741.0,0.0214
740.0,0.0214
739.0,0.0214
738.0,0.0215
737.0,0.0214
736.0,0.0213
735.0,0.0212
734.0,0.0212
733.0,0.0212
732.0,0.0212
731.0,0.0211
730.0,0.0211
729.0,0.0211
728.0,0.0211
727.0,0.0211
726.0,0.021
725.0,0.0209
724.0,0.0209
723.0,0.0207
722.0,0.0202
721.0,0.0197
720.0,0.0197
719.0,0.0202
718.0,0.0208
717.0,0.0211
716.0,0.021
715.0,0.0209
714.0,0.0209
713.0,0.0211
712.0,0.0212
711.0,0.0211
710.0,0.021
709.0,0.021
708.0,0.0209
707.0,0.0206
706.0,0.0201
705.0,0.0197
704.0,0.0195
703.0,0.0196
702.0,0.02
701.0,0.0204
700.0,0.0205
699.0,0.0201
698.0,0.0194
697.0,0.0189
696.0,0.0187
695.0,0.0189
694.0,0.0192
693.0,0.0197
692.0,0.0202
691.0,0.0205
690.0,0.0205
689.0,0.0198
688.0,0.0185
687.0,0.017
686.0,0.0161
685.0,0.0161
684.0,0.0166
683.0,0.017
682.0,0.0171
681.0,0.0172
680.0,0.0177
679.0,0.0179
678.0,0.0197
677.0,0.0196
676.0,0.0185
675.0,0.0174
674.0,0.0165
673.0,0.0163
672.0,0.0165
671.0,0.0167
670.0,0.0169
669.0,0.0176
668.0,0.0193
667.0,0.0206
666.0,0.0212
665.0,0.0213
664.0,0.0209
663.0,0.02
662.0,0.0191
661.0,0.0185
660.0,0.0184
659.0,0.0185
658.0,0.0188
657.0,0.019
656.0,0.0194
655.0,0.0179
654.0,0.0177
653.0,0.018
652.0,0.0181
651.0,0.018
650.0,0.0175
649.0,0.0171
648.0,0.0171
647.0,0.0177
646.0,0.0182
645.0,0.0186
644.0,0.0188
643.0,0.0193
642.0,0.02
641.0,0.0206
640.0,0.021
639.0,0.0212
638.0,0.0217
637.0,0.0227
636.0,0.0242
635.0,0.0255
634.0,0.0262
633.0,0.0263
632.0,0.0258
631.0,0.0249
630.0,0.0238
629.0,0.0227
628.0,0.022
627.0,0.0219
626.0,0.0224
625.0,0.0231
624.0,0.0236
623.0,0.0235
622.0,0.0228
621.0,0.0218
620.0,0.0209
619.0,0.0204
618.0,0.0208
617.0,0.022
616.0,0.0234
615.0,0.0244
614.0,0.0249
613.0,0.0253
612.0,0.0256
611.0,0.0257
610.0,0.0254
609.0,0.025
608.0,0.0247
607.0,0.0247
606.0,0.0248
605.0,0.0248
604.0,0.0244
603.0,0.0235
602.0,0.0227
601.0,0.0227
600.0,0.0238
