cm-1,A
4000.0,0.0067
3999.0,0.0067
3998.0,0.0067
3997.0,0.0067
3996.0,0.0067
3995.0,0.0067
3994.0,0.0067
3993.0,0.0066
3992.0,0.0066
3991.0,0.0065
3990.0,0.0065
3989.0,0.0065
3988.0,0.0065
3987.0,0.0066
3986.0,0.0067
3985.0,0.0067
3984.0,0.0067
3983.0,0.0066
3982.0,0.0065
3981.0,0.0065
3980.0,0.0065
3979.0,0.0064
3978.0,0.0064
3977.0,0.0064
3976.0,0.0064
3975.0,0.0064
3974.0,0.0064
3973.0,0.0065
3972.0,0.0065
3971.0,0.0065
3970.0,0.0066
3969.0,0.0066
3968.0,0.0067
3967.0,0.0067
3966.0,0.0067
3965.0,0.0066
3964.0,0.0066
3963.0,0.0065
3962.0,0.0065
3961.0,0.0065
3960.0,0.0065
3959.0,0.0066
3958.0,0.0066
3957.0,0.0067
3956.0,0.0067
3955.0,0.0067
3954.0,0.0067
3953.0,0.0067
3952.0,0.0067
3951.0,0.0066
3950.0,0.0065
3949.0,0.0065
3948.0,0.0064
3947.0,0.0064
3946.0,0.0065
3945.0,0.0066
3944.0,0.0066
3943.0,0.0067
3942.0,0.0067
3941.0,0.0068
3940.0,0.0069
3939.0,0.007
3938.0,0.007
3937.0,0.007
3936.0,0.007
3935.0,0.0069
3934.0,0.0068
3933.0,0.0067
3932.0,0.0065
3931.0,0.0065
3930.0,0.0065
3929.0,0.0066
3928.0,0.0068
3927.0,0.0069
3926.0,0.0069
3925.0,0.0069
3924.0,0.0069
3923.0,0.0068
3922.0,0.0068
3921.0,0.0067
3920.0,0.0067
3919.0,0.0067
3918.0,0.0067
3917.0,0.0068
3916.0,0.0068
3915.0,0.0068
3914.0,0.0069
3913.0,0.0069
3912.0,0.007
3911.0,0.007
3910.0,0.007
3909.0,0.007
3908.0,0.0069
3907.0,0.0068
3906.0,0.0068
3905.0,0.0069
3904.0,0.0069
3903.0,0.0068
3902.0,0.0068
3901.0,0.0068
3900.0,0.0067
3899.0,0.0066
3898.0,0.0067
3897.0,0.0068
3896.0,0.0069
3895.0,0.007
3894.0,0.0071
3893.0,0.0072
3892.0,0.0071
3891.0,0.007
3890.0,0.0069
3889.0,0.0068
3888.0,0.0069
3887.0,0.0069
3886.0,0.0068
3885.0,0.0068
3884.0,0.0067
3883.0,0.0069
3882.0,0.007
3881.0,0.007
3880.0,0.007
3879.0,0.007
3878.0,0.007
3877.0,0.0071
3876.0,0.0071
3875.0,0.0069
3874.0,0.0068
3873.0,0.0067
3872.0,0.0068
3871.0,0.0069
3870.0,0.0068
3869.0,0.0068
3868.0,0.0069
3867.0,0.007
3866.0,0.0072
3865.0,0.0072
3864.0,0.0072
3863.0,0.0072
3862.0,0.0072
3861.0,0.0071
3860.0,0.0071
3859.0,0.0071
3858.0,0.0071
3857.0,0.0071
3856.0,0.0071
3855.0,0.0072
3854.0,0.0073
3853.0,0.0073
3852.0,0.0073
3851.0,0.0075
3850.0,0.0077
3849.0,0.0076
3848.0,0.0073
3847.0,0.0071
3846.0,0.0071
3845.0,0.007
3844.0,0.0071
3843.0,0.0071
3842.0,0.007
3841.0,0.0071
3840.0,0.0072
3839.0,0.0073
3838.0,0.0073
3837.0,0.0073
3836.0,0.0073
3835.0,0.0073
3834.0,0.0074
3833.0,0.0074
3832.0,0.0073
3831.0,0.0073
3830.0,0.0073
3829.0,0.0073
3828.0,0.0073
3827.0,0.0072
3826.0,0.0071
3825.0,0.007
3824.0,0.007
3823.0,0.0072
3822.0,0.0073
3821.0,0.0073
3820.0,0.0072
3819.0,0.0072
3818.0,0.0073
3817.0,0.0073
3816.0,0.0073
3815.0,0.0073
3814.0,0.0074
3813.0,0.0075
3812.0,0.0075
3811.0,0.0074
3810.0,0.0074
3809.0,0.0075
3808.0,0.0076
3807.0,0.0076
3806.0,0.0075
3805.0,0.0074
3804.0,0.0074
3803.0,0.0075
3802.0,0.0074
3801.0,0.0073
3800.0,0.0072
3799.0,0.0073
3798.0,0.0074
3797.0,0.0075
3796.0,0.0074
3795.0,0.0074
3794.0,0.0075
3793.0,0.0075
3792.0,0.0076
3791.0,0.0076
3790.0,0.0075
3789.0,0.0074
3788.0,0.0074
3787.0,0.0074
3786.0,0.0074
3785.0,0.0074
3784.0,0.0073
3783.0,0.0072
3782.0,0.0072
3781.0,0.0072
3780.0,0.0073
3779.0,0.0073
3778.0,0.0073
3777.0,0.0074
3776.0,0.0075
3775.0,0.0076
3774.0,0.0076
3773.0,0.0076
3772.0,0.0076
3771.0,0.0075
3770.0,0.0074
3769.0,0.0073
3768.0,0.0073
3767.0,0.0073
3766.0,0.0073
3765.0,0.0073
3764.0,0.0073
3763.0,0.0073
3762.0,0.0074
3761.0,0.0074
3760.0,0.0074
3759.0,0.0074
3758.0,0.0074
3757.0,0.0074
3756.0,0.0075
3755.0,0.0075
3754.0,0.0075
3753.0,0.0076
3752.0,0.0078
3751.0,0.0079
3750.0,0.008
3749.0,0.0079
3748.0,0.0079
3747.0,0.008
3746.0,0.0082
3745.0,0.0083
3744.0,0.0083
3743.0,0.0082
3742.0,0.0084
3741.0,0.0085
3740.0,0.0085
3739.0,0.0084
3738.0,0.0083
3737.0,0.0083
3736.0,0.0082
3735.0,0.008
3734.0,0.008
3733.0,0.0081
3732.0,0.0084
3731.0,0.0086
3730.0,0.0087
3729.0,0.0089
3728.0,0.0089
3727.0,0.0088
3726.0,0.0085
3725.0,0.0082
3724.0,0.0081
3723.0,0.0081
3722.0,0.0082
3721.0,0.0082
3720.0,0.0081
3719.0,0.0081
3718.0,0.008
3717.0,0.008
3716.0,0.008
3715.0,0.008
3714.0,0.0082
3713.0,0.0084
3712.0,0.0086
3711.0,0.0087
3710.0,0.0086
3709.0,0.0085
3708.0,0.0084
3707.0,0.0084
3706.0,0.0083
3705.0,0.0083
3704.0,0.0084
3703.0,0.0084
3702.0,0.0083
3701.0,0.0083
3700.0,0.0082
3699.0,0.0083
3698.0,0.0084
3697.0,0.0084
3696.0,0.0084
3695.0,0.0084
3694.0,0.0083
3693.0,0.0081
3692.0,0.0078
3691.0,0.0077
3690.0,0.0078
3689.0,0.0079
3688.0,0.008
3687.0,0.0082
3686.0,0.0083
3685.0,0.0083
3684.0,0.0081
3683.0,0.008
3682.0,0.008
3681.0,0.008
3680.0,0.0081
3679.0,0.0082
3678.0,0.0082
3677.0,0.0083
3676.0,0.0082
3675.0,0.008
3674.0,0.008
3673.0,0.0082
3672.0,0.0084
3671.0,0.0086
3670.0,0.0085
3669.0,0.0082
3668.0,0.0081
3667.0,0.0081
3666.0,0.0082
3665.0,0.0082
3664.0,0.0082
3663.0,0.0082
3662.0,0.0082
3661.0,0.0082
3660.0,0.0081
3659.0,0.0082
3658.0,0.0083
3657.0,0.0083
3656.0,0.0083
3655.0,0.0081
3654.0,0.008
3653.0,0.0078
3652.0,0.0076
3651.0,0.0075
3650.0,0.0077
3649.0,0.0078
3648.0,0.0079
3647.0,0.008
3646.0,0.0081
3645.0,0.0083
3644.0,0.0084
3643.0,0.0085
3642.0,0.0086
3641.0,0.0088
3640.0,0.0089
3639.0,0.009
3638.0,0.0091
3637.0,0.0092
3636.0,0.0093
3635.0,0.0092
3634.0,0.0091
3633.0,0.0089
3632.0,0.0088
3631.0,0.0088
3630.0,0.0091
3629.0,0.0094
3628.0,0.0095
3627.0,0.0095
3626.0,0.0096
3625.0,0.0096
3624.0,0.0095
3623.0,0.0094
3622.0,0.0093
3621.0,0.0093
3620.0,0.0093
3619.0,0.0093
3618.0,0.0092
3617.0,0.0092
3616.0,0.0092
3615.0,0.0092
3614.0,0.0092
3613.0,0.0092
3612.0,0.0093
3611.0,0.0094
3610.0,0.0096
3609.0,0.0098
3608.0,0.0099
3607.0,0.0099
3606.0,0.0098
3605.0,0.0097
3604.0,0.0097
3603.0,0.0098
3602.0,0.01
3601.0,0.01
3600.0,0.01
3599.0,0.01
3598.0,0.0099
3597.0,0.01
3596.0,0.0101
3595.0,0.0102
3594.0,0.0103
3593.0,0.0103
3592.0,0.0103
3591.0,0.0102
3590.0,0.0102
3589.0,0.0102
3588.0,0.0102
3587.0,0.0102
3586.0,0.0102
3585.0,0.0102
3584.0,0.0102
3583.0,0.0102
3582.0,0.0102
3581.0,0.0103
3580.0,0.0103
3579.0,0.0104
3578.0,0.0104
3577.0,0.0105
3576.0,0.0106
3575.0,0.0106
3574.0,0.0107
3573.0,0.0106
3572.0,0.0105
3571.0,0.0105
3570.0,0.0104
3569.0,0.0104
3568.0,0.0104
3567.0,0.0104
3566.0,0.0104
3565.0,0.0104
3564.0,0.0105
3563.0,0.0106
3562.0,0.0107
3561.0,0.0109
3560.0,0.011
3559.0,0.0111
3558.0,0.0111
3557.0,0.0112
3556.0,0.0112
3555.0,0.0112
3554.0,0.0112
3553.0,0.0112
3552.0,0.0111
3551.0,0.0111
3550.0,0.011
3549.0,0.011
3548.0,0.0111
3547.0,0.0113
3546.0,0.0115
3545.0,0.0117
3544.0,0.0117
3543.0,0.0118
3542.0,0.0118
3541.0,0.0118
3540.0,0.0118
3539.0,0.0118
3538.0,0.0118
3537.0,0.0118
3536.0,0.0119
3535.0,0.012
3534.0,0.012
3533.0,0.0121
3532.0,0.0122
3531.0,0.0122
3530.0,0.0123
3529.0,0.0124
3528.0,0.0124
3527.0,0.0124
3526.0,0.0124
3525.0,0.0124
3524.0,0.0124
3523.0,0.0124
3522.0,0.0124
3521.0,0.0124
3520.0,0.0124
3519.0,0.0125
3518.0,0.0126
3517.0,0.0126
3516.0,0.0126
3515.0,0.0127
3514.0,0.0128
3513.0,0.013
3512.0,0.013
3511.0,0.013
3510.0,0.013
3509.0,0.013
3508.0,0.013
3507.0,0.0131
3506.0,0.0131
3505.0,0.0131
3504.0,0.0132
3503.0,0.0132
3502.0,0.0133
3501.0,0.0134
3500.0,0.0135
3499.0,0.0136
3498.0,0.0136
3497.0,0.0137
3496.0,0.0137
3495.0,0.0137
3494.0,0.0137
3493.0,0.0137
3492.0,0.0138
3491.0,0.014
3490.0,0.014
3489.0,0.0141
3488.0,0.0141
3487.0,0.0141
3486.0,0.0141
3485.0,0.0141
3484.0,0.0141
3483.0,0.0142
3482.0,0.0143
3481.0,0.0143
3480.0,0.0143
3479.0,0.0143
3478.0,0.0143
3477.0,0.0144
3476.0,0.0144
3475.0,0.0144
3474.0,0.0144
3473.0,0.0144
3472.0,0.0145
3471.0,0.0145
3470.0,0.0146
3469.0,0.0146
3468.0,0.0147
3467.0,0.0147
3466.0,0.0148
3465.0,0.0149
3464.0,0.015
3463.0,0.015
3462.0,0.0151
3461.0,0.0152
3460.0,0.0153
3459.0,0.0153
3458.0,0.0152
3457.0,0.0152
3456.0,0.0153
3455.0,0.0153
3454.0,0.0153
3453.0,0.0153
3452.0,0.0153
3451.0,0.0153
3450.0,0.0153
3449.0,0.0154
3448.0,0.0154
3447.0,0.0155
3446.0,0.0155
3445.0,0.0156
3444.0,0.0156
3443.0,0.0158
3442.0,0.0159
3441.0,0.0161
3440.0,0.0162
3439.0,0.0162
3438.0,0.0161
3437.0,0.016
3436.0,0.016
3435.0,0.016
3434.0,0.016
3433.0,0.0161
3432.0,0.0161
3431.0,0.0161
3430.0,0.0162
3429.0,0.0162
3428.0,0.0163
3427.0,0.0164
3426.0,0.0165
3425.0,0.0164
3424.0,0.0164
3423.0,0.0164
3422.0,0.0165
3421.0,0.0166
3420.0,0.0167
3419.0,0.0168
3418.0,0.0169
3417.0,0.0169
3416.0,0.0168
3415.0,0.0167
3414.0,0.0167
3413.0,0.0167
3412.0,0.0166
3411.0,0.0166
3410.0,0.0166
3409.0,0.0166
3408.0,0.0167
3407.0,0.0168
3406.0,0.0168
3405.0,0.0168
3404.0,0.0168
3403.0,0.0168
3402.0,0.0168
3401.0,0.0168
3400.0,0.0168
3399.0,0.0168
3398.0,0.0167
3397.0,0.0167
3396.0,0.0168
3395.0,0.0168
3394.0,0.0168
3393.0,0.0168
3392.0,0.0167
3391.0,0.0168
3390.0,0.0168
3389.0,0.0169
3388.0,0.017
3387.0,0.0171
3386.0,0.017
3385.0,0.0169
3384.0,0.0167
3383.0,0.0166
3382.0,0.0165
3381.0,0.0165
3380.0,0.0166
3379.0,0.0167
3378.0,0.0168
3377.0,0.0168
3376.0,0.0168
3375.0,0.0167
3374.0,0.0166
3373.0,0.0166
3372.0,0.0166
3371.0,0.0166
3370.0,0.0166
3369.0,0.0166
3368.0,0.0166
3367.0,0.0166
3366.0,0.0167
3365.0,0.0167
3364.0,0.0166
3363.0,0.0166
3362.0,0.0166
3361.0,0.0167
3360.0,0.0166
3359.0,0.0165
3358.0,0.0164
3357.0,0.0164
3356.0,0.0164
3355.0,0.0165
3354.0,0.0166
3353.0,0.0167
3352.0,0.0167
3351.0,0.0167
3350.0,0.0166
3349.0,0.0165
3348.0,0.0165
3347.0,0.0164
3346.0,0.0164
3345.0,0.0163
3344.0,0.0163
3343.0,0.0162
3342.0,0.0162
3341.0,0.0162
3340.0,0.0161
3339.0,0.0161
3338.0,0.0161
3337.0,0.016
3336.0,0.016
3335.0,0.016
3334.0,0.016
3333.0,0.0159
3332.0,0.0158
3331.0,0.0157
3330.0,0.0157
3329.0,0.0157
3328.0,0.0157
3327.0,0.0157
3326.0,0.0157
3325.0,0.0156
3324.0,0.0155
3323.0,0.0153
3322.0,0.0152
3321.0,0.015
3320.0,0.0149
3319.0,0.0149
3318.0,0.0149
3317.0,0.0149
3316.0,0.015
3315.0,0.015
3314.0,0.015
3313.0,0.015
3312.0,0.015
3311.0,0.015
3310.0,0.015
3309.0,0.0149
3308.0,0.0149
3307.0,0.0148
3306.0,0.0148
3305.0,0.0147
3304.0,0.0147
3303.0,0.0147
3302.0,0.0148
3301.0,0.0149
3300.0,0.015
3299.0,0.015
3298.0,0.015
3297.0,0.0148
3296.0,0.0147
3295.0,0.0146
3294.0,0.0146
3293.0,0.0146
3292.0,0.0146
3291.0,0.0145
3290.0,0.0144
3289.0,0.0143
3288.0,0.0143
3287.0,0.0143
3286.0,0.0144
3285.0,0.0144
3284.0,0.0144
3283.0,0.0144
3282.0,0.0143
3281.0,0.0142
3280.0,0.0141
3279.0,0.014
3278.0,0.014
3277.0,0.0139
3276.0,0.0139
3275.0,0.0139
3274.0,0.0139
3273.0,0.0139
3272.0,0.014
3271.0,0.014
3270.0,0.014
3269.0,0.014
3268.0,0.0139
3267.0,0.0139
3266.0,0.0139
3265.0,0.0138
3264.0,0.0138
3263.0,0.0137
3262.0,0.0137
3261.0,0.0136
3260.0,0.0136
3259.0,0.0136
3258.0,0.0136
3257.0,0.0136
3256.0,0.0136
3255.0,0.0136
3254.0,0.0136
3253.0,0.0136
3252.0,0.0135
3251.0,0.0134
3250.0,0.0134
3249.0,0.0133
3248.0,0.0133
3247.0,0.0133
3246.0,0.0133
3245.0,0.0134
3244.0,0.0134
3243.0,0.0134
3242.0,0.0134
3241.0,0.0134
3240.0,0.0134
3239.0,0.0134
3238.0,0.0133
3237.0,0.0132
3236.0,0.0131
3235.0,0.013
3234.0,0.013
3233.0,0.013
3232.0,0.0131
3231.0,0.0131
3230.0,0.013
3229.0,0.013
3228.0,0.0129
3227.0,0.0128
3226.0,0.0128
3225.0,0.0127
3224.0,0.0128
3223.0,0.0128
3222.0,0.0128
3221.0,0.0127
3220.0,0.0127
3219.0,0.0126
3218.0,0.0126
3217.0,0.0126
3216.0,0.0126
3215.0,0.0125
3214.0,0.0125
3213.0,0.0126
3212.0,0.0127
3211.0,0.0127
3210.0,0.0126
3209.0,0.0126
3208.0,0.0125
3207.0,0.0124
3206.0,0.0124
3205.0,0.0123
3204.0,0.0123
3203.0,0.0122
3202.0,0.0121
3201.0,0.012
3200.0,0.0119
3199.0,0.0119
3198.0,0.0119
3197.0,0.012
3196.0,0.012
3195.0,0.0121
3194.0,0.0121
3193.0,0.0121
3192.0,0.012
3191.0,0.012
3190.0,0.0119
3189.0,0.0117
3188.0,0.0116
3187.0,0.0115
3186.0,0.0115
3185.0,0.0115
3184.0,0.0115
3183.0,0.0115
3182.0,0.0114
3181.0,0.0113
3180.0,0.0113
3179.0,0.0112
3178.0,0.0112
3177.0,0.0111
3176.0,0.0111
3175.0,0.011
3174.0,0.011
3173.0,0.011
3172.0,0.011
3171.0,0.0109
3170.0,0.0109
3169.0,0.0108
3168.0,0.0108
3167.0,0.0108
3166.0,0.0107
3165.0,0.0107
3164.0,0.0107
3163.0,0.0107
3162.0,0.0107
3161.0,0.0106
3160.0,0.0106
3159.0,0.0105
3158.0,0.0104
3157.0,0.0103
3156.0,0.0102
3155.0,0.0101
3154.0,0.0101
3153.0,0.0101
3152.0,0.0102
3151.0,0.0103
3150.0,0.0103
3149.0,0.0103
3148.0,0.0103
3147.0,0.0102
3146.0,0.0101
3145.0,0.01
3144.0,0.01
3143.0,0.0099
3142.0,0.0099
3141.0,0.0099
3140.0,0.0099
3139.0,0.0099
3138.0,0.0099
3137.0,0.0098
3136.0,0.0098
3135.0,0.0096
3134.0,0.0096
3133.0,0.0095
3132.0,0.0095
3131.0,0.0094
3130.0,0.0093
3129.0,0.0092
3128.0,0.0091
3127.0,0.009
3126.0,0.009
3125.0,0.009
3124.0,0.0089
3123.0,0.0089
3122.0,0.0088
3121.0,0.0088
3120.0,0.0087
3119.0,0.0087
3118.0,0.0086
3117.0,0.0086
3116.0,0.0086
3115.0,0.0086
3114.0,0.0086
3113.0,0.0086
3112.0,0.0085
3111.0,0.0085
3110.0,0.0084
3109.0,0.0084
3108.0,0.0084
3107.0,0.0084
3106.0,0.0083
3105.0,0.0081
3104.0,0.0081
3103.0,0.008
3102.0,0.008
3101.0,0.008
3100.0,0.0079
3099.0,0.0079
3098.0,0.0078
3097.0,0.0078
3096.0,0.0077
3095.0,0.0077
3094.0,0.0076
3093.0,0.0076
3092.0,0.0075
3091.0,0.0074
3090.0,0.0074
3089.0,0.0073
3088.0,0.0073
3087.0,0.0073
3086.0,0.0073
3085.0,0.0073
3084.0,0.0073
3083.0,0.0072
3082.0,0.0071
3081.0,0.007
3080.0,0.0069
3079.0,0.0068
3078.0,0.0068
3077.0,0.0068
3076.0,0.0067
3075.0,0.0067
3074.0,0.0068
3073.0,0.0068
3072.0,0.0068
3071.0,0.0068
3070.0,0.0067
3069.0,0.0066
3068.0,0.0065
3067.0,0.0064
3066.0,0.0063
3065.0,0.0063
3064.0,0.0062
3063.0,0.0062
3062.0,0.0062
3061.0,0.0063
3060.0,0.0063
3059.0,0.0062
3058.0,0.0061
3057.0,0.0059
3056.0,0.0057
3055.0,0.0056
3054.0,0.0056
3053.0,0.0055
3052.0,0.0055
3051.0,0.0055
3050.0,0.0053
3049.0,0.0052
3048.0,0.005
3047.0,0.005
3046.0,0.0049
3045.0,0.005
3044.0,0.005
3043.0,0.0049
3042.0,0.0049
3041.0,0.0048
3040.0,0.0047
3039.0,0.0046
3038.0,0.0045
3037.0,0.0045
3036.0,0.0045
3035.0,0.0045
3034.0,0.0045
3033.0,0.0044
3032.0,0.0044
3031.0,0.0044
3030.0,0.0043
3029.0,0.0044
3028.0,0.0044
3027.0,0.0044
3026.0,0.0043
3025.0,0.0042
3024.0,0.0041
3023.0,0.004
3022.0,0.0039
3021.0,0.0039
3020.0,0.0038
3019.0,0.0037
3018.0,0.0036
3017.0,0.0034
3016.0,0.0034
3015.0,0.0034
3014.0,0.0034
3013.0,0.0034
3012.0,0.0034
3011.0,0.0033
3010.0,0.0032
3009.0,0.0032
3008.0,0.0032
3007.0,0.0032
3006.0,0.0032
3005.0,0.0032
3004.0,0.0033
3003.0,0.0033
3002.0,0.0033
3001.0,0.0034
3000.0,0.0034
2999.0,0.0034
2998.0,0.0034
2997.0,0.0034
2996.0,0.0036
2995.0,0.0037
2994.0,0.0039
2993.0,0.0041
2992.0,0.0043
2991.0,0.0045
2990.0,0.0048
2989.0,0.0051
2988.0,0.0055
2987.0,0.0061
2986.0,0.0067
2985.0,0.0074
2984.0,0.0081
2983.0,0.009
2982.0,0.01
2981.0,0.0112
2980.0,0.0127
2979.0,0.0145
2978.0,0.0164
2977.0,0.0187
2976.0,0.0213
2975.0,0.0243
2974.0,0.0278
2973.0,0.0318
2972.0,0.0362
2971.0,0.0412
2970.0,0.0467
2969.0,0.0528
2968.0,0.0594
2967.0,0.0665
2966.0,0.0738
2965.0,0.0813
2964.0,0.0886
2963.0,0.0952
2962.0,0.1007
2961.0,0.105
2960.0,0.1079
2959.0,0.1098
2958.0,0.1113
2957.0,0.1129
2956.0,0.1151
2955.0,0.1182
2954.0,0.1221
2953.0,0.1263
2952.0,0.13
2951.0,0.1323
2950.0,0.1326
2949.0,0.1304
2948.0,0.126
2947.0,0.1196
2946.0,0.112
2945.0,0.1041
2944.0,0.0964
2943.0,0.0898
2942.0,0.0844
2941.0,0.0805
2940.0,0.0782
2939.0,0.0773
2938.0,0.0776
2937.0,0.0791
2936.0,0.0817
2935.0,0.0852
2934.0,0.0897
2933.0,0.095
2932.0,0.1011
2931.0,0.1078
2930.0,0.1149
2929.0,0.1223
2928.0,0.1296
2927.0,0.1369
2926.0,0.1441
2925.0,0.1512
2924.0,0.1583
2923.0,0.1654
2922.0,0.1723
2921.0,0.1788
2920.0,0.1844
2919.0,0.1885
2918.0,0.1902
2917.0,0.1894
2916.0,0.1861
2915.0,0.181
2914.0,0.1749
2913.0,0.1686
2912.0,0.1628
2911.0,0.1576
2910.0,0.1531
2909.0,0.1492
2908.0,0.1455
2907.0,0.142
2906.0,0.1385
2905.0,0.1348
2904.0,0.131
2903.0,0.1271
2902.0,0.1231
2901.0,0.119
2900.0,0.1151
2899.0,0.1113
2898.0,0.1078
2897.0,0.1044
2896.0,0.1014
2895.0,0.0987
2894.0,0.0963
2893.0,0.0944
2892.0,0.0929
2891.0,0.0918
2890.0,0.091
2889.0,0.0904
2888.0,0.09
2887.0,0.0898
2886.0,0.0898
2885.0,0.0901
2884.0,0.0906
2883.0,0.0913
2882.0,0.0923
2881.0,0.0935
2880.0,0.0945
2879.0,0.0953
2878.0,0.0956
2877.0,0.0955
2876.0,0.095
2875.0,0.0945
2874.0,0.0942
2873.0,0.0944
2872.0,0.095
2871.0,0.0961
2870.0,0.0975
2869.0,0.0988
2868.0,0.0997
2867.0,0.0998
2866.0,0.0985
2865.0,0.0957
2864.0,0.0917
2863.0,0.087
2862.0,0.0824
2861.0,0.0785
2860.0,0.0757
2859.0,0.0739
2858.0,0.0731
2857.0,0.0733
2856.0,0.0743
2855.0,0.0762
2854.0,0.0786
2853.0,0.0814
2852.0,0.0839
2851.0,0.0857
2850.0,0.0865
2849.0,0.0862
2848.0,0.0854
2847.0,0.0849
2846.0,0.0852
2845.0,0.0867
2844.0,0.0892
2843.0,0.0924
2842.0,0.096
2841.0,0.0992
2840.0,0.1018
2839.0,0.103
2838.0,0.1027
2837.0,0.1006
2836.0,0.0967
2835.0,0.0914
2834.0,0.0852
2833.0,0.0788
2832.0,0.0727
2831.0,0.0673
2830.0,0.0627
2829.0,0.0588
2828.0,0.0556
2827.0,0.0529
2826.0,0.0506
2825.0,0.0487
2824.0,0.047
2823.0,0.0455
2822.0,0.0442
2821.0,0.0431
2820.0,0.042
2819.0,0.041
2818.0,0.0402
2817.0,0.0394
2816.0,0.0387
2815.0,0.038
2814.0,0.0375
2813.0,0.037
2812.0,0.0365
2811.0,0.036
2810.0,0.0354
2809.0,0.0349
2808.0,0.0343
2807.0,0.0338
2806.0,0.0332
2805.0,0.0326
2804.0,0.032
2803.0,0.0314
2802.0,0.0309
2801.0,0.0304
2800.0,0.03
2799.0,0.0297
2798.0,0.0294
2797.0,0.0292
2796.0,0.0289
2795.0,0.0286
2794.0,0.0283
2793.0,0.028
2792.0,0.0277
2791.0,0.0273
2790.0,0.0269
2789.0,0.0266
2788.0,0.0263
2787.0,0.026
2786.0,0.0257
2785.0,0.0255
2784.0,0.0252
2783.0,0.025
2782.0,0.0247
2781.0,0.0244
2780.0,0.0241
2779.0,0.0239
2778.0,0.0237
2777.0,0.0236
2776.0,0.0233
2775.0,0.0231
2774.0,0.0228
2773.0,0.0226
2772.0,0.0225
2771.0,0.0224
2770.0,0.0223
2769.0,0.0222
2768.0,0.022
2767.0,0.0219
2766.0,0.0218
2765.0,0.0217
2764.0,0.0217
2763.0,0.0217
2762.0,0.0216
2761.0,0.0215
2760.0,0.0213
2759.0,0.0212
2758.0,0.0211
2757.0,0.021
2756.0,0.0209
2755.0,0.0208
2754.0,0.0207
2753.0,0.0206
2752.0,0.0205
2751.0,0.0204
2750.0,0.0203
2749.0,0.0203
2748.0,0.0203
2747.0,0.0203
2746.0,0.0203
2745.0,0.0203
2744.0,0.0203
2743.0,0.0203
2742.0,0.0204
2741.0,0.0205
2740.0,0.0205
2739.0,0.0205
2738.0,0.0205
2737.0,0.0205
2736.0,0.0206
2735.0,0.0207
2734.0,0.0208
2733.0,0.0208
2732.0,0.0209
2731.0,0.0211
2730.0,0.0212
2729.0,0.0214
2728.0,0.0216
2727.0,0.0218
2726.0,0.0219
2725.0,0.0221
2724.0,0.0222
2723.0,0.0223
2722.0,0.0223
2721.0,0.0222
2720.0,0.0221
2719.0,0.0218
2718.0,0.0216
2717.0,0.0213
2716.0,0.0211
2715.0,0.0209
2714.0,0.0206
2713.0,0.0204
2712.0,0.0202
2711.0,0.02
2710.0,0.0198
2709.0,0.0197
2708.0,0.0196
2707.0,0.0194
2706.0,0.0193
2705.0,0.0193
2704.0,0.0191
2703.0,0.019
2702.0,0.0189
2701.0,0.0187
2700.0,0.0186
2699.0,0.0185
2698.0,0.0185
2697.0,0.0184
2696.0,0.0184
2695.0,0.0184
2694.0,0.0184
2693.0,0.0183
2692.0,0.0183
2691.0,0.0182
2690.0,0.0181
2689.0,0.0181
2688.0,0.0181
2687.0,0.0181
2686.0,0.0181
2685.0,0.0181
2684.0,0.0182
2683.0,0.0182
2682.0,0.0183
2681.0,0.0183
2680.0,0.0183
2679.0,0.0182
2678.0,0.0182
2677.0,0.0181
2676.0,0.0181
2675.0,0.018
2674.0,0.018
2673.0,0.0179
2672.0,0.0179
2671.0,0.0179
2670.0,0.0179
2669.0,0.0178
2668.0,0.0178
2667.0,0.0178
2666.0,0.0178
2665.0,0.0177
2664.0,0.0177
2663.0,0.0176
2662.0,0.0176
2661.0,0.0176
2660.0,0.0176
2659.0,0.0176
2658.0,0.0176
2657.0,0.0176
2656.0,0.0175
2655.0,0.0174
2654.0,0.0173
2653.0,0.0172
2652.0,0.0172
2651.0,0.0172
2650.0,0.0171
2649.0,0.0171
2648.0,0.017
2647.0,0.0169
2646.0,0.0169
2645.0,0.0168
2644.0,0.0168
2643.0,0.0167
2642.0,0.0167
2641.0,0.0167
2640.0,0.0166
2639.0,0.0166
2638.0,0.0165
2637.0,0.0165
2636.0,0.0164
2635.0,0.0164
2634.0,0.0163
2633.0,0.0163
2632.0,0.0163
2631.0,0.0163
2630.0,0.0163
2629.0,0.0163
2628.0,0.0163
2627.0,0.0164
2626.0,0.0164
2625.0,0.0165
2624.0,0.0165
2623.0,0.0165
2622.0,0.0165
2621.0,0.0166
2620.0,0.0166
2619.0,0.0165
2618.0,0.0164
2617.0,0.0164
2616.0,0.0164
2615.0,0.0164
2614.0,0.0164
2613.0,0.0164
2612.0,0.0163
2611.0,0.0163
2610.0,0.0162
2609.0,0.0161
2608.0,0.016
2607.0,0.0159
2606.0,0.0159
2605.0,0.0158
2604.0,0.0157
2603.0,0.0155
2602.0,0.0155
2601.0,0.0155
2600.0,0.0155
2599.0,0.0156
2598.0,0.0157
2597.0,0.0157
2596.0,0.0156
2595.0,0.0156
2594.0,0.0156
2593.0,0.0156
2592.0,0.0156
2591.0,0.0156
2590.0,0.0157
2589.0,0.0158
2588.0,0.0158
2587.0,0.0159
2586.0,0.0159
2585.0,0.016
2584.0,0.0161
2583.0,0.0161
2582.0,0.0161
2581.0,0.0161
2580.0,0.016
2579.0,0.016
2578.0,0.0159
2577.0,0.0159
2576.0,0.0158
2575.0,0.0157
2574.0,0.0156
2573.0,0.0154
2572.0,0.0153
2571.0,0.0152
2570.0,0.0151
2569.0,0.0151
2568.0,0.0151
2567.0,0.015
2566.0,0.015
2565.0,0.0149
2564.0,0.0149
2563.0,0.0148
2562.0,0.0148
2561.0,0.0147
2560.0,0.0147
2559.0,0.0147
2558.0,0.0146
2557.0,0.0146
2556.0,0.0145
2555.0,0.0144
2554.0,0.0144
2553.0,0.0143
2552.0,0.0143
2551.0,0.0144
2550.0,0.0144
2549.0,0.0143
2548.0,0.0143
2547.0,0.0143
2546.0,0.0143
2545.0,0.0143
2544.0,0.0143
2543.0,0.0142
2542.0,0.0142
2541.0,0.0142
2540.0,0.0141
2539.0,0.0141
2538.0,0.0141
2537.0,0.0141
2536.0,0.0141
2535.0,0.0139
2534.0,0.0138
2533.0,0.0138
2532.0,0.0138
2531.0,0.0138
2530.0,0.0138
2529.0,0.0138
2528.0,0.0138
2527.0,0.0138
2526.0,0.0138
2525.0,0.0137
2524.0,0.0137
2523.0,0.0136
2522.0,0.0136
2521.0,0.0136
2520.0,0.0136
2519.0,0.0137
2518.0,0.0136
2517.0,0.0135
2516.0,0.0134
2515.0,0.0134
2514.0,0.0133
2513.0,0.0133
2512.0,0.0132
2511.0,0.0132
2510.0,0.0132
2509.0,0.0132
2508.0,0.0132
2507.0,0.0132
2506.0,0.0132
2505.0,0.0132
2504.0,0.0132
2503.0,0.0132
2502.0,0.0132
2501.0,0.0132
2500.0,0.0132
2499.0,0.0132
2498.0,0.0132
2497.0,0.0132
2496.0,0.0132
2495.0,0.0132
2494.0,0.0132
2493.0,0.0132
2492.0,0.0132
2491.0,0.0132
2490.0,0.0132
2489.0,0.0131
2488.0,0.0131
2487.0,0.0132
2486.0,0.0132
2485.0,0.0131
2484.0,0.0131
2483.0,0.013
2482.0,0.013
2481.0,0.013
2480.0,0.013
2479.0,0.013
2478.0,0.013
2477.0,0.013
2476.0,0.013
2475.0,0.013
2474.0,0.0129
2473.0,0.0129
2472.0,0.013
2471.0,0.013
2470.0,0.013
2469.0,0.0129
2468.0,0.0129
2467.0,0.0129
2466.0,0.0129
2465.0,0.0129
2464.0,0.0129
2463.0,0.0129
2462.0,0.0129
2461.0,0.0129
2460.0,0.0129
2459.0,0.0129
2458.0,0.0129
2457.0,0.0129
2456.0,0.0129
2455.0,0.0129
2454.0,0.0128
2453.0,0.0128
2452.0,0.0128
2451.0,0.0128
2450.0,0.0127
2449.0,0.0127
2448.0,0.0126
2447.0,0.0126
2446.0,0.0126
2445.0,0.0126
2444.0,0.0127
2443.0,0.0128
2442.0,0.0128
2441.0,0.0128
2440.0,0.0127
2439.0,0.0126
2438.0,0.0126
2437.0,0.0126
2436.0,0.0127
2435.0,0.0128
2434.0,0.0129
2433.0,0.0129
2432.0,0.0129
2431.0,0.0129
2430.0,0.0129
2429.0,0.0129
2428.0,0.0129
2427.0,0.0128
2426.0,0.0128
2425.0,0.0128
2424.0,0.0128
2423.0,0.0128
2422.0,0.0127
2421.0,0.0127
2420.0,0.0127
2419.0,0.0127
2418.0,0.0126
2417.0,0.0127
2416.0,0.0127
2415.0,0.0127
2414.0,0.0127
2413.0,0.0127
2412.0,0.0127
2411.0,0.0126
2410.0,0.0126
2409.0,0.0126
2408.0,0.0126
2407.0,0.0127
2406.0,0.0127
2405.0,0.0127
2404.0,0.0127
2403.0,0.0126
2402.0,0.0126
2401.0,0.0126
2400.0,0.0126
2399.0,0.0126
2398.0,0.0126
2397.0,0.0126
2396.0,0.0126
2395.0,0.0126
2394.0,0.0126
2393.0,0.0126
2392.0,0.0126
2391.0,0.0127
2390.0,0.0128
2389.0,0.0129
2388.0,0.013
2387.0,0.0132
2386.0,0.0134
2385.0,0.0136
2384.0,0.0139
2383.0,0.014
2382.0,0.0141
2381.0,0.0141
2380.0,0.0141
2379.0,0.014
2378.0,0.0139
2377.0,0.014
2376.0,0.0141
2375.0,0.0142
2374.0,0.0143
2373.0,0.0144
2372.0,0.0143
2371.0,0.0142
2370.0,0.0144
2369.0,0.0146
2368.0,0.0144
2367.0,0.0135
2366.0,0.0125
2365.0,0.0123
2364.0,0.013
2363.0,0.0142
2362.0,0.015
2361.0,0.0156
2360.0,0.0165
2359.0,0.0184
2358.0,0.0197
2357.0,0.0186
2356.0,0.0153
2355.0,0.012
2354.0,0.0105
2353.0,0.0108
2352.0,0.0124
2351.0,0.0143
2350.0,0.0158
2349.0,0.0164
2348.0,0.016
2347.0,0.0152
2346.0,0.0149
2345.0,0.0155
2344.0,0.017
2343.0,0.0187
2342.0,0.0195
2341.0,0.0188
2340.0,0.0174
2339.0,0.0162
2338.0,0.0157
2337.0,0.0158
2336.0,0.0159
2335.0,0.0157
2334.0,0.0152
2333.0,0.0147
2332.0,0.0144
2331.0,0.0142
2330.0,0.0142
2329.0,0.0143
2328.0,0.0144
2327.0,0.0145
2326.0,0.0146
2325.0,0.0148
2324.0,0.0149
2323.0,0.0149
2322.0,0.0148
2321.0,0.0148
2320.0,0.015
2319.0,0.0152
2318.0,0.0152
2317.0,0.0151
2316.0,0.0149
2315.0,0.0148
2314.0,0.0148
2313.0,0.015
2312.0,0.0152
2311.0,0.0154
2310.0,0.0156
2309.0,0.0156
2308.0,0.0154
2307.0,0.0151
2306.0,0.0148
2305.0,0.0147
2304.0,0.0147
2303.0,0.0147
2302.0,0.0148
2301.0,0.0147
2300.0,0.0146
2299.0,0.0144
2298.0,0.0142
2297.0,0.0141
2296.0,0.014
2295.0,0.014
2294.0,0.0138
2293.0,0.0137
2292.0,0.0135
2291.0,0.0133
2290.0,0.0131
2289.0,0.013
2288.0,0.0129
2287.0,0.0127
2286.0,0.0125
2285.0,0.0123
2284.0,0.0122
2283.0,0.0121
2282.0,0.012
2281.0,0.012
2280.0,0.0121
2279.0,0.0121
2278.0,0.0121
2277.0,0.0121
2276.0,0.0121
2275.0,0.012
2274.0,0.012
2273.0,0.012
2272.0,0.0121
2271.0,0.0121
2270.0,0.0122
2269.0,0.0122
2268.0,0.0121
2267.0,0.0121
2266.0,0.0121
2265.0,0.0121
2264.0,0.0121
2263.0,0.0121
2262.0,0.012
2261.0,0.0121
2260.0,0.0121
2259.0,0.012
2258.0,0.0119
2257.0,0.0119
2256.0,0.0119
2255.0,0.0119
2254.0,0.0119
2253.0,0.0119
2252.0,0.0119
2251.0,0.0118
2250.0,0.0118
2249.0,0.0117
2248.0,0.0117
2247.0,0.0117
2246.0,0.0117
2245.0,0.0116
2244.0,0.0116
2243.0,0.0116
2242.0,0.0116
2241.0,0.0116
2240.0,0.0115
2239.0,0.0115
2238.0,0.0115
2237.0,0.0115
2236.0,0.0115
2235.0,0.0115
2234.0,0.0115
2233.0,0.0115
2232.0,0.0115
2231.0,0.0114
2230.0,0.0114
2229.0,0.0114
2228.0,0.0113
2227.0,0.0113
2226.0,0.0112
2225.0,0.0112
2224.0,0.0113
2223.0,0.0113
2222.0,0.0114
2221.0,0.0114
2220.0,0.0114
2219.0,0.0114
2218.0,0.0114
2217.0,0.0114
2216.0,0.0114
2215.0,0.0114
2214.0,0.0113
2213.0,0.0113
2212.0,0.0113
2211.0,0.0113
2210.0,0.0112
2209.0,0.0113
2208.0,0.0113
2207.0,0.0113
2206.0,0.0114
2205.0,0.0114
2204.0,0.0114
2203.0,0.0114
2202.0,0.0114
2201.0,0.0113
2200.0,0.0113
2199.0,0.0113
2198.0,0.0113
2197.0,0.0113
2196.0,0.0113
2195.0,0.0113
2194.0,0.0113
2193.0,0.0113
2192.0,0.0113
2191.0,0.0114
2190.0,0.0114
2189.0,0.0114
2188.0,0.0114
2187.0,0.0114
2186.0,0.0113
2185.0,0.0113
2184.0,0.0113
2183.0,0.0113
2182.0,0.0113
2181.0,0.0113
2180.0,0.0114
2179.0,0.0114
2178.0,0.0114
2177.0,0.0114
2176.0,0.0114
2175.0,0.0114
2174.0,0.0114
2173.0,0.0115
2172.0,0.0115
2171.0,0.0115
2170.0,0.0114
2169.0,0.0114
2168.0,0.0114
2167.0,0.0113
2166.0,0.0112
2165.0,0.0111
2164.0,0.0111
2163.0,0.0111
2162.0,0.0111
2161.0,0.0112
2160.0,0.0112
2159.0,0.0112
2158.0,0.0112
2157.0,0.0113
2156.0,0.0112
2155.0,0.0112
2154.0,0.0112
2153.0,0.0112
2152.0,0.0112
2151.0,0.0112
2150.0,0.0112
2149.0,0.0111
2148.0,0.0111
2147.0,0.011
2146.0,0.011
2145.0,0.011
2144.0,0.0111
2143.0,0.0111
2142.0,0.0112
2141.0,0.0112
2140.0,0.0112
2139.0,0.0111
2138.0,0.0111
2137.0,0.011
2136.0,0.011
2135.0,0.011
2134.0,0.0111
2133.0,0.0111
2132.0,0.0111
2131.0,0.0111
2130.0,0.0111
2129.0,0.0111
2128.0,0.0111
2127.0,0.0111
2126.0,0.011
2125.0,0.011
2124.0,0.011
2123.0,0.011
2122.0,0.011
2121.0,0.011
2120.0,0.0109
2119.0,0.0109
2118.0,0.0109
2117.0,0.0109
2116.0,0.0109
2115.0,0.0109
2114.0,0.0108
2113.0,0.0108
2112.0,0.0108
2111.0,0.0109
2110.0,0.0109
2109.0,0.0109
2108.0,0.0108
2107.0,0.0108
2106.0,0.0108
2105.0,0.0107
2104.0,0.0107
2103.0,0.0108
2102.0,0.0108
2101.0,0.0108
2100.0,0.0108
2099.0,0.0108
2098.0,0.0108
2097.0,0.0108
2096.0,0.0108
2095.0,0.0108
2094.0,0.0109
2093.0,0.0109
2092.0,0.0109
2091.0,0.0108
2090.0,0.0108
2089.0,0.0108
2088.0,0.0108
2087.0,0.0108
2086.0,0.0108
2085.0,0.0108
2084.0,0.0107
2083.0,0.0107
2082.0,0.0106
2081.0,0.0107
2080.0,0.0107
2079.0,0.0108
2078.0,0.0109
2077.0,0.0109
2076.0,0.0108
2075.0,0.0108
2074.0,0.0107
2073.0,0.0107
2072.0,0.0107
2071.0,0.0106
2070.0,0.0106
2069.0,0.0106
2068.0,0.0107
2067.0,0.0107
2066.0,0.0107
2065.0,0.0107
2064.0,0.0107
2063.0,0.0107
2062.0,0.0107
2061.0,0.0107
2060.0,0.0107
2059.0,0.0107
2058.0,0.0107
2057.0,0.0107
2056.0,0.0107
2055.0,0.0107
2054.0,0.0107
2053.0,0.0107
2052.0,0.0107
2051.0,0.0107
2050.0,0.0107
2049.0,0.0107
2048.0,0.0107
2047.0,0.0107
2046.0,0.0107
2045.0,0.0107
2044.0,0.0107
2043.0,0.0107
2042.0,0.0107
2041.0,0.0107
2040.0,0.0107
2039.0,0.0107
2038.0,0.0107
2037.0,0.0107
2036.0,0.0107
2035.0,0.0107
2034.0,0.0107
2033.0,0.0107
2032.0,0.0107
2031.0,0.0108
2030.0,0.0108
2029.0,0.0108
2028.0,0.0107
2027.0,0.0107
2026.0,0.0107
2025.0,0.0107
2024.0,0.0107
2023.0,0.0107
2022.0,0.0107
2021.0,0.0107
2020.0,0.0107
2019.0,0.0107
2018.0,0.0107
2017.0,0.0107
2016.0,0.0106
2015.0,0.0107
2014.0,0.0107
2013.0,0.0107
2012.0,0.0108
2011.0,0.0107
2010.0,0.0107
2009.0,0.0107
2008.0,0.0106
2007.0,0.0106
2006.0,0.0106
2005.0,0.0106
2004.0,0.0107
2003.0,0.0107
2002.0,0.0107
2001.0,0.0106
2000.0,0.0105
1999.0,0.0105
1998.0,0.0104
1997.0,0.0105
1996.0,0.0105
1995.0,0.0106
1994.0,0.0106
1993.0,0.0107
1992.0,0.0107
1991.0,0.0106
1990.0,0.0106
1989.0,0.0106
1988.0,0.0106
1987.0,0.0106
1986.0,0.0106
1985.0,0.0106
1984.0,0.0106
1983.0,0.0106
1982.0,0.0107
1981.0,0.0107
1980.0,0.0106
1979.0,0.0106
1978.0,0.0106
1977.0,0.0105
1976.0,0.0105
1975.0,0.0105
1974.0,0.0105
1973.0,0.0105
1972.0,0.0106
1971.0,0.0106
1970.0,0.0107
1969.0,0.0107
1968.0,0.0107
1967.0,0.0107
1966.0,0.0107
1965.0,0.0107
1964.0,0.0107
1963.0,0.0107
1962.0,0.0107
1961.0,0.0107
1960.0,0.0107
1959.0,0.0107
1958.0,0.0107
1957.0,0.0108
1956.0,0.0108
1955.0,0.0108
1954.0,0.0108
1953.0,0.0108
1952.0,0.0108
1951.0,0.0108
1950.0,0.0108
1949.0,0.0108
1948.0,0.0107
1947.0,0.0107
1946.0,0.0107
1945.0,0.0107
1944.0,0.0107
1943.0,0.0107
1942.0,0.0107
1941.0,0.0107
1940.0,0.0107
1939.0,0.0107
1938.0,0.0107
1937.0,0.0107
1936.0,0.0107
1935.0,0.0107
1934.0,0.0107
1933.0,0.0107
1932.0,0.0106
1931.0,0.0107
1930.0,0.0108
1929.0,0.0108
1928.0,0.0108
1927.0,0.0108
1926.0,0.0107
1925.0,0.0107
1924.0,0.0108
1923.0,0.0108
1922.0,0.0109
1921.0,0.0109
1920.0,0.0109
1919.0,0.0109
1918.0,0.0108
1917.0,0.0108
1916.0,0.0108
1915.0,0.0108
1914.0,0.0109
1913.0,0.0109
1912.0,0.0109
1911.0,0.0109
1910.0,0.0108
1909.0,0.0108
1908.0,0.0108
1907.0,0.0109
1906.0,0.0109
1905.0,0.0109
1904.0,0.0109
1903.0,0.0109
1902.0,0.0109
1901.0,0.0109
1900.0,0.0109
1899.0,0.0109
1898.0,0.0109
1897.0,0.0109
1896.0,0.0109
1895.0,0.0109
1894.0,0.0109
1893.0,0.0109
1892.0,0.0109
1891.0,0.0109
1890.0,0.0108
1889.0,0.0108
1888.0,0.0109
1887.0,0.0109
1886.0,0.0109
1885.0,0.0109
1884.0,0.0109
1883.0,0.0109
1882.0,0.0109
1881.0,0.0109
1880.0,0.0109
1879.0,0.0109
1878.0,0.0109
1877.0,0.0109
1876.0,0.0109
1875.0,0.0109
1874.0,0.0109
1873.0,0.0109
1872.0,0.0108
1871.0,0.0108
1870.0,0.0107
1869.0,0.0107
1868.0,0.0107
1867.0,0.0107
1866.0,0.0107
1865.0,0.0108
1864.0,0.0108
1863.0,0.0108
1862.0,0.0108
1861.0,0.0109
1860.0,0.0109
1859.0,0.011
1858.0,0.011
1857.0,0.011
1856.0,0.0109
1855.0,0.0109
1854.0,0.0109
1853.0,0.0109
1852.0,0.0109
1851.0,0.0109
1850.0,0.0109
1849.0,0.011
1848.0,0.011
1847.0,0.011
1846.0,0.0111
1845.0,0.0111
1844.0,0.0111
1843.0,0.011
1842.0,0.011
1841.0,0.011
1840.0,0.011
1839.0,0.011
1838.0,0.011
1837.0,0.011
1836.0,0.0111
1835.0,0.011
1834.0,0.011
1833.0,0.011
1832.0,0.0109
1831.0,0.011
1830.0,0.011
1829.0,0.011
1828.0,0.011
1827.0,0.0111
1826.0,0.0111
1825.0,0.0111
1824.0,0.011
1823.0,0.011
1822.0,0.011
1821.0,0.011
1820.0,0.011
1819.0,0.011
1818.0,0.011
1817.0,0.011
1816.0,0.011
1815.0,0.011
1814.0,0.0109
1813.0,0.011
1812.0,0.011
1811.0,0.011
1810.0,0.011
1809.0,0.0111
1808.0,0.0111
1807.0,0.0111
1806.0,0.0111
1805.0,0.0111
1804.0,0.0111
1803.0,0.0111
1802.0,0.011
1801.0,0.011
1800.0,0.0111
1799.0,0.0111
1798.0,0.0111
1797.0,0.0112
1796.0,0.0112
1795.0,0.0113
1794.0,0.0112
1793.0,0.0112
1792.0,0.0113
1791.0,0.0113
1790.0,0.0113
1789.0,0.0114
1788.0,0.0114
1787.0,0.0114
1786.0,0.0114
1785.0,0.0114
1784.0,0.0114
1783.0,0.0113
1782.0,0.0113
1781.0,0.0112
1780.0,0.0113
1779.0,0.0113
1778.0,0.0114
1777.0,0.0114
1776.0,0.0114
1775.0,0.0115
1774.0,0.0115
1773.0,0.0115
1772.0,0.0115
1771.0,0.0115
1770.0,0.0116
1769.0,0.0117
1768.0,0.0117
1767.0,0.0117
1766.0,0.0117
1765.0,0.0118
1764.0,0.0119
1763.0,0.012
1762.0,0.012
1761.0,0.0121
1760.0,0.0122
1759.0,0.0123
1758.0,0.0124
1757.0,0.0126
1756.0,0.0128
1755.0,0.013
1754.0,0.0132
1753.0,0.0133
1752.0,0.0135
1751.0,0.0138
1750.0,0.0142
1749.0,0.0146
1748.0,0.0148
1747.0,0.015
1746.0,0.0152
1745.0,0.0153
1744.0,0.0155
1743.0,0.0157
1742.0,0.0157
1741.0,0.0158
1740.0,0.0158
1739.0,0.0157
1738.0,0.0157
1737.0,0.0156
1736.0,0.0155
1735.0,0.0154
1734.0,0.0152
1733.0,0.0149
1732.0,0.0148
1731.0,0.0147
1730.0,0.0146
1729.0,0.0145
1728.0,0.0145
1727.0,0.0145
1726.0,0.0145
1725.0,0.0145
1724.0,0.0145
1723.0,0.0145
1722.0,0.0144
1721.0,0.0143
1720.0,0.0142
1719.0,0.0142
1718.0,0.0142
1717.0,0.0142
1716.0,0.0142
1715.0,0.0142
1714.0,0.0142
1713.0,0.0142
1712.0,0.0142
1711.0,0.0141
1710.0,0.014
1709.0,0.014
1708.0,0.0141
1707.0,0.0141
1706.0,0.0141
1705.0,0.0141
1704.0,0.0142
1703.0,0.0142
1702.0,0.0142
1701.0,0.0142
1700.0,0.0142
1699.0,0.0143
1698.0,0.0144
1697.0,0.0145
1696.0,0.0146
1695.0,0.0144
1694.0,0.0144
1693.0,0.0144
1692.0,0.0144
1691.0,0.0144
1690.0,0.0144
1689.0,0.0144
1688.0,0.0145
1687.0,0.0145
1686.0,0.0144
1685.0,0.0144
1684.0,0.0147
1683.0,0.0148
1682.0,0.015
1681.0,0.0151
1680.0,0.0151
1679.0,0.0151
1678.0,0.0152
1677.0,0.0152
1676.0,0.0154
1675.0,0.0155
1674.0,0.0156
1673.0,0.0155
1672.0,0.0155
1671.0,0.0156
1670.0,0.0157
1669.0,0.0157
1668.0,0.0157
1667.0,0.0158
1666.0,0.0158
1665.0,0.0158
1664.0,0.0158
1663.0,0.0159
1662.0,0.016
1661.0,0.0161
1660.0,0.0161
1659.0,0.0162
1658.0,0.0162
1657.0,0.0163
1656.0,0.0163
1655.0,0.0164
1654.0,0.0166
1653.0,0.0168
1652.0,0.0166
1651.0,0.0166
1650.0,0.0166
1649.0,0.0166
1648.0,0.0167
1647.0,0.0169
1646.0,0.0171
1645.0,0.0171
1644.0,0.0171
1643.0,0.0172
1642.0,0.0172
1641.0,0.0172
1640.0,0.0172
1639.0,0.0171
1638.0,0.0171
1637.0,0.017
1636.0,0.0171
1635.0,0.017
1634.0,0.017
1633.0,0.017
1632.0,0.0169
1631.0,0.0168
1630.0,0.0167
1629.0,0.0166
1628.0,0.0165
1627.0,0.0165
1626.0,0.0164
1625.0,0.0165
1624.0,0.0165
1623.0,0.0165
1622.0,0.0165
1621.0,0.0165
1620.0,0.0165
1619.0,0.0165
1618.0,0.0164
1617.0,0.0164
1616.0,0.0164
1615.0,0.0163
1614.0,0.0164
1613.0,0.0163
1612.0,0.0163
1611.0,0.0163
1610.0,0.0164
1609.0,0.0165
1608.0,0.0166
1607.0,0.0166
1606.0,0.0167
1605.0,0.0168
1604.0,0.0168
1603.0,0.0169
1602.0,0.0169
1601.0,0.0169
1600.0,0.0169
1599.0,0.0168
1598.0,0.0168
1597.0,0.0167
1596.0,0.0167
1595.0,0.0167
1594.0,0.0167
1593.0,0.0168
1592.0,0.0168
1591.0,0.0168
1590.0,0.0168
1589.0,0.0167
1588.0,0.0168
1587.0,0.0168
1586.0,0.0169
1585.0,0.0169
1584.0,0.017
1583.0,0.0171
1582.0,0.0171
1581.0,0.0171
1580.0,0.0171
1579.0,0.0171
1578.0,0.017
1577.0,0.017
1576.0,0.0171
1575.0,0.0171
1574.0,0.017
1573.0,0.017
1572.0,0.017
1571.0,0.0169
1570.0,0.0169
1569.0,0.0168
1568.0,0.0167
1567.0,0.0166
1566.0,0.0164
1565.0,0.0163
1564.0,0.0163
1563.0,0.0163
1562.0,0.0163
1561.0,0.0162
1560.0,0.0162
1559.0,0.0163
1558.0,0.0159
1557.0,0.0158
1556.0,0.0158
1555.0,0.0156
1554.0,0.0155
1553.0,0.0154
1552.0,0.0153
1551.0,0.0151
1550.0,0.015
1549.0,0.0149
1548.0,0.0149
1547.0,0.0148
1546.0,0.0147
1545.0,0.0146
1544.0,0.0145
1543.0,0.0143
1542.0,0.0141
1541.0,0.014
1540.0,0.014
1539.0,0.0137
1538.0,0.0136
1537.0,0.0137
1536.0,0.0138
1535.0,0.0137
1534.0,0.0135
1533.0,0.0133
1532.0,0.0132
1531.0,0.0132
1530.0,0.0131
1529.0,0.013
1528.0,0.013
1527.0,0.0128
1526.0,0.0127
1525.0,0.0126
1524.0,0.0127
1523.0,0.0127
1522.0,0.0128
1521.0,0.0128
1520.0,0.0127
1519.0,0.0126
1518.0,0.0125
1517.0,0.0125
1516.0,0.0126
1515.0,0.0125
1514.0,0.0125
1513.0,0.0125
1512.0,0.0125
1511.0,0.0125
1510.0,0.0124
1509.0,0.0123
1508.0,0.0125
1507.0,0.0126
1506.0,0.0125
1505.0,0.0126
1504.0,0.0128
1503.0,0.0128
1502.0,0.0128
1501.0,0.0128
1500.0,0.0129
1499.0,0.013
1498.0,0.0132
1497.0,0.0137
1496.0,0.0142
1495.0,0.0144
1494.0,0.0145
1493.0,0.0146
1492.0,0.0147
1491.0,0.0145
1490.0,0.0143
1489.0,0.0143
1488.0,0.0144
1487.0,0.0145
1486.0,0.0146
1485.0,0.0149
1484.0,0.0153
1483.0,0.0156
1482.0,0.0161
1481.0,0.0167
1480.0,0.0175
1479.0,0.0183
1478.0,0.0193
1477.0,0.021
1476.0,0.0234
1475.0,0.0263
1474.0,0.0301
1473.0,0.0354
1472.0,0.0409
1471.0,0.0452
1470.0,0.0491
1469.0,0.0532
1468.0,0.0577
1467.0,0.0629
1466.0,0.0694
1465.0,0.0772
1464.0,0.0838
1463.0,0.088
1462.0,0.0903
1461.0,0.0918
1460.0,0.0927
1459.0,0.0934
1458.0,0.0952
1457.0,0.0979
1456.0,0.0997
1455.0,0.1001
1454.0,0.1001
1453.0,0.0998
1452.0,0.0988
1451.0,0.0971
1450.0,0.0945
1449.0,0.0904
1448.0,0.0848
1447.0,0.0788
1446.0,0.0733
1445.0,0.0684
1444.0,0.0639
1443.0,0.06
1442.0,0.0569
1441.0,0.0547
1440.0,0.0531
1439.0,0.0522
1438.0,0.052
1437.0,0.0522
1436.0,0.0517
1435.0,0.0502
1434.0,0.0478
1433.0,0.0449
1432.0,0.0416
1431.0,0.0385
1430.0,0.036
1429.0,0.0342
1428.0,0.0328
1427.0,0.0319
1426.0,0.0312
1425.0,0.0304
1424.0,0.0296
1423.0,0.0291
1422.0,0.0288
1421.0,0.0284
1420.0,0.0278
1419.0,0.0273
1418.0,0.027
1417.0,0.0266
1416.0,0.0263
1415.0,0.026
1414.0,0.0257
1413.0,0.0254
1412.0,0.025
1411.0,0.0247
1410.0,0.0245
1409.0,0.0243
1408.0,0.024
1407.0,0.0238
1406.0,0.0235
1405.0,0.0232
1404.0,0.0228
1403.0,0.0226
1402.0,0.0224
1401.0,0.0222
1400.0,0.0219
1399.0,0.0218
1398.0,0.0219
1397.0,0.0217
1396.0,0.0215
1395.0,0.0215
1394.0,0.0215
1393.0,0.0214
1392.0,0.0213
1391.0,0.0214
1390.0,0.0217
1389.0,0.0222
1388.0,0.023
1387.0,0.0247
1386.0,0.0272
1385.0,0.0306
1384.0,0.0357
1383.0,0.043
1382.0,0.0531
1381.0,0.066
1380.0,0.0821
1379.0,0.1006
1378.0,0.1184
1377.0,0.1318
1376.0,0.1374
1375.0,0.1331
1374.0,0.1203
1373.0,0.1049
1372.0,0.091
1371.0,0.0791
1370.0,0.0689
1369.0,0.0606
1368.0,0.0546
1367.0,0.0507
1366.0,0.0484
1365.0,0.0471
1364.0,0.0469
1363.0,0.0476
1362.0,0.049
1361.0,0.0506
1360.0,0.0518
1359.0,0.0521
1358.0,0.0515
1357.0,0.0498
1356.0,0.0474
1355.0,0.0447
1354.0,0.042
1353.0,0.0397
1352.0,0.0378
1351.0,0.0362
1350.0,0.0348
1349.0,0.0336
1348.0,0.0326
1347.0,0.0317
1346.0,0.0309
1345.0,0.0302
1344.0,0.0296
1343.0,0.0291
1342.0,0.0287
1341.0,0.0283
1340.0,0.028
1339.0,0.0277
1338.0,0.0275
1337.0,0.0274
1336.0,0.0273
1335.0,0.0274
1334.0,0.0275
1333.0,0.0277
1332.0,0.028
1331.0,0.0283
1330.0,0.0284
1329.0,0.0283
1328.0,0.0281
1327.0,0.0278
1326.0,0.0274
1325.0,0.027
1324.0,0.0266
1323.0,0.0262
1322.0,0.0258
1321.0,0.0255
1320.0,0.0253
1319.0,0.0251
1318.0,0.0249
1317.0,0.0248
1316.0,0.0246
1315.0,0.0245
1314.0,0.0243
1313.0,0.0243
1312.0,0.0243
1311.0,0.0244
1310.0,0.0247
1309.0,0.0251
1308.0,0.0257
1307.0,0.0265
1306.0,0.0273
1305.0,0.028
1304.0,0.0282
1303.0,0.0281
1302.0,0.0277
1301.0,0.0273
1300.0,0.027
1299.0,0.0269
1298.0,0.0269
1297.0,0.027
1296.0,0.027
1295.0,0.0268
1294.0,0.0265
1293.0,0.0262
1292.0,0.0258
1291.0,0.0255
1290.0,0.0252
1289.0,0.0249
1288.0,0.0247
1287.0,0.0245
1286.0,0.0243
1285.0,0.0242
1284.0,0.024
1283.0,0.0238
1282.0,0.0237
1281.0,0.0236
1280.0,0.0235
1279.0,0.0234
1278.0,0.0234
1277.0,0.0233
1276.0,0.0233
1275.0,0.0233
1274.0,0.0233
1273.0,0.0232
1272.0,0.0232
1271.0,0.0232
1270.0,0.0232
1269.0,0.0232
1268.0,0.0233
1267.0,0.0234
1266.0,0.0235
1265.0,0.0237
1264.0,0.0239
1263.0,0.0241
1262.0,0.0243
1261.0,0.0246
1260.0,0.0251
1259.0,0.0256
1258.0,0.0262
1257.0,0.0268
1256.0,0.0271
1255.0,0.0271
1254.0,0.0268
1253.0,0.0262
1252.0,0.0255
1251.0,0.025
1250.0,0.0246
1249.0,0.0243
1248.0,0.0241
1247.0,0.024
1246.0,0.0238
1245.0,0.0237
1244.0,0.0236
1243.0,0.0234
1242.0,0.0233
1241.0,0.0232
1240.0,0.0232
1239.0,0.0231
1238.0,0.0231
1237.0,0.0231
1236.0,0.0231
1235.0,0.0231
1234.0,0.023
1233.0,0.0229
1232.0,0.0228
1231.0,0.0228
1230.0,0.0228
1229.0,0.0228
1228.0,0.023
1227.0,0.0232
1226.0,0.0233
1225.0,0.0234
1224.0,0.0236
1223.0,0.0238
1222.0,0.024
1221.0,0.0242
1220.0,0.0244
1219.0,0.0244
1218.0,0.0244
1217.0,0.0243
1216.0,0.0242
1215.0,0.0241
1214.0,0.0239
1213.0,0.0237
1212.0,0.0236
1211.0,0.0234
1210.0,0.0233
1209.0,0.0232
1208.0,0.0232
1207.0,0.0232
1206.0,0.0233
1205.0,0.0234
1204.0,0.0236
1203.0,0.0238
1202.0,0.024
1201.0,0.0241
1200.0,0.0243
1199.0,0.0244
1198.0,0.0246
1197.0,0.0247
1196.0,0.0248
1195.0,0.0249
1194.0,0.025
1193.0,0.0251
1192.0,0.0252
1191.0,0.0253
1190.0,0.0255
1189.0,0.0258
1188.0,0.026
1187.0,0.0263
1186.0,0.0265
1185.0,0.0267
1184.0,0.0269
1183.0,0.0269
1182.0,0.0269
1181.0,0.027
1180.0,0.027
1179.0,0.0271
1178.0,0.0274
1177.0,0.0278
1176.0,0.0284
1175.0,0.0295
1174.0,0.0309
1173.0,0.0328
1172.0,0.0351
1171.0,0.0378
1170.0,0.0403
1169.0,0.0425
1168.0,0.0438
1167.0,0.0442
1166.0,0.0437
1165.0,0.0427
1164.0,0.0415
1163.0,0.0402
1162.0,0.0389
1161.0,0.0378
1160.0,0.0369
1159.0,0.0363
1158.0,0.0358
1157.0,0.0355
1156.0,0.0353
1155.0,0.0351
1154.0,0.0349
1153.0,0.0347
1152.0,0.0344
1151.0,0.034
1150.0,0.0334
1149.0,0.0328
1148.0,0.0322
1147.0,0.0316
1146.0,0.0311
1145.0,0.0307
1144.0,0.0303
1143.0,0.03
1142.0,0.0297
1141.0,0.0295
1140.0,0.0294
1139.0,0.0293
1138.0,0.0291
1137.0,0.0289
1136.0,0.0285
1135.0,0.0281
1134.0,0.0277
1133.0,0.0275
1132.0,0.0273
1131.0,0.0272
1130.0,0.0271
1129.0,0.0271
1128.0,0.0271
1127.0,0.0271
1126.0,0.0271
1125.0,0.0271
1124.0,0.027
1123.0,0.0269
1122.0,0.0268
1121.0,0.0267
1120.0,0.0266
1119.0,0.0266
1118.0,0.0266
1117.0,0.0265
1116.0,0.0264
1115.0,0.0264
1114.0,0.0263
1113.0,0.0263
1112.0,0.0263
1111.0,0.0263
1110.0,0.0264
1109.0,0.0266
1108.0,0.0268
1107.0,0.0272
1106.0,0.0278
1105.0,0.0283
1104.0,0.0288
1103.0,0.0291
1102.0,0.0291
1101.0,0.0288
1100.0,0.0284
1099.0,0.028
1098.0,0.0275
1097.0,0.0271
1096.0,0.0268
1095.0,0.0265
1094.0,0.0262
1093.0,0.0259
1092.0,0.0257
1091.0,0.0255
1090.0,0.0253
1089.0,0.0252
1088.0,0.025
1087.0,0.0249
1086.0,0.0247
1085.0,0.0246
1084.0,0.0245
1083.0,0.0245
1082.0,0.0244
1081.0,0.0243
1080.0,0.0243
1079.0,0.0242
1078.0,0.0243
1077.0,0.0243
1076.0,0.0243
1075.0,0.0242
1074.0,0.0242
1073.0,0.0242
1072.0,0.0242
1071.0,0.0242
1070.0,0.0242
1069.0,0.0241
1068.0,0.0241
1067.0,0.0241
1066.0,0.0241
1065.0,0.0242
1064.0,0.0242
1063.0,0.0242
1062.0,0.0242
1061.0,0.0242
1060.0,0.0242
1059.0,0.0241
1058.0,0.0241
1057.0,0.0242
1056.0,0.0243
1055.0,0.0244
1054.0,0.0245
1053.0,0.0246
1052.0,0.0248
1051.0,0.025
1050.0,0.0252
1049.0,0.0255
1048.0,0.0257
1047.0,0.026
1046.0,0.0261
1045.0,0.0261
1044.0,0.026
1043.0,0.0257
1042.0,0.0254
1041.0,0.025
1040.0,0.0247
1039.0,0.0245
1038.0,0.0243
1037.0,0.0243
1036.0,0.0243
1035.0,0.0243
1034.0,0.0243
1033.0,0.0243
1032.0,0.0243
1031.0,0.0244
1030.0,0.0245
1029.0,0.0246
1028.0,0.0246
1027.0,0.0248
1026.0,0.0249
1025.0,0.0251
1024.0,0.0253
1023.0,0.0254
1022.0,0.0255
1021.0,0.0256
1020.0,0.0257
1019.0,0.0258
1018.0,0.0258
1017.0,0.0258
1016.0,0.0257
1015.0,0.0254
1014.0,0.025
1013.0,0.0246
1012.0,0.0242
1011.0,0.024
1010.0,0.0238
1009.0,0.0239
1008.0,0.0241
1007.0,0.0245
1006.0,0.0251
1005.0,0.0259
1004.0,0.0269
1003.0,0.0286
1002.0,0.031
1001.0,0.0341
1000.0,0.0376
999.0,0.0408
998.0,0.0427
997.0,0.0428
996.0,0.0412
995.0,0.0385
994.0,0.0355
993.0,0.0327
992.0,0.0305
991.0,0.0288
990.0,0.0277
989.0,0.027
988.0,0.0264
987.0,0.026
986.0,0.0257
985.0,0.0257
984.0,0.0258
983.0,0.0263
982.0,0.027
981.0,0.0282
980.0,0.0298
979.0,0.032
978.0,0.0347
977.0,0.0381
976.0,0.0418
975.0,0.0455
974.0,0.0485
973.0,0.0499
972.0,0.0495
971.0,0.0472
970.0,0.0438
969.0,0.0402
968.0,0.0371
967.0,0.0346
966.0,0.0327
965.0,0.0313
964.0,0.0301
963.0,0.0293
962.0,0.0286
961.0,0.0281
960.0,0.0276
959.0,0.0272
958.0,0.0269
957.0,0.0267
956.0,0.0265
955.0,0.0263
954.0,0.0261
953.0,0.0259
952.0,0.0257
951.0,0.0256
950.0,0.0257
949.0,0.0257
948.0,0.0257
947.0,0.0257
946.0,0.0257
945.0,0.0258
944.0,0.026
943.0,0.0262
942.0,0.0265
941.0,0.0266
940.0,0.0267
939.0,0.0266
938.0,0.0263
937.0,0.0259
936.0,0.0255
935.0,0.0253
934.0,0.0251
933.0,0.025
932.0,0.0249
931.0,0.0248
930.0,0.0247
929.0,0.0245
928.0,0.0244
927.0,0.0244
926.0,0.0243
925.0,0.0243
924.0,0.0243
923.0,0.0243
922.0,0.0243
921.0,0.0243
920.0,0.0244
919.0,0.0244
918.0,0.0243
917.0,0.0242
916.0,0.0242
915.0,0.0243
914.0,0.0244
913.0,0.0244
912.0,0.0245
911.0,0.0246
910.0,0.0248
909.0,0.025
908.0,0.0253
907.0,0.0256
906.0,0.026
905.0,0.0267
904.0,0.0277
903.0,0.0291
902.0,0.0307
901.0,0.0323
900.0,0.0335
899.0,0.0341
898.0,0.0339
897.0,0.0329
896.0,0.0316
895.0,0.0302
894.0,0.0291
893.0,0.0282
892.0,0.0276
891.0,0.0272
890.0,0.0269
889.0,0.0267
888.0,0.0265
887.0,0.0264
886.0,0.0263
885.0,0.0262
884.0,0.0261
883.0,0.0261
882.0,0.0262
881.0,0.0264
880.0,0.0267
879.0,0.0271
878.0,0.0277
877.0,0.0282
876.0,0.0284
875.0,0.0285
874.0,0.0283
873.0,0.0281
872.0,0.0278
871.0,0.0274
870.0,0.0271
869.0,0.0268
868.0,0.0266
867.0,0.0265
866.0,0.0265
865.0,0.0265
864.0,0.0266
863.0,0.0266
862.0,0.0266
861.0,0.0266
860.0,0.0266
859.0,0.0266
858.0,0.0266
857.0,0.0267
856.0,0.0269
855.0,0.027
854.0,0.0271
853.0,0.0272
852.0,0.0274
851.0,0.0277
850.0,0.0279
849.0,0.0283
848.0,0.0287
847.0,0.0294
846.0,0.0306
845.0,0.0328
844.0,0.0362
843.0,0.0404
842.0,0.0441
841.0,0.0458
840.0,0.0449
839.0,0.042
838.0,0.0386
837.0,0.0357
836.0,0.0338
835.0,0.0324
834.0,0.0315
833.0,0.0307
832.0,0.0302
831.0,0.0298
830.0,0.0295
829.0,0.0292
828.0,0.029
827.0,0.0287
826.0,0.0286
825.0,0.0285
824.0,0.0285
823.0,0.0286
822.0,0.0286
821.0,0.0287
820.0,0.0288
819.0,0.0289
818.0,0.0291
817.0,0.0294
816.0,0.0299
815.0,0.0307
814.0,0.0317
813.0,0.0332
812.0,0.0347
811.0,0.0362
810.0,0.0374
809.0,0.038
808.0,0.0379
807.0,0.0373
806.0,0.0363
805.0,0.0352
804.0,0.0341
803.0,0.0332
802.0,0.0325
801.0,0.032
800.0,0.0315
799.0,0.0312
798.0,0.0309
797.0,0.0306
796.0,0.0304
795.0,0.0302
794.0,0.03
793.0,0.0298
792.0,0.0296
791.0,0.0295
790.0,0.0293
789.0,0.0293
788.0,0.0292
787.0,0.0292
786.0,0.0291
785.0,0.029
784.0,0.0288
783.0,0.0287
782.0,0.0286
781.0,0.0285
780.0,0.0284
779.0,0.0283
778.0,0.0283
777.0,0.0284
776.0,0.0285
775.0,0.0287
774.0,0.0289
773.0,0.0293
772.0,0.0296
771.0,0.0298
770.0,0.0298
769.0,0.0298
768.0,0.0299
767.0,0.0301
766.0,0.0304
765.0,0.0306
764.0,0.0308
763.0,0.0309
762.0,0.031
761.0,0.0311
760.0,0.0313
759.0,0.0315
758.0,0.0317
757.0,0.0318
756.0,0.0318
755.0,0.0318
754.0,0.0318
753.0,0.0318
752.0,0.0318
751.0,0.032
750.0,0.0323
749.0,0.0327
748.0,0.0329
747.0,0.033
746.0,0.0329
745.0,0.0327
744.0,0.0325
743.0,0.0326
742.0,0.0329
741.0,0.0332
740.0,0.0334
739.0,0.0334
738.0,0.0333
737.0,0.0335
736.0,0.0338
735.0,0.0343
734.0,0.0352
733.0,0.0366
732.0,0.0384
731.0,0.04
730.0,0.0408
729.0,0.0407
728.0,0.0399
727.0,0.0391
726.0,0.0387
725.0,0.0388
724.0,0.0392
723.0,0.0401
722.0,0.0415
721.0,0.0429
720.0,0.0439
719.0,0.0437
718.0,0.0426
717.0,0.0413
716.0,0.04
715.0,0.0391
714.0,0.0387
713.0,0.0385
712.0,0.0384
711.0,0.0382
710.0,0.0379
709.0,0.0379
708.0,0.0383
707.0,0.0391
706.0,0.0401
705.0,0.0411
704.0,0.0423
703.0,0.0435
702.0,0.0448
701.0,0.0459
700.0,0.0468
699.0,0.0473
698.0,0.0474
697.0,0.047
696.0,0.0459
695.0,0.0444
694.0,0.043
693.0,0.042
692.0,0.0413
691.0,0.0403
690.0,0.039
689.0,0.038
688.0,0.0377
687.0,0.0383
686.0,0.0392
685.0,0.0401
684.0,0.0406
683.0,0.0408
682.0,0.0405
681.0,0.04
680.0,0.0396
679.0,0.0394
678.0,0.0395
677.0,0.0395
676.0,0.0396
675.0,0.04
674.0,0.0405
673.0,0.0407
672.0,0.0402
671.0,0.0385
670.0,0.0356
669.0,0.0328
668.0,0.0317
667.0,0.0334
666.0,0.0364
665.0,0.0385
664.0,0.0388
663.0,0.0384
662.0,0.038
661.0,0.0383
660.0,0.0388
659.0,0.0391
658.0,0.039
657.0,0.0386
656.0,0.038
655.0,0.0375
654.0,0.0373
653.0,0.0374
652.0,0.0375
651.0,0.0376
650.0,0.0378
649.0,0.0381
648.0,0.0383
647.0,0.0383
646.0,0.0382
645.0,0.038
644.0,0.0376
643.0,0.0372
642.0,0.0371
641.0,0.0376
640.0,0.0386
639.0,0.0394
638.0,0.0399
637.0,0.0405
636.0,0.0412
635.0,0.0419
634.0,0.0419
633.0,0.0411
632.0,0.04
631.0,0.0391
630.0,0.0388
629.0,0.039
628.0,0.0395
627.0,0.0397
626.0,0.0394
625.0,0.0387
624.0,0.0382
623.0,0.038
622.0,0.0382
621.0,0.0384
620.0,0.0386
619.0,0.0387
618.0,0.0386
617.0,0.0381
616.0,0.0377
615.0,0.0376
614.0,0.0383
613.0,0.0393
612.0,0.0402
611.0,0.0404
610.0,0.0402
609.0,0.04
608.0,0.0399
607.0,0.0395
606.0,0.0388
605.0,0.038
604.0,0.0377
603.0,0.0379
602.0,0.038
601.0,0.0375
600.0,0.0366
