cm-1,A
4000.0,-0.0003
3999.0,-0.0003
3998.0,-0.0003
3997.0,-0.0003
3996.0,-0.0003
3995.0,-0.0003
3994.0,-0.0003
3993.0,-0.0003
3992.0,-0.0003
3991.0,-0.0003
3990.0,-0.0003
3989.0,-0.0003
3988.0,-0.0003
3987.0,-0.0003
3986.0,-0.0002
3985.0,-0.0002
3984.0,-0.0001
3983.0,-0.0001
3982.0,-0.0001
3981.0,-0.0
3980.0,-0.0
3979.0,0.0
3978.0,0.0
3977.0,0.0
3976.0,-0.0
3975.0,-0.0001
3974.0,-0.0001
3973.0,-0.0001
3972.0,-0.0001
3971.0,-0.0001
3970.0,-0.0001
3969.0,-0.0002
3968.0,-0.0002
3967.0,-0.0002
3966.0,-0.0002
3965.0,-0.0002
3964.0,-0.0002
3963.0,-0.0002
3962.0,-0.0002
3961.0,-0.0002
3960.0,-0.0002
3959.0,-0.0002
3958.0,-0.0002
3957.0,-0.0002
3956.0,-0.0002
3955.0,-0.0002
3954.0,-0.0002
3953.0,-0.0002
3952.0,-0.0002
3951.0,-0.0003
3950.0,-0.0003
3949.0,-0.0003
3948.0,-0.0002
3947.0,-0.0002
3946.0,-0.0001
3945.0,-0.0001
3944.0,-0.0001
3943.0,-0.0001
3942.0,-0.0001
3941.0,-0.0001
3940.0,-0.0001
3939.0,-0.0
3938.0,-0.0
3937.0,-0.0
3936.0,-0.0
3935.0,-0.0
3934.0,-0.0
3933.0,-0.0001
3932.0,-0.0001
3931.0,-0.0002
3930.0,-0.0002
3929.0,-0.0003
3928.0,-0.0003
3927.0,-0.0002
3926.0,-0.0001
3925.0,0.0
3924.0,0.0001
3923.0,0.0002
3922.0,0.0001
3921.0,0.0
3920.0,-0.0001
3919.0,-0.0001
3918.0,-0.0001
3917.0,0.0
3916.0,0.0
3915.0,-0.0
3914.0,-0.0001
3913.0,-0.0002
3912.0,-0.0002
3911.0,-0.0002
3910.0,-0.0002
3909.0,-0.0
3908.0,0.0001
3907.0,0.0001
3906.0,0.0001
3905.0,0.0
3904.0,-0.0001
3903.0,-0.0001
3902.0,0.0
3901.0,0.0001
3900.0,0.0001
3899.0,0.0001
3898.0,0.0
3897.0,-0.0
3896.0,-0.0
3895.0,-0.0
3894.0,0.0
3893.0,0.0001
3892.0,0.0002
3891.0,0.0002
3890.0,0.0001
3889.0,0.0
3888.0,-0.0
3887.0,-0.0001
3886.0,0.0
3885.0,0.0001
3884.0,0.0001
3883.0,0.0
3882.0,-0.0
3881.0,0.0
3880.0,0.0001
3879.0,0.0001
3878.0,0.0001
3877.0,0.0001
3876.0,0.0001
3875.0,0.0002
3874.0,0.0002
3873.0,0.0003
3872.0,0.0003
3871.0,0.0004
3870.0,0.0005
3869.0,0.0006
3868.0,0.0005
3867.0,0.0004
3866.0,0.0003
3865.0,0.0002
3864.0,0.0002
3863.0,0.0002
3862.0,0.0002
3861.0,0.0001
3860.0,0.0001
3859.0,0.0001
3858.0,0.0001
3857.0,0.0
3856.0,-0.0
3855.0,-0.0002
3854.0,-0.0003
3853.0,-0.0003
3852.0,-0.0003
3851.0,-0.0003
3850.0,-0.0002
3849.0,-0.0002
3848.0,-0.0001
3847.0,-0.0001
3846.0,-0.0
3845.0,0.0
3844.0,0.0001
3843.0,0.0001
3842.0,0.0001
3841.0,0.0001
3840.0,0.0001
3839.0,0.0001
3838.0,0.0002
3837.0,0.0003
3836.0,0.0003
3835.0,0.0002
3834.0,0.0
3833.0,-0.0001
3832.0,-0.0001
3831.0,0.0
3830.0,0.0001
3829.0,0.0002
3828.0,0.0002
3827.0,0.0003
3826.0,0.0004
3825.0,0.0005
3824.0,0.0005
3823.0,0.0004
3822.0,0.0003
3821.0,0.0002
3820.0,0.0002
3819.0,0.0002
3818.0,0.0002
3817.0,0.0002
3816.0,0.0001
3815.0,-0.0
3814.0,-0.0001
3813.0,-0.0002
3812.0,-0.0001
3811.0,0.0
3810.0,0.0002
3809.0,0.0003
3808.0,0.0004
3807.0,0.0003
3806.0,0.0003
3805.0,0.0002
3804.0,0.0002
3803.0,0.0002
3802.0,0.0003
3801.0,0.0002
3800.0,0.0002
3799.0,0.0001
3798.0,0.0
3797.0,-0.0
3796.0,-0.0001
3795.0,-0.0001
3794.0,-0.0001
3793.0,-0.0001
3792.0,-0.0
3791.0,0.0001
3790.0,0.0001
3789.0,0.0002
3788.0,0.0002
3787.0,0.0002
3786.0,0.0002
3785.0,0.0002
3784.0,0.0002
3783.0,0.0002
3782.0,0.0003
3781.0,0.0003
3780.0,0.0002
3779.0,0.0001
3778.0,0.0
3777.0,-0.0
3776.0,-0.0001
3775.0,-0.0
3774.0,0.0
3773.0,0.0001
3772.0,0.0002
3771.0,0.0002
3770.0,0.0003
3769.0,0.0003
3768.0,0.0002
3767.0,0.0002
3766.0,0.0002
3765.0,0.0002
3764.0,0.0002
3763.0,0.0002
3762.0,0.0002
3761.0,0.0002
3760.0,0.0001
3759.0,0.0001
3758.0,0.0001
3757.0,0.0001
3756.0,0.0002
3755.0,0.0004
3754.0,0.0005
3753.0,0.0006
3752.0,0.0005
3751.0,0.0004
3750.0,0.0003
3749.0,0.0002
3748.0,0.0001
3747.0,0.0
3746.0,0.0
3745.0,0.0001
3744.0,0.0001
3743.0,0.0002
3742.0,0.0001
3741.0,0.0002
3740.0,0.0002
3739.0,0.0003
3738.0,0.0003
3737.0,0.0003
3736.0,0.0002
3735.0,0.0002
3734.0,0.0002
3733.0,0.0002
3732.0,0.0002
3731.0,0.0001
3730.0,0.0001
3729.0,0.0001
3728.0,0.0
3727.0,0.0
3726.0,0.0
3725.0,0.0
3724.0,0.0
3723.0,0.0
3722.0,0.0001
3721.0,0.0001
3720.0,0.0002
3719.0,0.0002
3718.0,0.0002
3717.0,0.0002
3716.0,0.0002
3715.0,0.0003
3714.0,0.0003
3713.0,0.0002
3712.0,0.0002
3711.0,0.0003
3710.0,0.0003
3709.0,0.0002
3708.0,0.0002
3707.0,0.0001
3706.0,0.0001
3705.0,0.0001
3704.0,0.0
3703.0,-0.0001
3702.0,-0.0002
3701.0,-0.0002
3700.0,-0.0002
3699.0,-0.0002
3698.0,-0.0003
3697.0,-0.0002
3696.0,-0.0002
3695.0,-0.0001
3694.0,-0.0
3693.0,-0.0
3692.0,-0.0001
3691.0,-0.0002
3690.0,-0.0003
3689.0,-0.0003
3688.0,-0.0003
3687.0,-0.0004
3686.0,-0.0004
3685.0,-0.0004
3684.0,-0.0004
3683.0,-0.0003
3682.0,-0.0003
3681.0,-0.0002
3680.0,-0.0002
3679.0,-0.0002
3678.0,-0.0003
3677.0,-0.0005
3676.0,-0.0005
3675.0,-0.0005
3674.0,-0.0005
3673.0,-0.0006
3672.0,-0.0007
3671.0,-0.0007
3670.0,-0.0006
3669.0,-0.0005
3668.0,-0.0004
3667.0,-0.0005
3666.0,-0.0005
3665.0,-0.0005
3664.0,-0.0005
3663.0,-0.0005
3662.0,-0.0004
3661.0,-0.0004
3660.0,-0.0003
3659.0,-0.0003
3658.0,-0.0002
3657.0,-0.0001
3656.0,0.0
3655.0,0.0001
3654.0,0.0002
3653.0,0.0003
3652.0,0.0003
3651.0,0.0003
3650.0,0.0003
3649.0,0.0003
3648.0,0.0002
3647.0,0.0
3646.0,-0.0001
3645.0,-0.0002
3644.0,-0.0003
3643.0,-0.0003
3642.0,-0.0002
3641.0,-0.0002
3640.0,-0.0002
3639.0,-0.0002
3638.0,-0.0003
3637.0,-0.0003
3636.0,-0.0003
3635.0,-0.0002
3634.0,-0.0
3633.0,0.0002
3632.0,0.0002
3631.0,0.0001
3630.0,-0.0
3629.0,-0.0
3628.0,0.0001
3627.0,0.0001
3626.0,0.0002
3625.0,0.0002
3624.0,0.0003
3623.0,0.0003
3622.0,0.0003
3621.0,0.0002
3620.0,0.0002
3619.0,0.0002
3618.0,0.0002
3617.0,0.0001
3616.0,0.0001
3615.0,0.0001
3614.0,0.0001
3613.0,0.0002
3612.0,0.0002
3611.0,0.0002
3610.0,0.0002
3609.0,0.0002
3608.0,0.0002
3607.0,0.0003
3606.0,0.0002
3605.0,0.0002
3604.0,0.0002
3603.0,0.0002
3602.0,0.0002
3601.0,0.0003
3600.0,0.0004
3599.0,0.0003
3598.0,0.0002
3597.0,0.0
3596.0,-0.0001
3595.0,-0.0
3594.0,0.0001
3593.0,0.0002
3592.0,0.0002
3591.0,0.0002
3590.0,0.0002
3589.0,0.0002
3588.0,0.0003
3587.0,0.0003
3586.0,0.0003
3585.0,0.0002
3584.0,0.0001
3583.0,0.0001
3582.0,0.0002
3581.0,0.0002
3580.0,0.0002
3579.0,0.0002
3578.0,0.0002
3577.0,0.0001
3576.0,0.0001
3575.0,0.0001
3574.0,0.0001
3573.0,0.0002
3572.0,0.0003
3571.0,0.0003
3570.0,0.0003
3569.0,0.0002
3568.0,0.0002
3567.0,0.0003
3566.0,0.0004
3565.0,0.0005
3564.0,0.0005
3563.0,0.0004
3562.0,0.0003
3561.0,0.0003
3560.0,0.0003
3559.0,0.0003
3558.0,0.0003
3557.0,0.0003
3556.0,0.0002
3555.0,0.0002
3554.0,0.0002
3553.0,0.0002
3552.0,0.0002
3551.0,0.0002
3550.0,0.0002
3549.0,0.0002
3548.0,0.0002
3547.0,0.0002
3546.0,0.0003
3545.0,0.0002
3544.0,0.0002
3543.0,0.0002
3542.0,0.0002
3541.0,0.0002
3540.0,0.0002
3539.0,0.0002
3538.0,0.0002
3537.0,0.0002
3536.0,0.0002
3535.0,0.0002
3534.0,0.0002
3533.0,0.0002
3532.0,0.0002
3531.0,0.0002
3530.0,0.0002
3529.0,0.0003
3528.0,0.0003
3527.0,0.0004
3526.0,0.0004
3525.0,0.0004
3524.0,0.0004
3523.0,0.0004
3522.0,0.0004
3521.0,0.0004
3520.0,0.0005
3519.0,0.0005
3518.0,0.0005
3517.0,0.0005
3516.0,0.0005
3515.0,0.0004
3514.0,0.0004
3513.0,0.0004
3512.0,0.0003
3511.0,0.0004
3510.0,0.0004
3509.0,0.0005
3508.0,0.0005
3507.0,0.0005
3506.0,0.0005
3505.0,0.0004
3504.0,0.0004
3503.0,0.0004
3502.0,0.0005
3501.0,0.0004
3500.0,0.0004
3499.0,0.0003
3498.0,0.0002
3497.0,0.0003
3496.0,0.0004
3495.0,0.0006
3494.0,0.0006
3493.0,0.0006
3492.0,0.0005
3491.0,0.0004
3490.0,0.0003
3489.0,0.0003
3488.0,0.0002
3487.0,0.0002
3486.0,0.0002
3485.0,0.0002
3484.0,0.0002
3483.0,0.0002
3482.0,0.0003
3481.0,0.0004
3480.0,0.0004
3479.0,0.0004
3478.0,0.0004
3477.0,0.0003
3476.0,0.0003
3475.0,0.0003
3474.0,0.0003
3473.0,0.0002
3472.0,0.0002
3471.0,0.0003
3470.0,0.0003
3469.0,0.0004
3468.0,0.0005
3467.0,0.0005
3466.0,0.0005
3465.0,0.0004
3464.0,0.0003
3463.0,0.0002
3462.0,0.0002
3461.0,0.0002
3460.0,0.0003
3459.0,0.0003
3458.0,0.0002
3457.0,0.0002
3456.0,0.0001
3455.0,0.0002
3454.0,0.0002
3453.0,0.0003
3452.0,0.0004
3451.0,0.0004
3450.0,0.0004
3449.0,0.0003
3448.0,0.0002
3447.0,0.0002
3446.0,0.0003
3445.0,0.0004
3444.0,0.0005
3443.0,0.0005
3442.0,0.0005
3441.0,0.0005
3440.0,0.0005
3439.0,0.0005
3438.0,0.0005
3437.0,0.0005
3436.0,0.0006
3435.0,0.0006
3434.0,0.0006
3433.0,0.0006
3432.0,0.0007
3431.0,0.0007
3430.0,0.0008
3429.0,0.0008
3428.0,0.0007
3427.0,0.0007
3426.0,0.0006
3425.0,0.0006
3424.0,0.0006
3423.0,0.0006
3422.0,0.0006
3421.0,0.0006
3420.0,0.0006
3419.0,0.0005
3418.0,0.0004
3417.0,0.0004
3416.0,0.0004
3415.0,0.0005
3414.0,0.0005
3413.0,0.0005
3412.0,0.0004
3411.0,0.0003
3410.0,0.0003
3409.0,0.0003
3408.0,0.0003
3407.0,0.0005
3406.0,0.0006
3405.0,0.0007
3404.0,0.0007
3403.0,0.0007
3402.0,0.0007
3401.0,0.0007
3400.0,0.0006
3399.0,0.0006
3398.0,0.0007
3397.0,0.0007
3396.0,0.0006
3395.0,0.0005
3394.0,0.0004
3393.0,0.0004
3392.0,0.0005
3391.0,0.0006
3390.0,0.0007
3389.0,0.0007
3388.0,0.0006
3387.0,0.0005
3386.0,0.0005
3385.0,0.0005
3384.0,0.0006
3383.0,0.0006
3382.0,0.0007
3381.0,0.0007
3380.0,0.0007
3379.0,0.0007
3378.0,0.0007
3377.0,0.0006
3376.0,0.0005
3375.0,0.0005
3374.0,0.0005
3373.0,0.0005
3372.0,0.0006
3371.0,0.0006
3370.0,0.0007
3369.0,0.0008
3368.0,0.0008
3367.0,0.0007
3366.0,0.0005
3365.0,0.0004
3364.0,0.0004
3363.0,0.0004
3362.0,0.0005
3361.0,0.0005
3360.0,0.0006
3359.0,0.0006
3358.0,0.0006
3357.0,0.0006
3356.0,0.0005
3355.0,0.0004
3354.0,0.0004
3353.0,0.0005
3352.0,0.0005
3351.0,0.0005
3350.0,0.0006
3349.0,0.0006
3348.0,0.0005
3347.0,0.0005
3346.0,0.0005
3345.0,0.0005
3344.0,0.0004
3343.0,0.0004
3342.0,0.0004
3341.0,0.0004
3340.0,0.0004
3339.0,0.0005
3338.0,0.0005
3337.0,0.0006
3336.0,0.0006
3335.0,0.0006
3334.0,0.0006
3333.0,0.0005
3332.0,0.0005
3331.0,0.0006
3330.0,0.0006
3329.0,0.0007
3328.0,0.0007
3327.0,0.0007
3326.0,0.0007
3325.0,0.0006
3324.0,0.0005
3323.0,0.0005
3322.0,0.0005
3321.0,0.0005
3320.0,0.0006
3319.0,0.0006
3318.0,0.0006
3317.0,0.0005
3316.0,0.0005
3315.0,0.0005
3314.0,0.0005
3313.0,0.0006
3312.0,0.0007
3311.0,0.0008
3310.0,0.0008
3309.0,0.0008
3308.0,0.0007
3307.0,0.0007
3306.0,0.0007
3305.0,0.0006
3304.0,0.0006
3303.0,0.0006
3302.0,0.0006
3301.0,0.0008
3300.0,0.0008
3299.0,0.0008
3298.0,0.0007
3297.0,0.0006
3296.0,0.0004
3295.0,0.0004
3294.0,0.0003
3293.0,0.0004
3292.0,0.0004
3291.0,0.0004
3290.0,0.0005
3289.0,0.0005
3288.0,0.0005
3287.0,0.0005
3286.0,0.0005
3285.0,0.0005
3284.0,0.0005
3283.0,0.0005
3282.0,0.0005
3281.0,0.0005
3280.0,0.0005
3279.0,0.0005
3278.0,0.0005
3277.0,0.0004
3276.0,0.0004
3275.0,0.0004
3274.0,0.0005
3273.0,0.0005
3272.0,0.0005
3271.0,0.0005
3270.0,0.0005
3269.0,0.0005
3268.0,0.0006
3267.0,0.0006
3266.0,0.0006
3265.0,0.0006
3264.0,0.0005
3263.0,0.0005
3262.0,0.0005
3261.0,0.0005
3260.0,0.0006
3259.0,0.0006
3258.0,0.0006
3257.0,0.0005
3256.0,0.0004
3255.0,0.0004
3254.0,0.0004
3253.0,0.0005
3252.0,0.0006
3251.0,0.0006
3250.0,0.0005
3249.0,0.0005
3248.0,0.0005
3247.0,0.0006
3246.0,0.0006
3245.0,0.0007
3244.0,0.0007
3243.0,0.0007
3242.0,0.0008
3241.0,0.0008
3240.0,0.0007
3239.0,0.0006
3238.0,0.0005
3237.0,0.0005
3236.0,0.0005
3235.0,0.0004
3234.0,0.0004
3233.0,0.0004
3232.0,0.0004
3231.0,0.0004
3230.0,0.0004
3229.0,0.0004
3228.0,0.0004
3227.0,0.0003
3226.0,0.0003
3225.0,0.0003
3224.0,0.0003
3223.0,0.0004
3222.0,0.0004
3221.0,0.0004
3220.0,0.0003
3219.0,0.0003
3218.0,0.0003
3217.0,0.0003
3216.0,0.0004
3215.0,0.0004
3214.0,0.0005
3213.0,0.0005
3212.0,0.0006
3211.0,0.0006
3210.0,0.0005
3209.0,0.0005
3208.0,0.0004
3207.0,0.0004
3206.0,0.0004
3205.0,0.0004
3204.0,0.0004
3203.0,0.0003
3202.0,0.0003
3201.0,0.0003
3200.0,0.0004
3199.0,0.0005
3198.0,0.0005
3197.0,0.0005
3196.0,0.0004
3195.0,0.0005
3194.0,0.0005
3193.0,0.0006
3192.0,0.0006
3191.0,0.0006
3190.0,0.0006
3189.0,0.0006
3188.0,0.0006
3187.0,0.0006
3186.0,0.0006
3185.0,0.0005
3184.0,0.0005
3183.0,0.0005
3182.0,0.0005
3181.0,0.0005
3180.0,0.0005
3179.0,0.0006
3178.0,0.0005
3177.0,0.0005
3176.0,0.0004
3175.0,0.0004
3174.0,0.0004
3173.0,0.0005
3172.0,0.0005
3171.0,0.0005
3170.0,0.0004
3169.0,0.0004
3168.0,0.0004
3167.0,0.0005
3166.0,0.0005
3165.0,0.0004
3164.0,0.0004
3163.0,0.0004
3162.0,0.0003
3161.0,0.0003
3160.0,0.0004
3159.0,0.0005
3158.0,0.0006
3157.0,0.0006
3156.0,0.0006
3155.0,0.0005
3154.0,0.0005
3153.0,0.0004
3152.0,0.0004
3151.0,0.0005
3150.0,0.0005
3149.0,0.0004
3148.0,0.0003
3147.0,0.0003
3146.0,0.0002
3145.0,0.0003
3144.0,0.0003
3143.0,0.0004
3142.0,0.0004
3141.0,0.0005
3140.0,0.0005
3139.0,0.0004
3138.0,0.0004
3137.0,0.0004
3136.0,0.0004
3135.0,0.0004
3134.0,0.0004
3133.0,0.0005
3132.0,0.0005
3131.0,0.0005
3130.0,0.0006
3129.0,0.0005
3128.0,0.0005
3127.0,0.0004
3126.0,0.0004
3125.0,0.0005
3124.0,0.0005
3123.0,0.0006
3122.0,0.0006
3121.0,0.0006
3120.0,0.0006
3119.0,0.0005
3118.0,0.0003
3117.0,0.0002
3116.0,0.0002
3115.0,0.0002
3114.0,0.0002
3113.0,0.0002
3112.0,0.0003
3111.0,0.0003
3110.0,0.0004
3109.0,0.0004
3108.0,0.0004
3107.0,0.0004
3106.0,0.0004
3105.0,0.0004
3104.0,0.0004
3103.0,0.0005
3102.0,0.0004
3101.0,0.0004
3100.0,0.0003
3099.0,0.0003
3098.0,0.0002
3097.0,0.0002
3096.0,0.0002
3095.0,0.0003
3094.0,0.0003
3093.0,0.0004
3092.0,0.0004
3091.0,0.0003
3090.0,0.0003
3089.0,0.0002
3088.0,0.0002
3087.0,0.0002
3086.0,0.0002
3085.0,0.0001
3084.0,0.0001
3083.0,0.0001
3082.0,0.0001
3081.0,0.0
3080.0,0.0
3079.0,0.0
3078.0,0.0
3077.0,0.0001
3076.0,0.0001
3075.0,0.0001
3074.0,0.0002
3073.0,0.0002
3072.0,0.0003
3071.0,0.0003
3070.0,0.0003
3069.0,0.0002
3068.0,0.0002
3067.0,0.0002
3066.0,0.0001
3065.0,0.0001
3064.0,0.0001
3063.0,0.0001
3062.0,0.0
3061.0,0.0
3060.0,0.0
3059.0,0.0
3058.0,0.0
3057.0,0.0
3056.0,-0.0
3055.0,-0.0
3054.0,-0.0
3053.0,0.0
3052.0,0.0001
3051.0,0.0001
3050.0,0.0001
3049.0,0.0001
3048.0,0.0
3047.0,-0.0
3046.0,-0.0001
3045.0,-0.0001
3044.0,-0.0001
3043.0,-0.0001
3042.0,-0.0
3041.0,-0.0
3040.0,-0.0
3039.0,-0.0001
3038.0,-0.0001
3037.0,-0.0002
3036.0,-0.0002
3035.0,-0.0003
3034.0,-0.0003
3033.0,-0.0003
3032.0,-0.0003
3031.0,-0.0004
3030.0,-0.0004
3029.0,-0.0004
3028.0,-0.0005
3027.0,-0.0005
3026.0,-0.0006
3025.0,-0.0006
3024.0,-0.0006
3023.0,-0.0006
3022.0,-0.0005
3021.0,-0.0005
3020.0,-0.0006
3019.0,-0.0006
3018.0,-0.0007
3017.0,-0.0008
3016.0,-0.0009
3015.0,-0.001
3014.0,-0.0011
3013.0,-0.0011
3012.0,-0.0011
3011.0,-0.0011
3010.0,-0.0012
3009.0,-0.0013
3008.0,-0.0013
3007.0,-0.0014
3006.0,-0.0014
3005.0,-0.0014
3004.0,-0.0015
3003.0,-0.0015
3002.0,-0.0016
3001.0,-0.0017
3000.0,-0.0018
2999.0,-0.0018
2998.0,-0.0018
2997.0,-0.0017
2996.0,-0.0017
2995.0,-0.0017
2994.0,-0.0017
2993.0,-0.0018
2992.0,-0.0019
2991.0,-0.002
2990.0,-0.0021
2989.0,-0.0021
2988.0,-0.0021
2987.0,-0.002
2986.0,-0.0019
2985.0,-0.0019
2984.0,-0.0018
2983.0,-0.0017
2982.0,-0.0017
2981.0,-0.0016
2980.0,-0.0015
2979.0,-0.0014
2978.0,-0.0012
2977.0,-0.0009
2976.0,-0.0007
2975.0,-0.0005
2974.0,-0.0002
2973.0,0.0001
2972.0,0.0006
2971.0,0.0011
2970.0,0.0018
2969.0,0.0025
2968.0,0.0032
2967.0,0.0039
2966.0,0.0047
2965.0,0.0055
2964.0,0.0064
2963.0,0.0071
2962.0,0.0077
2961.0,0.0082
2960.0,0.0085
2959.0,0.0087
2958.0,0.0088
2957.0,0.0089
2956.0,0.009
2955.0,0.0092
2954.0,0.0095
2953.0,0.0099
2952.0,0.0102
2951.0,0.0103
2950.0,0.0102
2949.0,0.0099
2948.0,0.0094
2947.0,0.0087
2946.0,0.0079
2945.0,0.0071
2944.0,0.0064
2943.0,0.0057
2942.0,0.0052
2941.0,0.0048
2940.0,0.0046
2939.0,0.0045
2938.0,0.0045
2937.0,0.0046
2936.0,0.0048
2935.0,0.005
2934.0,0.0053
2933.0,0.0057
2932.0,0.0061
2931.0,0.0066
2930.0,0.0071
2929.0,0.0077
2928.0,0.0082
2927.0,0.0088
2926.0,0.0092
2925.0,0.0096
2924.0,0.0099
2923.0,0.0102
2922.0,0.0106
2921.0,0.011
2920.0,0.0113
2919.0,0.0115
2918.0,0.0116
2917.0,0.0115
2916.0,0.0113
2915.0,0.011
2914.0,0.0106
2913.0,0.0102
2912.0,0.0099
2911.0,0.0096
2910.0,0.0094
2909.0,0.0092
2908.0,0.009
2907.0,0.0088
2906.0,0.0086
2905.0,0.0084
2904.0,0.0081
2903.0,0.0078
2902.0,0.0074
2901.0,0.0071
2900.0,0.0068
2899.0,0.0066
2898.0,0.0064
2897.0,0.0062
2896.0,0.0059
2895.0,0.0057
2894.0,0.0055
2893.0,0.0053
2892.0,0.0053
2891.0,0.0053
2890.0,0.0053
2889.0,0.0053
2888.0,0.0054
2887.0,0.0054
2886.0,0.0055
2885.0,0.0056
2884.0,0.0057
2883.0,0.0058
2882.0,0.0059
2881.0,0.006
2880.0,0.0062
2879.0,0.0063
2878.0,0.0064
2877.0,0.0064
2876.0,0.0063
2875.0,0.0062
2874.0,0.0062
2873.0,0.0062
2872.0,0.0063
2871.0,0.0065
2870.0,0.0067
2869.0,0.0068
2868.0,0.0069
2867.0,0.0069
2866.0,0.0067
2865.0,0.0065
2864.0,0.0061
2863.0,0.0057
2862.0,0.0053
2861.0,0.0049
2860.0,0.0045
2859.0,0.0042
2858.0,0.0039
2857.0,0.0038
2856.0,0.0037
2855.0,0.0037
2854.0,0.0037
2853.0,0.0037
2852.0,0.0037
2851.0,0.0037
2850.0,0.0039
2849.0,0.0041
2848.0,0.0044
2847.0,0.0048
2846.0,0.0052
2845.0,0.0056
2844.0,0.0061
2843.0,0.0065
2842.0,0.007
2841.0,0.0074
2840.0,0.0079
2839.0,0.0082
2838.0,0.0084
2837.0,0.0083
2836.0,0.0081
2835.0,0.0077
2834.0,0.0072
2833.0,0.0066
2832.0,0.0061
2831.0,0.0056
2830.0,0.0052
2829.0,0.0048
2828.0,0.0045
2827.0,0.0043
2826.0,0.0041
2825.0,0.004
2824.0,0.0039
2823.0,0.0039
2822.0,0.0038
2821.0,0.0037
2820.0,0.0036
2819.0,0.0035
2818.0,0.0034
2817.0,0.0033
2816.0,0.0032
2815.0,0.0032
2814.0,0.0031
2813.0,0.0031
2812.0,0.003
2811.0,0.003
2810.0,0.003
2809.0,0.003
2808.0,0.003
2807.0,0.003
2806.0,0.003
2805.0,0.0029
2804.0,0.0028
2803.0,0.0027
2802.0,0.0026
2801.0,0.0026
2800.0,0.0026
2799.0,0.0026
2798.0,0.0026
2797.0,0.0027
2796.0,0.0027
2795.0,0.0027
2794.0,0.0026
2793.0,0.0026
2792.0,0.0025
2791.0,0.0024
2790.0,0.0024
2789.0,0.0024
2788.0,0.0025
2787.0,0.0025
2786.0,0.0024
2785.0,0.0024
2784.0,0.0024
2783.0,0.0024
2782.0,0.0024
2781.0,0.0024
2780.0,0.0024
2779.0,0.0023
2778.0,0.0023
2777.0,0.0022
2776.0,0.0022
2775.0,0.0022
2774.0,0.0022
2773.0,0.0022
2772.0,0.0022
2771.0,0.0022
2770.0,0.0022
2769.0,0.0022
2768.0,0.0022
2767.0,0.0021
2766.0,0.002
2765.0,0.002
2764.0,0.002
2763.0,0.0019
2762.0,0.0019
2761.0,0.002
2760.0,0.002
2759.0,0.002
2758.0,0.002
2757.0,0.002
2756.0,0.002
2755.0,0.002
2754.0,0.002
2753.0,0.002
2752.0,0.0021
2751.0,0.002
2750.0,0.002
2749.0,0.002
2748.0,0.002
2747.0,0.0019
2746.0,0.0019
2745.0,0.0019
2744.0,0.0019
2743.0,0.0019
2742.0,0.0019
2741.0,0.0019
2740.0,0.0019
2739.0,0.0019
2738.0,0.002
2737.0,0.0021
2736.0,0.0022
2735.0,0.0022
2734.0,0.0022
2733.0,0.0021
2732.0,0.0021
2731.0,0.002
2730.0,0.002
2729.0,0.002
2728.0,0.0021
2727.0,0.0021
2726.0,0.0022
2725.0,0.0022
2724.0,0.0023
2723.0,0.0023
2722.0,0.0022
2721.0,0.0022
2720.0,0.0021
2719.0,0.0021
2718.0,0.0021
2717.0,0.0021
2716.0,0.0021
2715.0,0.0021
2714.0,0.002
2713.0,0.002
2712.0,0.0019
2711.0,0.0019
2710.0,0.0019
2709.0,0.0019
2708.0,0.0019
2707.0,0.0019
2706.0,0.0019
2705.0,0.002
2704.0,0.002
2703.0,0.002
2702.0,0.0019
2701.0,0.0019
2700.0,0.0018
2699.0,0.0018
2698.0,0.0019
2697.0,0.0019
2696.0,0.0019
2695.0,0.0019
2694.0,0.002
2693.0,0.002
2692.0,0.002
2691.0,0.002
2690.0,0.002
2689.0,0.002
2688.0,0.0021
2687.0,0.0021
2686.0,0.0021
2685.0,0.002
2684.0,0.002
2683.0,0.002
2682.0,0.002
2681.0,0.0021
2680.0,0.0021
2679.0,0.0021
2678.0,0.0021
2677.0,0.0021
2676.0,0.0021
2675.0,0.0021
2674.0,0.002
2673.0,0.002
2672.0,0.002
2671.0,0.002
2670.0,0.0019
2669.0,0.0019
2668.0,0.0019
2667.0,0.0019
2666.0,0.0019
2665.0,0.0019
2664.0,0.002
2663.0,0.002
2662.0,0.002
2661.0,0.002
2660.0,0.002
2659.0,0.002
2658.0,0.002
2657.0,0.002
2656.0,0.0019
2655.0,0.0019
2654.0,0.0018
2653.0,0.0019
2652.0,0.0019
2651.0,0.0019
2650.0,0.0019
2649.0,0.0019
2648.0,0.0019
2647.0,0.0019
2646.0,0.0019
2645.0,0.0019
2644.0,0.0019
2643.0,0.0019
2642.0,0.0019
2641.0,0.0019
2640.0,0.0019
2639.0,0.002
2638.0,0.0019
2637.0,0.0019
2636.0,0.0018
2635.0,0.0018
2634.0,0.0018
2633.0,0.0019
2632.0,0.0019
2631.0,0.0019
2630.0,0.0019
2629.0,0.0018
2628.0,0.0018
2627.0,0.0018
2626.0,0.0019
2625.0,0.002
2624.0,0.002
2623.0,0.0021
2622.0,0.0021
2621.0,0.0021
2620.0,0.002
2619.0,0.002
2618.0,0.0019
2617.0,0.0019
2616.0,0.0018
2615.0,0.0018
2614.0,0.0018
2613.0,0.0019
2612.0,0.0019
2611.0,0.0019
2610.0,0.0019
2609.0,0.0019
2608.0,0.0019
2607.0,0.0019
2606.0,0.0019
2605.0,0.0019
2604.0,0.0019
2603.0,0.0019
2602.0,0.0019
2601.0,0.002
2600.0,0.002
2599.0,0.002
2598.0,0.002
2597.0,0.0019
2596.0,0.0018
2595.0,0.0018
2594.0,0.0018
2593.0,0.0018
2592.0,0.0018
2591.0,0.0019
2590.0,0.0019
2589.0,0.0019
2588.0,0.0019
2587.0,0.0019
2586.0,0.002
2585.0,0.0019
2584.0,0.0019
2583.0,0.0019
2582.0,0.002
2581.0,0.002
2580.0,0.002
2579.0,0.002
2578.0,0.002
2577.0,0.002
2576.0,0.002
2575.0,0.002
2574.0,0.002
2573.0,0.002
2572.0,0.002
2571.0,0.002
2570.0,0.002
2569.0,0.0019
2568.0,0.0019
2567.0,0.0019
2566.0,0.0019
2565.0,0.0019
2564.0,0.0018
2563.0,0.0018
2562.0,0.0019
2561.0,0.0019
2560.0,0.0019
2559.0,0.0019
2558.0,0.0019
2557.0,0.002
2556.0,0.002
2555.0,0.002
2554.0,0.002
2553.0,0.002
2552.0,0.002
2551.0,0.002
2550.0,0.0019
2549.0,0.0019
2548.0,0.0019
2547.0,0.0019
2546.0,0.0019
2545.0,0.002
2544.0,0.002
2543.0,0.002
2542.0,0.002
2541.0,0.0019
2540.0,0.0019
2539.0,0.0019
2538.0,0.0019
2537.0,0.0019
2536.0,0.0019
2535.0,0.0019
2534.0,0.0019
2533.0,0.0018
2532.0,0.0018
2531.0,0.0018
2530.0,0.0018
2529.0,0.0018
2528.0,0.0018
2527.0,0.0018
2526.0,0.0018
2525.0,0.0019
2524.0,0.0019
2523.0,0.0019
2522.0,0.0019
2521.0,0.0018
2520.0,0.0018
2519.0,0.0019
2518.0,0.0019
2517.0,0.0019
2516.0,0.0018
2515.0,0.0018
2514.0,0.0019
2513.0,0.0019
2512.0,0.0019
2511.0,0.0019
2510.0,0.0019
2509.0,0.0019
2508.0,0.0018
2507.0,0.0018
2506.0,0.0018
2505.0,0.0019
2504.0,0.0019
2503.0,0.0019
2502.0,0.0019
2501.0,0.0019
2500.0,0.002
2499.0,0.002
2498.0,0.002
2497.0,0.0019
2496.0,0.0019
2495.0,0.0018
2494.0,0.0018
2493.0,0.0017
2492.0,0.0018
2491.0,0.0018
2490.0,0.0018
2489.0,0.0018
2488.0,0.0017
2487.0,0.0018
2486.0,0.0018
2485.0,0.0019
2484.0,0.0019
2483.0,0.002
2482.0,0.0019
2481.0,0.0019
2480.0,0.0019
2479.0,0.0019
2478.0,0.0019
2477.0,0.0019
2476.0,0.0019
2475.0,0.0019
2474.0,0.0019
2473.0,0.0018
2472.0,0.0018
2471.0,0.0018
2470.0,0.0019
2469.0,0.0019
2468.0,0.0019
2467.0,0.0019
2466.0,0.0019
2465.0,0.0019
2464.0,0.0018
2463.0,0.0017
2462.0,0.0018
2461.0,0.0018
2460.0,0.0018
2459.0,0.0018
2458.0,0.0018
2457.0,0.0019
2456.0,0.0019
2455.0,0.0019
2454.0,0.0019
2453.0,0.0019
2452.0,0.0019
2451.0,0.0019
2450.0,0.0019
2449.0,0.0019
2448.0,0.0019
2447.0,0.0019
2446.0,0.0019
2445.0,0.0019
2444.0,0.0019
2443.0,0.0018
2442.0,0.0018
2441.0,0.0018
2440.0,0.0018
2439.0,0.0018
2438.0,0.0018
2437.0,0.0018
2436.0,0.0018
2435.0,0.0018
2434.0,0.0018
2433.0,0.0018
2432.0,0.0018
2431.0,0.0018
2430.0,0.0019
2429.0,0.0019
2428.0,0.0019
2427.0,0.0019
2426.0,0.0019
2425.0,0.0019
2424.0,0.0019
2423.0,0.0019
2422.0,0.0019
2421.0,0.0019
2420.0,0.0019
2419.0,0.0019
2418.0,0.0019
2417.0,0.0019
2416.0,0.0019
2415.0,0.0019
2414.0,0.0019
2413.0,0.0018
2412.0,0.0018
2411.0,0.0018
2410.0,0.0018
2409.0,0.0019
2408.0,0.0019
2407.0,0.002
2406.0,0.002
2405.0,0.002
2404.0,0.0019
2403.0,0.0019
2402.0,0.0019
2401.0,0.0019
2400.0,0.0019
2399.0,0.0018
2398.0,0.0018
2397.0,0.0018
2396.0,0.0018
2395.0,0.0018
2394.0,0.0019
2393.0,0.0019
2392.0,0.002
2391.0,0.002
2390.0,0.002
2389.0,0.002
2388.0,0.0019
2387.0,0.0018
2386.0,0.0018
2385.0,0.0018
2384.0,0.0019
2383.0,0.002
2382.0,0.0022
2381.0,0.0023
2380.0,0.0025
2379.0,0.0026
2378.0,0.0026
2377.0,0.0025
2376.0,0.0024
2375.0,0.002
2374.0,0.0016
2373.0,0.0014
2372.0,0.0015
2371.0,0.0019
2370.0,0.0024
2369.0,0.0026
2368.0,0.0024
2367.0,0.002
2366.0,0.0018
2365.0,0.0019
2364.0,0.0017
2363.0,0.0007
2362.0,-0.0013
2361.0,-0.0036
2360.0,-0.0048
2359.0,-0.0036
2358.0,-0.0004
2357.0,0.0026
2356.0,0.004
2355.0,0.0042
2354.0,0.0044
2353.0,0.0046
2352.0,0.0044
2351.0,0.0037
2350.0,0.0029
2349.0,0.0024
2348.0,0.0023
2347.0,0.0026
2346.0,0.0028
2345.0,0.0029
2344.0,0.0026
2343.0,0.0024
2342.0,0.0023
2341.0,0.0025
2340.0,0.0028
2339.0,0.0029
2338.0,0.003
2337.0,0.003
2336.0,0.0033
2335.0,0.0039
2334.0,0.0045
2333.0,0.0051
2332.0,0.0051
2331.0,0.0048
2330.0,0.0045
2329.0,0.004
2328.0,0.0035
2327.0,0.0028
2326.0,0.0023
2325.0,0.0022
2324.0,0.0025
2323.0,0.0028
2322.0,0.0028
2321.0,0.0025
2320.0,0.0023
2319.0,0.0022
2318.0,0.0023
2317.0,0.0023
2316.0,0.0024
2315.0,0.0024
2314.0,0.0025
2313.0,0.0025
2312.0,0.0025
2311.0,0.0025
2310.0,0.0025
2309.0,0.0025
2308.0,0.0026
2307.0,0.0026
2306.0,0.0026
2305.0,0.0025
2304.0,0.0024
2303.0,0.0023
2302.0,0.0022
2301.0,0.0021
2300.0,0.0021
2299.0,0.0021
2298.0,0.002
2297.0,0.0019
2296.0,0.0019
2295.0,0.0019
2294.0,0.002
2293.0,0.002
2292.0,0.002
2291.0,0.0021
2290.0,0.0021
2289.0,0.0021
2288.0,0.0021
2287.0,0.002
2286.0,0.0019
2285.0,0.0018
2284.0,0.0017
2283.0,0.0017
2282.0,0.0017
2281.0,0.0018
2280.0,0.0018
2279.0,0.0019
2278.0,0.0019
2277.0,0.002
2276.0,0.002
2275.0,0.002
2274.0,0.002
2273.0,0.002
2272.0,0.002
2271.0,0.0019
2270.0,0.0019
2269.0,0.0019
2268.0,0.0018
2267.0,0.0019
2266.0,0.0019
2265.0,0.002
2264.0,0.002
2263.0,0.0021
2262.0,0.002
2261.0,0.002
2260.0,0.0019
2259.0,0.0019
2258.0,0.0019
2257.0,0.002
2256.0,0.0021
2255.0,0.0022
2254.0,0.0022
2253.0,0.0022
2252.0,0.0021
2251.0,0.002
2250.0,0.002
2249.0,0.002
2248.0,0.002
2247.0,0.0019
2246.0,0.002
2245.0,0.002
2244.0,0.0021
2243.0,0.0021
2242.0,0.0021
2241.0,0.0021
2240.0,0.002
2239.0,0.002
2238.0,0.002
2237.0,0.002
2236.0,0.0021
2235.0,0.0021
2234.0,0.0021
2233.0,0.0021
2232.0,0.0021
2231.0,0.0021
2230.0,0.0021
2229.0,0.0021
2228.0,0.0021
2227.0,0.0021
2226.0,0.0021
2225.0,0.0021
2224.0,0.0021
2223.0,0.002
2222.0,0.002
2221.0,0.002
2220.0,0.002
2219.0,0.002
2218.0,0.0019
2217.0,0.0019
2216.0,0.0019
2215.0,0.0019
2214.0,0.0019
2213.0,0.0019
2212.0,0.002
2211.0,0.002
2210.0,0.0021
2209.0,0.0021
2208.0,0.0022
2207.0,0.0022
2206.0,0.0021
2205.0,0.0021
2204.0,0.0021
2203.0,0.0021
2202.0,0.0021
2201.0,0.0022
2200.0,0.0022
2199.0,0.0022
2198.0,0.0022
2197.0,0.0022
2196.0,0.0021
2195.0,0.0021
2194.0,0.0022
2193.0,0.0022
2192.0,0.0023
2191.0,0.0022
2190.0,0.0022
2189.0,0.0022
2188.0,0.0022
2187.0,0.0022
2186.0,0.0021
2185.0,0.0021
2184.0,0.0021
2183.0,0.0021
2182.0,0.0021
2181.0,0.0022
2180.0,0.0022
2179.0,0.0022
2178.0,0.0022
2177.0,0.0022
2176.0,0.0023
2175.0,0.0023
2174.0,0.0023
2173.0,0.0023
2172.0,0.0023
2171.0,0.0023
2170.0,0.0023
2169.0,0.0023
2168.0,0.0023
2167.0,0.0022
2166.0,0.0022
2165.0,0.0022
2164.0,0.0022
2163.0,0.0023
2162.0,0.0023
2161.0,0.0023
2160.0,0.0023
2159.0,0.0023
2158.0,0.0023
2157.0,0.0024
2156.0,0.0024
2155.0,0.0024
2154.0,0.0023
2153.0,0.0023
2152.0,0.0023
2151.0,0.0023
2150.0,0.0022
2149.0,0.0022
2148.0,0.0021
2147.0,0.0021
2146.0,0.0021
2145.0,0.0022
2144.0,0.0023
2143.0,0.0023
2142.0,0.0023
2141.0,0.0022
2140.0,0.0022
2139.0,0.0022
2138.0,0.0022
2137.0,0.0022
2136.0,0.0022
2135.0,0.0023
2134.0,0.0023
2133.0,0.0023
2132.0,0.0023
2131.0,0.0023
2130.0,0.0022
2129.0,0.0022
2128.0,0.0022
2127.0,0.0022
2126.0,0.0022
2125.0,0.0022
2124.0,0.0022
2123.0,0.0022
2122.0,0.0022
2121.0,0.0021
2120.0,0.0021
2119.0,0.0022
2118.0,0.0022
2117.0,0.0022
2116.0,0.0022
2115.0,0.0022
2114.0,0.0023
2113.0,0.0023
2112.0,0.0023
2111.0,0.0023
2110.0,0.0022
2109.0,0.0022
2108.0,0.0022
2107.0,0.0022
2106.0,0.0022
2105.0,0.0022
2104.0,0.0022
2103.0,0.0022
2102.0,0.0022
2101.0,0.0023
2100.0,0.0023
2099.0,0.0023
2098.0,0.0023
2097.0,0.0023
2096.0,0.0023
2095.0,0.0023
2094.0,0.0022
2093.0,0.0023
2092.0,0.0023
2091.0,0.0024
2090.0,0.0024
2089.0,0.0025
2088.0,0.0025
2087.0,0.0025
2086.0,0.0025
2085.0,0.0024
2084.0,0.0024
2083.0,0.0023
2082.0,0.0023
2081.0,0.0023
2080.0,0.0023
2079.0,0.0022
2078.0,0.0023
2077.0,0.0023
2076.0,0.0024
2075.0,0.0024
2074.0,0.0024
2073.0,0.0024
2072.0,0.0024
2071.0,0.0024
2070.0,0.0024
2069.0,0.0023
2068.0,0.0023
2067.0,0.0024
2066.0,0.0024
2065.0,0.0024
2064.0,0.0024
2063.0,0.0024
2062.0,0.0024
2061.0,0.0024
2060.0,0.0024
2059.0,0.0024
2058.0,0.0024
2057.0,0.0024
2056.0,0.0024
2055.0,0.0024
2054.0,0.0024
2053.0,0.0023
2052.0,0.0023
2051.0,0.0023
2050.0,0.0024
2049.0,0.0024
2048.0,0.0025
2047.0,0.0024
2046.0,0.0024
2045.0,0.0023
2044.0,0.0023
2043.0,0.0024
2042.0,0.0024
2041.0,0.0024
2040.0,0.0025
2039.0,0.0025
2038.0,0.0024
2037.0,0.0024
2036.0,0.0025
2035.0,0.0025
2034.0,0.0026
2033.0,0.0026
2032.0,0.0026
2031.0,0.0026
2030.0,0.0026
2029.0,0.0026
2028.0,0.0026
2027.0,0.0026
2026.0,0.0026
2025.0,0.0026
2024.0,0.0026
2023.0,0.0026
2022.0,0.0026
2021.0,0.0026
2020.0,0.0026
2019.0,0.0027
2018.0,0.0027
2017.0,0.0027
2016.0,0.0027
2015.0,0.0026
2014.0,0.0026
2013.0,0.0026
2012.0,0.0026
2011.0,0.0025
2010.0,0.0025
2009.0,0.0025
2008.0,0.0025
2007.0,0.0026
2006.0,0.0026
2005.0,0.0026
2004.0,0.0026
2003.0,0.0026
2002.0,0.0026
2001.0,0.0026
2000.0,0.0026
1999.0,0.0027
1998.0,0.0027
1997.0,0.0027
1996.0,0.0027
1995.0,0.0027
1994.0,0.0026
1993.0,0.0026
1992.0,0.0026
1991.0,0.0026
1990.0,0.0025
1989.0,0.0025
1988.0,0.0025
1987.0,0.0025
1986.0,0.0026
1985.0,0.0026
1984.0,0.0026
1983.0,0.0027
1982.0,0.0027
1981.0,0.0026
1980.0,0.0027
1979.0,0.0027
1978.0,0.0027
1977.0,0.0027
1976.0,0.0027
1975.0,0.0027
1974.0,0.0027
1973.0,0.0027
1972.0,0.0027
1971.0,0.0026
1970.0,0.0026
1969.0,0.0026
1968.0,0.0026
1967.0,0.0026
1966.0,0.0026
1965.0,0.0026
1964.0,0.0027
1963.0,0.0027
1962.0,0.0028
1961.0,0.0028
1960.0,0.0028
1959.0,0.0028
1958.0,0.0027
1957.0,0.0026
1956.0,0.0026
1955.0,0.0026
1954.0,0.0026
1953.0,0.0026
1952.0,0.0026
1951.0,0.0027
1950.0,0.0027
1949.0,0.0028
1948.0,0.0028
1947.0,0.0027
1946.0,0.0027
1945.0,0.0027
1944.0,0.0028
1943.0,0.0028
1942.0,0.0028
1941.0,0.0027
1940.0,0.0027
1939.0,0.0027
1938.0,0.0027
1937.0,0.0027
1936.0,0.0027
1935.0,0.0027
1934.0,0.0028
1933.0,0.0028
1932.0,0.0028
1931.0,0.0027
1930.0,0.0028
1929.0,0.0028
1928.0,0.0028
1927.0,0.0028
1926.0,0.0028
1925.0,0.0028
1924.0,0.0029
1923.0,0.0029
1922.0,0.0029
1921.0,0.0029
1920.0,0.0028
1919.0,0.0028
1918.0,0.0028
1917.0,0.0028
1916.0,0.0028
1915.0,0.0028
1914.0,0.0028
1913.0,0.0028
1912.0,0.0028
1911.0,0.0028
1910.0,0.0028
1909.0,0.0028
1908.0,0.0028
1907.0,0.0028
1906.0,0.0028
1905.0,0.0028
1904.0,0.0028
1903.0,0.0028
1902.0,0.0029
1901.0,0.0029
1900.0,0.0029
1899.0,0.0029
1898.0,0.0029
1897.0,0.0029
1896.0,0.0028
1895.0,0.0028
1894.0,0.0028
1893.0,0.0028
1892.0,0.0028
1891.0,0.0029
1890.0,0.0029
1889.0,0.003
1888.0,0.003
1887.0,0.0029
1886.0,0.0029
1885.0,0.0029
1884.0,0.0029
1883.0,0.0029
1882.0,0.0029
1881.0,0.0029
1880.0,0.0029
1879.0,0.003
1878.0,0.003
1877.0,0.003
1876.0,0.003
1875.0,0.003
1874.0,0.003
1873.0,0.0031
1872.0,0.0031
1871.0,0.003
1870.0,0.003
1869.0,0.0029
1868.0,0.0029
1867.0,0.003
1866.0,0.003
1865.0,0.0031
1864.0,0.0031
1863.0,0.0031
1862.0,0.0031
1861.0,0.0031
1860.0,0.003
1859.0,0.003
1858.0,0.0031
1857.0,0.0031
1856.0,0.0031
1855.0,0.0031
1854.0,0.003
1853.0,0.003
1852.0,0.003
1851.0,0.003
1850.0,0.003
1849.0,0.003
1848.0,0.0031
1847.0,0.0031
1846.0,0.0031
1845.0,0.0031
1844.0,0.0031
1843.0,0.0032
1842.0,0.0032
1841.0,0.0032
1840.0,0.0031
1839.0,0.0031
1838.0,0.0032
1837.0,0.0032
1836.0,0.0032
1835.0,0.0032
1834.0,0.0032
1833.0,0.0032
1832.0,0.0031
1831.0,0.0031
1830.0,0.003
1829.0,0.003
1828.0,0.0031
1827.0,0.0031
1826.0,0.0031
1825.0,0.0031
1824.0,0.0031
1823.0,0.0032
1822.0,0.0032
1821.0,0.0032
1820.0,0.0032
1819.0,0.0032
1818.0,0.0032
1817.0,0.0032
1816.0,0.0031
1815.0,0.0031
1814.0,0.0031
1813.0,0.0031
1812.0,0.0031
1811.0,0.0032
1810.0,0.0032
1809.0,0.0032
1808.0,0.0031
1807.0,0.0031
1806.0,0.0032
1805.0,0.0032
1804.0,0.0032
1803.0,0.0033
1802.0,0.0033
1801.0,0.0033
1800.0,0.0033
1799.0,0.0033
1798.0,0.0033
1797.0,0.0033
1796.0,0.0033
1795.0,0.0033
1794.0,0.0033
1793.0,0.0033
1792.0,0.0033
1791.0,0.0033
1790.0,0.0033
1789.0,0.0033
1788.0,0.0033
1787.0,0.0032
1786.0,0.0032
1785.0,0.0032
1784.0,0.0032
1783.0,0.0032
1782.0,0.0033
1781.0,0.0033
1780.0,0.0033
1779.0,0.0033
1778.0,0.0033
1777.0,0.0033
1776.0,0.0034
1775.0,0.0034
1774.0,0.0035
1773.0,0.0034
1772.0,0.0034
1771.0,0.0033
1770.0,0.0033
1769.0,0.0033
1768.0,0.0034
1767.0,0.0034
1766.0,0.0034
1765.0,0.0034
1764.0,0.0034
1763.0,0.0034
1762.0,0.0034
1761.0,0.0033
1760.0,0.0033
1759.0,0.0033
1758.0,0.0033
1757.0,0.0033
1756.0,0.0034
1755.0,0.0034
1754.0,0.0034
1753.0,0.0034
1752.0,0.0034
1751.0,0.0034
1750.0,0.0035
1749.0,0.0035
1748.0,0.0035
1747.0,0.0035
1746.0,0.0035
1745.0,0.0036
1744.0,0.0036
1743.0,0.0037
1742.0,0.0037
1741.0,0.0036
1740.0,0.0036
1739.0,0.0035
1738.0,0.0035
1737.0,0.0035
1736.0,0.0035
1735.0,0.0035
1734.0,0.0035
1733.0,0.0036
1732.0,0.0036
1731.0,0.0036
1730.0,0.0036
1729.0,0.0036
1728.0,0.0036
1727.0,0.0036
1726.0,0.0036
1725.0,0.0036
1724.0,0.0036
1723.0,0.0036
1722.0,0.0037
1721.0,0.0037
1720.0,0.0037
1719.0,0.0037
1718.0,0.0036
1717.0,0.0036
1716.0,0.0036
1715.0,0.0036
1714.0,0.0036
1713.0,0.0036
1712.0,0.0036
1711.0,0.0037
1710.0,0.0037
1709.0,0.0037
1708.0,0.0037
1707.0,0.0037
1706.0,0.0037
1705.0,0.0037
1704.0,0.0037
1703.0,0.0037
1702.0,0.0037
1701.0,0.0037
1700.0,0.0037
1699.0,0.0037
1698.0,0.0039
1697.0,0.0041
1696.0,0.0041
1695.0,0.004
1694.0,0.0038
1693.0,0.0037
1692.0,0.0037
1691.0,0.0037
1690.0,0.0038
1689.0,0.0038
1688.0,0.0039
1687.0,0.0039
1686.0,0.0039
1685.0,0.0038
1684.0,0.0037
1683.0,0.0037
1682.0,0.0038
1681.0,0.0039
1680.0,0.004
1679.0,0.0041
1678.0,0.0041
1677.0,0.0041
1676.0,0.0041
1675.0,0.0041
1674.0,0.0041
1673.0,0.004
1672.0,0.004
1671.0,0.004
1670.0,0.004
1669.0,0.0041
1668.0,0.0041
1667.0,0.0042
1666.0,0.0042
1665.0,0.0041
1664.0,0.0041
1663.0,0.0042
1662.0,0.0042
1661.0,0.0042
1660.0,0.0041
1659.0,0.0041
1658.0,0.004
1657.0,0.0041
1656.0,0.0041
1655.0,0.0041
1654.0,0.004
1653.0,0.004
1652.0,0.0041
1651.0,0.0041
1650.0,0.0041
1649.0,0.0042
1648.0,0.0042
1647.0,0.0043
1646.0,0.0043
1645.0,0.0043
1644.0,0.0043
1643.0,0.0043
1642.0,0.0043
1641.0,0.0043
1640.0,0.0043
1639.0,0.0043
1638.0,0.0044
1637.0,0.0045
1636.0,0.0046
1635.0,0.0045
1634.0,0.0044
1633.0,0.0043
1632.0,0.0042
1631.0,0.0043
1630.0,0.0043
1629.0,0.0043
1628.0,0.0044
1627.0,0.0043
1626.0,0.0043
1625.0,0.0043
1624.0,0.0042
1623.0,0.0042
1622.0,0.0042
1621.0,0.0042
1620.0,0.0042
1619.0,0.0042
1618.0,0.0042
1617.0,0.0042
1616.0,0.0042
1615.0,0.0042
1614.0,0.0042
1613.0,0.0042
1612.0,0.0042
1611.0,0.0042
1610.0,0.0043
1609.0,0.0043
1608.0,0.0043
1607.0,0.0042
1606.0,0.0042
1605.0,0.0042
1604.0,0.0042
1603.0,0.0042
1602.0,0.0042
1601.0,0.0042
1600.0,0.0043
1599.0,0.0043
1598.0,0.0042
1597.0,0.0042
1596.0,0.0042
1595.0,0.0042
1594.0,0.0042
1593.0,0.0042
1592.0,0.0042
1591.0,0.0042
1590.0,0.0042
1589.0,0.0042
1588.0,0.0042
1587.0,0.0042
1586.0,0.0042
1585.0,0.0042
1584.0,0.0042
1583.0,0.0043
1582.0,0.0043
1581.0,0.0043
1580.0,0.0043
1579.0,0.0043
1578.0,0.0043
1577.0,0.0043
1576.0,0.0042
1575.0,0.0041
1574.0,0.0041
1573.0,0.0041
1572.0,0.0042
1571.0,0.0042
1570.0,0.0042
1569.0,0.0043
1568.0,0.0043
1567.0,0.0043
1566.0,0.0043
1565.0,0.0043
1564.0,0.0043
1563.0,0.0042
1562.0,0.0042
1561.0,0.0042
1560.0,0.0041
1559.0,0.0042
1558.0,0.0043
1557.0,0.0042
1556.0,0.0042
1555.0,0.0042
1554.0,0.0042
1553.0,0.0043
1552.0,0.0043
1551.0,0.0043
1550.0,0.0043
1549.0,0.0043
1548.0,0.0043
1547.0,0.0043
1546.0,0.0044
1545.0,0.0044
1544.0,0.0044
1543.0,0.0042
1542.0,0.004
1541.0,0.0039
1540.0,0.004
1539.0,0.0041
1538.0,0.0041
1537.0,0.0041
1536.0,0.0041
1535.0,0.0041
1534.0,0.0042
1533.0,0.0042
1532.0,0.0042
1531.0,0.0042
1530.0,0.0042
1529.0,0.0042
1528.0,0.0043
1527.0,0.0043
1526.0,0.0042
1525.0,0.0042
1524.0,0.0041
1523.0,0.0041
1522.0,0.0042
1521.0,0.0043
1520.0,0.0043
1519.0,0.0042
1518.0,0.0042
1517.0,0.0043
1516.0,0.0042
1515.0,0.0042
1514.0,0.0041
1513.0,0.0041
1512.0,0.0041
1511.0,0.0041
1510.0,0.0041
1509.0,0.0042
1508.0,0.0042
1507.0,0.0043
1506.0,0.0041
1505.0,0.0039
1504.0,0.0039
1503.0,0.0039
1502.0,0.0039
1501.0,0.0039
1500.0,0.004
1499.0,0.004
1498.0,0.004
1497.0,0.004
1496.0,0.004
1495.0,0.0039
1494.0,0.0039
1493.0,0.0038
1492.0,0.0038
1491.0,0.0038
1490.0,0.0038
1489.0,0.0038
1488.0,0.0039
1487.0,0.0039
1486.0,0.0039
1485.0,0.0039
1484.0,0.0039
1483.0,0.0039
1482.0,0.004
1481.0,0.004
1480.0,0.004
1479.0,0.004
1478.0,0.0041
1477.0,0.0041
1476.0,0.0043
1475.0,0.0045
1474.0,0.0048
1473.0,0.0054
1472.0,0.0061
1471.0,0.0066
1470.0,0.0072
1469.0,0.0078
1468.0,0.0085
1467.0,0.0093
1466.0,0.0103
1465.0,0.0115
1464.0,0.0126
1463.0,0.0133
1462.0,0.0137
1461.0,0.014
1460.0,0.0143
1459.0,0.0146
1458.0,0.0151
1457.0,0.0158
1456.0,0.0162
1455.0,0.0162
1454.0,0.0162
1453.0,0.0162
1452.0,0.0162
1451.0,0.016
1450.0,0.0157
1449.0,0.0153
1448.0,0.0147
1447.0,0.0139
1446.0,0.0131
1445.0,0.0123
1444.0,0.0117
1443.0,0.0111
1442.0,0.0107
1441.0,0.0103
1440.0,0.01
1439.0,0.0098
1438.0,0.0098
1437.0,0.0098
1436.0,0.0097
1435.0,0.0095
1434.0,0.0092
1433.0,0.0087
1432.0,0.0083
1431.0,0.0079
1430.0,0.0075
1429.0,0.0073
1428.0,0.0071
1427.0,0.0069
1426.0,0.0068
1425.0,0.0068
1424.0,0.0067
1423.0,0.0065
1422.0,0.0064
1421.0,0.0062
1420.0,0.0062
1419.0,0.0062
1418.0,0.0062
1417.0,0.0061
1416.0,0.006
1415.0,0.0058
1414.0,0.0057
1413.0,0.0056
1412.0,0.0055
1411.0,0.0054
1410.0,0.0053
1409.0,0.0052
1408.0,0.0051
1407.0,0.0051
1406.0,0.0051
1405.0,0.0052
1404.0,0.0052
1403.0,0.0051
1402.0,0.0051
1401.0,0.005
1400.0,0.005
1399.0,0.005
1398.0,0.0049
1397.0,0.0048
1396.0,0.0047
1395.0,0.0045
1394.0,0.0045
1393.0,0.0045
1392.0,0.0045
1391.0,0.0046
1390.0,0.0047
1389.0,0.0047
1388.0,0.0048
1387.0,0.005
1386.0,0.0053
1385.0,0.0058
1384.0,0.0066
1383.0,0.0079
1382.0,0.0096
1381.0,0.0119
1380.0,0.0147
1379.0,0.0179
1378.0,0.0207
1377.0,0.0227
1376.0,0.0234
1375.0,0.0227
1374.0,0.0209
1373.0,0.0186
1372.0,0.0165
1371.0,0.0148
1370.0,0.0134
1369.0,0.0122
1368.0,0.0113
1367.0,0.0106
1366.0,0.0103
1365.0,0.0101
1364.0,0.0101
1363.0,0.0102
1362.0,0.0104
1361.0,0.0106
1360.0,0.0107
1359.0,0.0108
1358.0,0.0107
1357.0,0.0106
1356.0,0.0103
1355.0,0.0099
1354.0,0.0096
1353.0,0.0093
1352.0,0.009
1351.0,0.0087
1350.0,0.0086
1349.0,0.0084
1348.0,0.0083
1347.0,0.0082
1346.0,0.0081
1345.0,0.008
1344.0,0.0079
1343.0,0.0078
1342.0,0.0077
1341.0,0.0077
1340.0,0.0077
1339.0,0.0077
1338.0,0.0077
1337.0,0.0076
1336.0,0.0076
1335.0,0.0076
1334.0,0.0076
1333.0,0.0076
1332.0,0.0076
1331.0,0.0077
1330.0,0.0077
1329.0,0.0077
1328.0,0.0077
1327.0,0.0076
1326.0,0.0075
1325.0,0.0075
1324.0,0.0074
1323.0,0.0073
1322.0,0.0073
1321.0,0.0073
1320.0,0.0072
1319.0,0.0072
1318.0,0.0072
1317.0,0.0071
1316.0,0.0071
1315.0,0.0071
1314.0,0.0071
1313.0,0.0071
1312.0,0.0071
1311.0,0.0071
1310.0,0.0071
1309.0,0.0072
1308.0,0.0073
1307.0,0.0075
1306.0,0.0078
1305.0,0.008
1304.0,0.0081
1303.0,0.0081
1302.0,0.0079
1301.0,0.0078
1300.0,0.0078
1299.0,0.0077
1298.0,0.0077
1297.0,0.0077
1296.0,0.0077
1295.0,0.0076
1294.0,0.0076
1293.0,0.0075
1292.0,0.0075
1291.0,0.0074
1290.0,0.0074
1289.0,0.0073
1288.0,0.0073
1287.0,0.0072
1286.0,0.0073
1285.0,0.0073
1284.0,0.0073
1283.0,0.0072
1282.0,0.0072
1281.0,0.0071
1280.0,0.007
1279.0,0.007
1278.0,0.007
1277.0,0.0071
1276.0,0.0071
1275.0,0.007
1274.0,0.007
1273.0,0.0069
1272.0,0.0069
1271.0,0.0069
1270.0,0.0069
1269.0,0.0069
1268.0,0.0069
1267.0,0.0069
1266.0,0.0069
1265.0,0.0068
1264.0,0.0069
1263.0,0.0069
1262.0,0.007
1261.0,0.0071
1260.0,0.0071
1259.0,0.0072
1258.0,0.0073
1257.0,0.0074
1256.0,0.0076
1255.0,0.0076
1254.0,0.0076
1253.0,0.0075
1252.0,0.0074
1251.0,0.0072
1250.0,0.0071
1249.0,0.0071
1248.0,0.007
1247.0,0.007
1246.0,0.007
1245.0,0.007
1244.0,0.0069
1243.0,0.0069
1242.0,0.0068
1241.0,0.0068
1240.0,0.0068
1239.0,0.0068
1238.0,0.0068
1237.0,0.0067
1236.0,0.0067
1235.0,0.0067
1234.0,0.0067
1233.0,0.0067
1232.0,0.0067
1231.0,0.0067
1230.0,0.0067
1229.0,0.0067
1228.0,0.0067
1227.0,0.0068
1226.0,0.0068
1225.0,0.0069
1224.0,0.007
1223.0,0.007
1222.0,0.007
1221.0,0.007
1220.0,0.0071
1219.0,0.0071
1218.0,0.0072
1217.0,0.0072
1216.0,0.0072
1215.0,0.0073
1214.0,0.0073
1213.0,0.0072
1212.0,0.0072
1211.0,0.0072
1210.0,0.0073
1209.0,0.0073
1208.0,0.0073
1207.0,0.0072
1206.0,0.0072
1205.0,0.0072
1204.0,0.0072
1203.0,0.0072
1202.0,0.0072
1201.0,0.0072
1200.0,0.0072
1199.0,0.0072
1198.0,0.0072
1197.0,0.0072
1196.0,0.0071
1195.0,0.0071
1194.0,0.0071
1193.0,0.0071
1192.0,0.0072
1191.0,0.0072
1190.0,0.0072
1189.0,0.0072
1188.0,0.0072
1187.0,0.0072
1186.0,0.0072
1185.0,0.0072
1184.0,0.0072
1183.0,0.0072
1182.0,0.0072
1181.0,0.0072
1180.0,0.0072
1179.0,0.0073
1178.0,0.0073
1177.0,0.0074
1176.0,0.0076
1175.0,0.0078
1174.0,0.0082
1173.0,0.0086
1172.0,0.0093
1171.0,0.01
1170.0,0.0108
1169.0,0.0114
1168.0,0.0119
1167.0,0.0121
1166.0,0.0121
1165.0,0.0119
1164.0,0.0116
1163.0,0.0113
1162.0,0.0111
1161.0,0.0108
1160.0,0.0106
1159.0,0.0105
1158.0,0.0104
1157.0,0.0103
1156.0,0.0102
1155.0,0.0102
1154.0,0.0101
1153.0,0.0101
1152.0,0.01
1151.0,0.0099
1150.0,0.0099
1149.0,0.0098
1148.0,0.0096
1147.0,0.0095
1146.0,0.0093
1145.0,0.0092
1144.0,0.009
1143.0,0.0089
1142.0,0.0089
1141.0,0.0088
1140.0,0.0087
1139.0,0.0086
1138.0,0.0085
1137.0,0.0084
1136.0,0.0083
1135.0,0.0082
1134.0,0.0081
1133.0,0.0081
1132.0,0.0081
1131.0,0.008
1130.0,0.008
1129.0,0.008
1128.0,0.0081
1127.0,0.0081
1126.0,0.008
1125.0,0.008
1124.0,0.0079
1123.0,0.0078
1122.0,0.0078
1121.0,0.0077
1120.0,0.0077
1119.0,0.0077
1118.0,0.0077
1117.0,0.0076
1116.0,0.0077
1115.0,0.0077
1114.0,0.0076
1113.0,0.0076
1112.0,0.0076
1111.0,0.0076
1110.0,0.0076
1109.0,0.0077
1108.0,0.0077
1107.0,0.0077
1106.0,0.0077
1105.0,0.0078
1104.0,0.0078
1103.0,0.0079
1102.0,0.0079
1101.0,0.0078
1100.0,0.0077
1099.0,0.0076
1098.0,0.0075
1097.0,0.0075
1096.0,0.0074
1095.0,0.0074
1094.0,0.0074
1093.0,0.0074
1092.0,0.0073
1091.0,0.0071
1090.0,0.0069
1089.0,0.0066
1088.0,0.0065
1087.0,0.0064
1086.0,0.0063
1085.0,0.0063
1084.0,0.0062
1083.0,0.006
1082.0,0.0059
1081.0,0.0058
1080.0,0.0057
1079.0,0.0057
1078.0,0.0056
1077.0,0.0056
1076.0,0.0056
1075.0,0.0056
1074.0,0.0055
1073.0,0.0055
1072.0,0.0056
1071.0,0.0056
1070.0,0.0056
1069.0,0.0055
1068.0,0.0053
1067.0,0.0052
1066.0,0.0051
1065.0,0.0052
1064.0,0.0053
1063.0,0.0055
1062.0,0.0056
1061.0,0.0056
1060.0,0.0056
1059.0,0.0054
1058.0,0.0052
1057.0,0.0051
1056.0,0.0051
1055.0,0.0052
1054.0,0.0053
1053.0,0.0054
1052.0,0.0055
1051.0,0.0056
1050.0,0.0056
1049.0,0.0057
1048.0,0.0058
1047.0,0.0059
1046.0,0.006
1045.0,0.0061
1044.0,0.0062
1043.0,0.0062
1042.0,0.0062
1041.0,0.0062
1040.0,0.0063
1039.0,0.0064
1038.0,0.0065
1037.0,0.0066
1036.0,0.0067
1035.0,0.0068
1034.0,0.0069
1033.0,0.0069
1032.0,0.007
1031.0,0.007
1030.0,0.007
1029.0,0.0069
1028.0,0.0069
1027.0,0.0069
1026.0,0.007
1025.0,0.007
1024.0,0.0071
1023.0,0.0071
1022.0,0.0071
1021.0,0.0071
1020.0,0.0071
1019.0,0.0072
1018.0,0.0073
1017.0,0.0073
1016.0,0.0073
1015.0,0.0073
1014.0,0.0073
1013.0,0.0073
1012.0,0.0073
1011.0,0.0073
1010.0,0.0074
1009.0,0.0075
1008.0,0.0077
1007.0,0.0078
1006.0,0.008
1005.0,0.0082
1004.0,0.0085
1003.0,0.0091
1002.0,0.0098
1001.0,0.0108
1000.0,0.012
999.0,0.0131
998.0,0.0139
997.0,0.0142
996.0,0.0139
995.0,0.0133
994.0,0.0125
993.0,0.0117
992.0,0.0111
991.0,0.0107
990.0,0.0103
989.0,0.01
988.0,0.0097
987.0,0.0096
986.0,0.0094
985.0,0.0094
984.0,0.0093
983.0,0.0092
982.0,0.0092
981.0,0.0094
980.0,0.0098
979.0,0.0104
978.0,0.0111
977.0,0.0121
976.0,0.0132
975.0,0.0145
974.0,0.0155
973.0,0.0163
972.0,0.0164
971.0,0.016
970.0,0.0151
969.0,0.0141
968.0,0.0132
967.0,0.0125
966.0,0.012
965.0,0.0115
964.0,0.0111
963.0,0.0108
962.0,0.0106
961.0,0.0103
960.0,0.0101
959.0,0.01
958.0,0.0099
957.0,0.0098
956.0,0.0098
955.0,0.0098
954.0,0.0098
953.0,0.0097
952.0,0.0097
951.0,0.0096
950.0,0.0095
949.0,0.0094
948.0,0.0094
947.0,0.0095
946.0,0.0095
945.0,0.0096
944.0,0.0096
943.0,0.0096
942.0,0.0096
941.0,0.0096
940.0,0.0096
939.0,0.0096
938.0,0.0096
937.0,0.0095
936.0,0.0095
935.0,0.0094
934.0,0.0093
933.0,0.0092
932.0,0.0091
931.0,0.009
930.0,0.009
929.0,0.0091
928.0,0.0091
927.0,0.0091
926.0,0.009
925.0,0.009
924.0,0.0089
923.0,0.0089
922.0,0.0089
921.0,0.0089
920.0,0.0088
919.0,0.0088
918.0,0.0087
917.0,0.0087
916.0,0.0087
915.0,0.0087
914.0,0.0088
913.0,0.0088
912.0,0.0088
911.0,0.0088
910.0,0.0087
909.0,0.0086
908.0,0.0086
907.0,0.0087
906.0,0.0087
905.0,0.0089
904.0,0.009
903.0,0.0093
902.0,0.0097
901.0,0.0101
900.0,0.0104
899.0,0.0106
898.0,0.0105
897.0,0.0104
896.0,0.0102
895.0,0.01
894.0,0.0098
893.0,0.0095
892.0,0.0093
891.0,0.009
890.0,0.009
889.0,0.009
888.0,0.0092
887.0,0.0093
886.0,0.0093
885.0,0.0092
884.0,0.0091
883.0,0.009
882.0,0.0091
881.0,0.0091
880.0,0.0091
879.0,0.0092
878.0,0.0092
877.0,0.0092
876.0,0.0091
875.0,0.009
874.0,0.009
873.0,0.009
872.0,0.0091
871.0,0.0091
870.0,0.0091
869.0,0.0091
868.0,0.0091
867.0,0.0091
866.0,0.0091
865.0,0.0091
864.0,0.0091
863.0,0.0092
862.0,0.0092
861.0,0.0093
860.0,0.0093
859.0,0.0093
858.0,0.0092
857.0,0.0092
856.0,0.0093
855.0,0.0093
854.0,0.0093
853.0,0.0092
852.0,0.0093
851.0,0.0093
850.0,0.0094
849.0,0.0096
848.0,0.0097
847.0,0.0099
846.0,0.0104
845.0,0.0111
844.0,0.0123
843.0,0.014
842.0,0.0156
841.0,0.0166
840.0,0.0167
839.0,0.0159
838.0,0.0148
837.0,0.0138
836.0,0.0131
835.0,0.0125
834.0,0.0121
833.0,0.0117
832.0,0.0115
831.0,0.0113
830.0,0.0112
829.0,0.0111
828.0,0.0111
827.0,0.011
826.0,0.0109
825.0,0.0108
824.0,0.0108
823.0,0.0108
822.0,0.0109
821.0,0.0109
820.0,0.0108
819.0,0.0107
818.0,0.0107
817.0,0.0107
816.0,0.0108
815.0,0.011
814.0,0.0113
813.0,0.0116
812.0,0.012
811.0,0.0123
810.0,0.0125
809.0,0.0127
808.0,0.0128
807.0,0.0128
806.0,0.0126
805.0,0.0123
804.0,0.0121
803.0,0.0118
802.0,0.0117
801.0,0.0117
800.0,0.0116
799.0,0.0116
798.0,0.0114
797.0,0.0112
796.0,0.011
795.0,0.0109
794.0,0.0109
793.0,0.0111
792.0,0.0112
791.0,0.0112
790.0,0.0111
789.0,0.011
788.0,0.0108
787.0,0.0108
786.0,0.0107
785.0,0.0107
784.0,0.0107
783.0,0.0108
782.0,0.0109
781.0,0.0109
780.0,0.0108
779.0,0.0107
778.0,0.0107
777.0,0.0107
776.0,0.0108
775.0,0.0107
774.0,0.0106
773.0,0.0104
772.0,0.0104
771.0,0.0103
770.0,0.0102
769.0,0.0102
768.0,0.0103
767.0,0.0104
766.0,0.0105
765.0,0.0106
764.0,0.0107
763.0,0.0107
762.0,0.0107
761.0,0.0105
760.0,0.0103
759.0,0.0102
758.0,0.0102
757.0,0.0103
756.0,0.0105
755.0,0.0105
754.0,0.0105
753.0,0.0103
752.0,0.0102
751.0,0.0101
750.0,0.0101
749.0,0.0102
748.0,0.0102
747.0,0.0102
746.0,0.0102
745.0,0.0102
744.0,0.0102
743.0,0.0102
742.0,0.0101
741.0,0.0101
740.0,0.0103
739.0,0.0105
738.0,0.0105
737.0,0.0104
736.0,0.0102
735.0,0.0101
734.0,0.0101
733.0,0.0102
732.0,0.0103
731.0,0.0103
730.0,0.0101
729.0,0.0099
728.0,0.0098
727.0,0.0097
726.0,0.0096
725.0,0.0097
724.0,0.0099
723.0,0.0102
722.0,0.0104
721.0,0.0104
720.0,0.0102
719.0,0.0101
718.0,0.0101
717.0,0.01
716.0,0.0099
715.0,0.0098
714.0,0.0098
713.0,0.0099
712.0,0.0101
711.0,0.0102
710.0,0.0101
709.0,0.0099
708.0,0.0096
707.0,0.0095
706.0,0.0095
705.0,0.0098
704.0,0.0101
703.0,0.0103
702.0,0.0103
701.0,0.0102
700.0,0.0101
699.0,0.01
698.0,0.0099
697.0,0.0098
696.0,0.0097
695.0,0.0098
694.0,0.01
693.0,0.0103
692.0,0.0106
691.0,0.0106
690.0,0.0105
689.0,0.0104
688.0,0.0105
687.0,0.0106
686.0,0.0107
685.0,0.0107
684.0,0.0106
683.0,0.0104
682.0,0.0103
681.0,0.0101
680.0,0.0099
679.0,0.0097
678.0,0.0097
677.0,0.0101
676.0,0.0104
675.0,0.0106
674.0,0.0106
673.0,0.0107
672.0,0.011
671.0,0.0115
670.0,0.0119
669.0,0.012
668.0,0.0111
667.0,0.0099
666.0,0.0095
665.0,0.0097
664.0,0.0103
663.0,0.0108
662.0,0.0109
661.0,0.0107
660.0,0.0103
659.0,0.0098
658.0,0.0094
657.0,0.0093
656.0,0.0097
655.0,0.0104
654.0,0.011
653.0,0.0111
652.0,0.0109
651.0,0.0107
650.0,0.0105
649.0,0.0106
648.0,0.0108
647.0,0.0113
646.0,0.0116
645.0,0.0116
644.0,0.0112
643.0,0.0106
642.0,0.0102
641.0,0.01
640.0,0.0099
639.0,0.0098
638.0,0.0096
637.0,0.0097
636.0,0.01
635.0,0.0105
634.0,0.011
633.0,0.0114
632.0,0.0115
631.0,0.0114
630.0,0.0115
629.0,0.0117
628.0,0.0119
627.0,0.0117
626.0,0.0111
625.0,0.0106
624.0,0.0106
623.0,0.0111
622.0,0.0118
621.0,0.0121
620.0,0.012
619.0,0.0119
618.0,0.0118
617.0,0.0119
616.0,0.0119
615.0,0.0116
614.0,0.0111
613.0,0.0106
612.0,0.0105
611.0,0.0107
610.0,0.0111
609.0,0.0115
608.0,0.0117
607.0,0.0115
606.0,0.0109
605.0,0.0107
604.0,0.0111
603.0,0.0116
602.0,0.0118
601.0,0.0116
600.0,0.0114
