nm,Intensity
528.65,1842.0
528.734,1842.05
528.819,1844.75
528.903,1843.8
528.987,1841.95
529.071,1843.8
529.155,1842.15
529.239,1842.35
529.324,1842.5
529.408,1842.75
529.492,1842.2
529.576,1842.45
529.66,1843.35
529.745,1842.75
529.829,1840.6
529.913,1844.35
529.997,1844.3
530.081,1841.9
530.165,1843.3
530.25,1845.1
530.334,1843.4
530.418,1843.5
530.502,1843.3
530.586,1843.6
530.67,1843.0
530.754,1843.05
530.839,1845.25
530.923,1845.8
531.007,1845.05
531.091,1844.4
531.175,1846.6
531.259,1848.55
531.344,1847.4
531.428,1847.8
531.512,1851.9
531.596,1854.65
531.68,1873.1
531.764,1938.2
531.848,2173.25
531.933,2782.5
532.017,3824.8
532.101,4186.25
532.185,3798.95
532.269,3064.05
532.353,2239.55
532.437,1893.7
532.521,1851.5
532.606,1847.2
532.69,1848.45
532.774,1846.8
532.858,1847.35
532.942,1846.2
533.026,1849.35
533.11,1848.3
533.194,1850.25
533.279,1853.65
533.363,1858.75
533.447,1873.85
533.531,1922.85
533.615,2067.4
533.699,2391.8
533.783,2932.2
533.867,3532.75
533.951,4047.3
534.036,4385.75
534.12,4564.05
534.204,4693.05
534.288,4730.2
534.372,4704.7
534.456,4729.2
534.54,4774.55
534.624,4785.8
534.708,4843.1
534.792,4924.9
534.877,5014.6
534.961,5038.45
535.045,5038.85
535.129,5062.95
535.213,5110.5
535.297,5180.45
535.381,5247.4
535.465,5273.2
535.549,5287.95
535.633,5327.0
535.717,5365.9
535.801,5308.6
535.886,5226.85
535.97,5205.55
536.054,5187.8
536.138,5196.35
536.222,5234.4
536.306,5197.95
536.39,5262.5
536.474,5346.45
536.558,5389.0
536.642,5376.55
536.726,5327.15
536.81,5376.05
536.894,5418.55
536.978,5434.15
537.062,5346.5
537.146,5406.35
537.231,5470.25
537.315,5519.65
537.399,5565.1
537.483,5577.6
537.567,5571.8
537.651,5613.45
537.735,5620.55
537.819,5607.45
537.903,5571.0
537.987,5588.6
538.071,5595.95
538.155,5594.35
538.239,5612.5
538.323,5608.8
538.407,5597.6
538.491,5546.8
538.575,5523.85
538.659,5509.4
538.743,5572.9
538.827,5722.85
538.911,5659.9
538.995,5665.75
539.079,5736.45
539.163,5812.6
539.247,5804.3
539.331,5778.05
539.415,5681.1
539.499,5793.05
539.583,5871.25
539.667,5887.05
539.751,5882.2
539.835,5837.35
539.919,5805.5
540.003,5830.3
540.087,5926.05
540.171,5961.55
540.255,5956.95
540.339,5929.65
540.423,5943.25
540.507,5891.85
540.591,5986.25
540.675,6024.95
540.759,6016.65
540.843,5996.95
540.927,5957.3
541.011,6085.5
541.095,6162.1
541.179,6090.7
541.263,6072.75
541.347,5979.7
541.431,5998.35
541.515,5959.7
541.599,6001.45
541.683,6036.5
541.767,6028.4
541.851,6090.05
541.935,6149.9
542.019,6053.95
542.103,6103.9
542.187,6206.1
542.271,6157.65
542.355,6160.9
542.439,6163.6
542.523,6193.25
542.607,6262.9
542.691,6219.1
542.775,6217.2
542.859,6269.25
542.943,6221.1
543.027,6162.9
543.111,6214.5
543.195,6339.35
543.279,6435.45
543.363,6393.5
543.446,6325.35
543.53,6273.55
543.614,6221.35
543.698,6261.15
543.782,6344.35
543.866,6441.5
543.95,6415.35
544.034,6357.45
544.118,6381.8
544.202,6400.9
544.286,6381.45
544.37,6319.65
544.454,6308.1
544.538,6391.0
544.622,6478.2
544.706,6452.0
544.789,6486.35
544.873,6563.05
544.957,6537.5
545.041,6522.45
545.125,6557.2
545.209,6538.8
545.293,6573.25
545.377,6533.3
545.461,6599.7
545.545,6604.75
545.629,6603.75
545.713,6608.65
545.796,6598.8
545.88,6570.15
545.964,6634.15
546.048,6642.55
546.132,6705.0
546.216,6742.85
546.3,6809.15
546.384,6789.25
546.468,6789.35
546.552,6721.75
546.635,6752.15
546.719,6785.85
546.803,6795.85
546.887,6772.3
546.971,6801.8
547.055,6826.9
547.139,6865.4
547.223,6789.45
547.306,6836.8
547.39,6830.5
547.474,6806.95
547.558,6896.3
547.642,6926.75
547.726,6871.8
547.81,6905.0
547.894,6899.4
547.977,7004.4
548.061,6913.55
548.145,6937.4
548.229,7015.55
548.313,7000.8
548.397,6981.9
548.481,7010.5
548.564,7034.8
548.648,7053.35
548.732,6954.55
548.816,6982.75
548.9,7015.65
548.984,7027.95
549.068,7045.75
549.151,7140.05
549.235,7283.4
549.319,7230.95
549.403,7179.3
549.487,7175.15
549.571,7164.1
549.655,7054.6
549.738,7008.3
549.822,7037.15
549.906,7064.9
549.99,7084.6
550.074,7086.15
550.158,7162.6
550.241,7195.65
550.325,7235.2
550.409,7255.4
550.493,7329.35
550.577,7293.75
550.66,7304.25
550.744,7228.2
550.828,7233.1
550.912,7323.25
550.996,7448.65
551.08,7487.2
551.163,7443.6
551.247,7411.4
551.331,7368.6
551.415,7582.55
551.499,7558.5
551.582,7498.9
551.666,7579.5
551.75,7631.75
551.834,7561.3
551.918,7428.1
552.001,7566.9
552.085,7563.85
552.169,7509.0
552.253,7599.7
552.337,7666.6
552.42,7677.8
552.504,7670.75
552.588,7631.7
552.672,7510.35
552.755,7442.9
552.839,7549.55
552.923,7568.85
553.007,7621.9
553.091,7719.8
553.174,7603.3
553.258,7628.55
553.342,7646.7
553.426,7697.95
553.509,7700.15
553.593,7607.1
553.677,7554.4
553.761,7721.0
553.844,7803.2
553.928,7762.0
554.012,7777.3
554.096,7692.8
554.179,7709.0
554.263,7844.55
554.347,7958.7
554.431,7953.95
554.514,7987.85
554.598,7928.5
554.682,7836.0
554.766,7907.75
554.849,7921.35
554.933,7884.9
555.017,7926.15
555.101,7896.05
555.184,7856.4
555.268,7954.6
555.352,7932.95
555.436,7892.1
555.519,7910.05
555.603,7917.35
555.687,7959.7
555.771,8039.25
555.854,8072.1
555.938,8185.7
556.022,8133.0
556.105,8008.65
556.189,7954.35
556.273,8010.1
556.357,8023.6
556.44,8104.1
556.524,8118.3
556.608,8036.9
556.691,8015.5
556.775,8060.55
556.859,8247.45
556.943,8254.9
557.026,8125.45
557.11,8110.75
557.194,8076.4
557.277,8094.1
557.361,8139.95
557.445,8322.9
557.528,8262.6
557.612,8231.5
557.696,8218.2
557.779,8224.7
557.863,8230.1
557.947,8176.25
558.031,8190.85
558.114,8253.7
558.198,8347.6
558.282,8469.55
558.365,8370.7
558.449,8293.0
558.533,8433.45
558.616,8426.7
558.7,8249.9
558.784,8332.15
558.867,8423.55
558.951,8320.1
559.035,8323.5
559.118,8327.9
559.202,8471.55
559.286,8549.2
559.369,8489.65
559.453,8534.95
559.537,8691.6
559.62,8678.75
559.704,8487.85
559.788,8543.5
559.871,8653.25
559.955,8550.85
560.038,8442.2
560.122,8501.85
560.206,8588.5
560.289,8538.15
560.373,8541.95
560.457,8572.35
560.54,8813.15
560.624,8740.1
560.708,8674.9
560.791,8665.65
560.875,8725.15
560.958,8727.1
561.042,8713.7
561.126,8752.85
561.209,8804.0
561.293,8742.6
561.377,8741.0
561.46,8765.05
561.544,8679.8
561.627,8664.65
561.711,8879.1
561.795,8921.1
561.878,8944.8
561.962,8979.2
562.045,9006.1
562.129,8978.05
562.213,8863.65
562.296,8849.4
562.38,8902.15
562.463,8873.1
562.547,8869.8
562.631,9097.0
562.714,9189.05
562.798,9087.55
562.881,8873.25
562.965,8746.7
563.049,8884.7
563.132,9072.4
563.216,9126.1
563.299,8979.8
563.383,8962.55
563.467,9033.85
563.55,9141.8
563.634,9105.95
563.717,9030.6
563.801,9142.15
563.884,9196.85
563.968,9183.7
564.052,9118.9
564.135,9179.5
564.219,9170.15
564.302,9118.15
564.386,9175.0
564.469,9185.75
564.553,9174.45
564.636,9173.8
564.72,9066.55
564.804,9098.0
564.887,9228.8
564.971,9367.5
565.054,9474.75
565.138,9523.55
565.221,9472.45
565.305,9365.4
565.388,9300.55
565.472,9286.25
565.556,9337.2
565.639,9431.65
565.723,9486.5
565.806,9404.05
565.89,9304.3
565.973,9442.45
566.057,9430.0
566.14,9425.85
566.224,9495.0
566.307,9513.55
566.391,9474.15
566.474,9515.55
566.558,9410.05
566.641,9400.7
566.725,9443.9
566.808,9421.9
566.892,9355.6
566.975,9515.8
567.059,9579.55
567.142,9460.4
567.226,9381.5
567.309,9367.0
567.393,9441.65
567.476,9643.75
567.56,9608.95
567.643,9604.9
567.727,9522.7
567.81,9603.55
567.894,9660.3
567.977,9757.0
568.061,9750.0
568.144,9737.25
568.228,9729.5
568.311,9673.6
568.395,9711.1
568.478,9784.3
568.562,9869.5
568.645,9795.1
568.729,9776.45
568.812,9749.85
568.896,9633.25
568.979,9721.6
569.063,9859.35
569.146,9796.55
569.23,9829.35
569.313,9825.35
569.396,9891.55
569.48,9972.7
569.563,9934.65
569.647,9898.45
569.73,9926.4
569.814,10002.0
569.897,9907.2
569.981,9875.0
570.064,9825.25
570.148,9890.4
570.231,9868.85
570.314,9845.75
570.398,9836.65
570.481,9898.45
570.565,9963.35
570.648,10120.5
570.732,10114.0
570.815,10064.2
570.898,9968.45
570.982,10005.6
571.065,10065.8
571.149,10003.8
571.232,9976.6
571.316,10005.7
571.399,10153.7
571.482,10236.5
571.566,10222.7
571.649,10088.1
571.733,10116.5
571.816,10144.3
571.9,10299.8
571.983,10342.3
572.066,10160.2
572.15,10153.8
572.233,10107.0
572.317,10078.3
572.4,10366.3
572.483,10536.8
572.567,10491.3
572.65,10292.0
572.734,10282.8
572.817,10271.2
572.9,10306.6
572.984,10268.4
573.067,10343.7
573.15,10307.3
573.234,10308.0
573.317,10352.2
573.401,10331.3
573.484,10394.8
573.567,10495.9
573.651,10489.8
573.734,10388.6
573.818,10333.3
573.901,10332.8
573.984,10349.1
574.068,10286.9
574.151,10279.7
574.234,10333.3
574.318,10357.9
574.401,10303.3
574.484,10362.7
574.568,10462.5
574.651,10512.3
574.734,10509.5
574.818,10452.0
574.901,10306.3
574.985,10442.9
575.068,10439.7
575.151,10304.7
575.235,10548.8
575.318,10692.5
575.401,10666.6
575.485,10622.8
575.568,10548.9
575.651,10683.8
575.735,10672.0
575.818,10584.5
575.901,10557.3
575.985,10638.0
576.068,10815.1
576.151,10706.8
576.235,10620.9
576.318,10805.4
576.401,10904.3
576.484,10905.6
576.568,10818.8
576.651,10660.5
576.734,10451.5
576.818,10577.8
576.901,10715.8
576.984,10815.4
577.068,11012.8
577.151,11064.0
577.234,10837.2
577.318,10774.0
577.401,10807.1
577.484,10624.0
577.567,10639.8
577.651,10817.0
577.734,10780.4
577.817,10830.8
577.901,10837.5
577.984,10823.5
578.067,10734.5
578.15,10738.0
578.234,10669.9
578.317,10829.2
578.4,10687.2
578.484,10671.1
578.567,10884.3
578.65,10961.9
578.733,10846.7
578.817,10701.5
578.9,10701.6
578.983,10758.3
579.066,10999.0
579.15,11240.2
579.233,11111.4
579.316,10996.2
579.399,10983.8
579.483,11053.6
579.566,10893.3
579.649,10887.8
579.732,10996.8
579.816,11073.3
579.899,11027.7
579.982,10963.6
580.065,10966.7
580.149,10998.5
580.232,11040.7
580.315,11335.9
580.398,11408.0
580.482,11231.8
580.565,11102.0
580.648,11178.2
580.731,11103.0
580.815,11015.0
580.898,11155.2
580.981,11352.7
581.064,11281.5
581.147,11177.7
581.231,11230.8
581.314,11107.8
581.397,11206.8
581.48,11256.4
581.563,11129.4
581.647,11166.2
581.73,11192.6
581.813,11223.3
581.896,11198.5
581.979,11193.3
582.063,11161.5
582.146,11208.7
582.229,11380.2
582.312,11371.0
582.395,11257.1
582.479,11164.0
582.562,11384.2
582.645,11458.8
582.728,11324.5
582.811,11187.5
582.895,11236.5
582.978,11204.3
583.061,11229.7
583.144,11353.6
583.227,11332.0
583.31,11376.5
583.394,11381.2
583.477,11234.0
583.56,11200.8
583.643,11447.4
583.726,11600.7
583.809,11653.5
583.893,11565.0
583.976,11351.6
584.059,11413.5
584.142,11334.3
584.225,11448.0
584.308,11456.0
584.391,11371.5
584.475,11365.5
584.558,11343.9
584.641,11490.0
584.724,11463.0
584.807,11579.2
584.89,11521.2
584.973,11399.8
585.057,11312.0
585.14,11441.4
585.223,11507.8
585.306,11595.2
585.389,11586.9
585.472,11627.0
585.555,11545.3
585.638,11529.0
585.722,11600.3
585.805,11372.3
585.888,11218.8
585.971,11376.8
586.054,11569.0
586.137,11603.7
586.22,11565.0
586.303,11720.2
586.386,11665.5
586.47,11494.0
586.553,11533.2
586.636,11584.3
586.719,11709.6
586.802,11567.5
586.885,11509.2
586.968,11594.2
587.051,11620.0
587.134,11727.4
587.217,11841.5
587.3,12042.0
587.384,11939.4
587.467,11630.3
587.55,11526.7
587.633,11492.8
587.716,11587.0
587.799,11834.7
587.882,11888.8
587.965,12118.4
588.048,12287.4
588.131,11982.5
588.214,11849.9
588.297,11639.8
588.38,11632.3
588.463,11867.5
588.546,11985.8
588.63,12050.6
588.713,12120.5
588.796,12040.8
588.879,11869.9
588.962,11830.0
589.045,11727.3
589.128,11647.4
589.211,11755.9
589.294,11872.9
589.377,11888.8
589.46,11904.3
589.543,11846.8
589.626,11921.0
589.709,11879.0
589.792,11959.2
589.875,11968.0
589.958,11846.5
590.041,11896.8
590.124,11861.8
590.207,12058.9
590.29,12085.0
590.373,11955.5
590.456,12072.9
590.539,12269.3
590.622,12097.5
590.705,11989.2
590.788,11764.4
590.871,11851.1
590.954,12018.3
591.037,12004.2
591.12,11944.5
591.203,12074.2
591.286,12220.0
591.369,12012.3
591.452,11998.8
591.535,12305.3
591.618,12136.5
591.701,12050.5
591.784,12074.8
591.867,12225.9
591.95,12392.8
592.033,12270.2
592.116,12242.8
592.199,12166.3
592.282,12272.8
592.365,12394.5
592.448,12475.9
592.531,12480.0
592.614,12281.0
592.697,12183.8
592.78,12188.2
592.863,11986.5
592.946,12125.6
593.029,12332.8
593.112,12464.8
593.195,12362.4
593.278,12492.8
593.361,12404.5
593.443,12379.1
593.526,12165.8
593.609,12250.2
593.692,12307.8
593.775,12284.3
593.858,12382.0
593.941,12353.2
594.024,12250.6
594.107,12310.2
594.19,12584.0
594.273,12467.6
594.356,12202.7
594.439,12124.3
594.522,12352.0
594.604,12499.6
594.687,12369.3
594.77,12418.6
594.853,12423.7
594.936,12382.0
595.019,12450.0
595.102,12476.0
595.185,12491.5
595.268,12559.9
595.351,12549.0
595.434,12420.7
595.516,12374.2
595.599,12606.1
595.682,12718.0
595.765,12844.5
595.848,12685.5
595.931,12705.0
596.014,12719.3
596.097,12558.0
596.18,12592.5
596.262,12764.1
596.345,12847.2
596.428,12871.8
596.511,12744.5
596.594,12649.0
596.677,12639.5
596.76,12899.0
596.843,12998.2
596.925,12959.0
597.008,12678.3
597.091,12724.0
597.174,12652.8
597.257,12616.0
597.34,12860.8
597.423,12926.7
597.505,12768.2
597.588,12671.2
597.671,12706.8
597.754,12914.9
597.837,12946.3
597.92,13035.7
598.002,12921.1
598.085,12748.0
598.168,12846.0
598.251,12870.7
598.334,12787.2
598.417,12683.8
598.499,12690.5
598.582,12776.3
598.665,12871.2
598.748,13028.0
598.831,13138.8
598.914,13009.0
598.996,12813.4
599.079,12762.3
599.162,13013.8
599.245,13140.7
599.328,12998.5
599.41,13200.0
599.493,13332.5
599.576,13263.0
599.659,13142.1
599.742,13081.2
599.824,13007.6
599.907,13018.4
599.99,13115.2
600.073,13163.3
600.156,13086.5
600.238,12997.7
600.321,12862.5
600.404,13120.8
600.487,13401.8
600.57,13294.0
600.652,13279.3
600.735,13162.8
600.818,13067.0
600.901,13005.6
600.983,13040.0
601.066,13068.0
601.149,13265.3
601.232,13546.0
601.314,13251.6
601.397,13162.3
601.48,13452.8
601.563,13476.0
601.645,13241.2
601.728,13274.4
601.811,13437.8
601.894,13378.0
601.976,13227.7
602.059,13309.2
602.142,13345.3
602.225,13258.4
602.307,13270.3
602.39,13420.8
602.473,13454.9
602.556,13437.5
602.638,13502.0
602.721,13348.7
602.804,13263.8
602.887,13351.0
602.969,13468.3
603.052,13468.0
603.135,13304.8
603.217,13348.3
603.3,13391.2
603.383,13402.9
603.466,13401.7
603.548,13536.8
603.631,13685.1
603.714,13394.5
603.796,13463.0
603.879,13593.2
603.962,13738.8
604.045,13571.5
604.127,13414.5
604.21,13488.6
604.293,13618.5
604.375,13733.9
604.458,13697.8
604.541,13639.8
604.623,13429.8
604.706,13351.1
604.789,13483.8
604.871,13557.5
604.954,13655.0
605.037,13818.2
605.119,13825.5
605.202,13663.3
605.285,13609.7
605.367,13467.8
605.45,13423.7
605.533,13410.8
605.615,13573.3
605.698,13898.3
605.781,14084.7
605.863,14001.8
605.946,13904.5
606.029,13743.8
606.111,13607.5
606.194,13567.7
606.277,13642.8
606.359,13822.6
606.442,13767.5
606.524,13666.8
606.607,13899.5
606.69,13921.7
606.772,13731.1
606.855,13818.7
606.938,13859.1
607.02,13988.8
607.103,13864.0
607.185,13646.4
607.268,13711.2
607.351,13886.8
607.433,13975.0
607.516,13879.8
607.599,13719.3
607.681,13909.3
607.764,13815.0
607.846,13809.0
607.929,13848.2
608.012,13938.1
608.094,13917.8
608.177,14088.8
608.259,14097.5
608.342,13753.3
608.425,13654.3
608.507,13742.8
608.59,13991.5
608.672,14136.3
608.755,14139.3
608.837,13831.0
608.92,13863.5
609.003,14030.2
609.085,14355.0
609.168,14269.3
609.25,14038.2
609.333,14035.3
609.415,14149.8
609.498,14188.3
609.581,14074.3
609.663,13939.1
609.746,13960.3
609.828,14047.0
609.911,14012.0
609.993,13925.5
610.076,14132.5
610.158,14395.0
610.241,14242.5
610.324,14385.8
610.406,14286.0
610.489,14014.3
610.571,14179.2
610.654,14125.7
610.736,14070.3
610.819,13867.3
610.901,14106.7
610.984,14421.7
611.066,14557.6
611.149,14386.9
611.231,14265.4
611.314,14190.8
611.396,14206.7
611.479,14334.3
611.561,14331.8
611.644,14407.9
611.727,14360.3
611.809,14189.0
611.892,14119.1
611.974,14371.6
612.057,14172.8
612.139,14144.3
612.222,14043.9
612.304,14245.2
612.386,14534.8
612.469,14584.0
612.551,14487.0
612.634,14371.5
612.716,14328.2
612.799,14401.1
612.881,14535.0
612.964,14651.1
613.046,14519.3
613.129,14409.3
613.211,14337.7
613.294,14488.5
613.376,14163.6
613.459,14146.1
613.541,14097.2
613.624,14550.5
613.706,14755.2
613.789,14478.7
613.871,14119.8
613.953,14411.8
614.036,14557.7
614.118,14667.8
614.201,14581.7
614.283,14366.5
614.366,14356.6
614.448,14551.0
614.531,14625.9
614.613,14376.5
614.695,14456.0
614.778,14495.3
614.86,14728.8
614.943,14764.2
615.025,14578.2
615.108,14575.0
615.19,14670.2
615.272,14667.0
615.355,14768.7
615.437,14647.4
615.52,14662.8
615.602,14497.7
615.684,14523.4
615.767,14833.8
615.849,14879.0
615.932,14578.2
616.014,14615.0
616.097,14655.4
616.179,14500.3
616.261,14603.8
616.344,14750.7
616.426,14784.8
616.508,14703.0
616.591,14795.5
616.673,14750.5
616.756,14864.4
616.838,14709.1
616.92,14649.3
617.003,14471.2
617.085,14391.5
617.168,14594.2
617.25,14864.0
617.332,15007.2
617.415,14812.0
617.497,14406.2
617.579,14434.6
617.662,14747.0
617.744,15012.5
617.826,14987.8
617.909,14906.5
617.991,14689.9
618.073,14768.1
618.156,14751.0
618.238,14506.3
618.32,14583.8
618.403,14882.8
618.485,14831.2
618.567,14925.0
618.65,14839.5
618.732,14808.6
618.814,14971.4
618.897,15191.0
618.979,15120.9
619.061,15025.2
619.144,14881.0
619.226,14799.1
619.308,14778.1
619.391,14796.2
619.473,14966.5
619.555,15374.0
619.638,15113.3
619.72,14900.8
619.802,15098.6
619.885,15057.4
619.967,14921.8
620.049,14826.5
620.131,15200.0
620.214,15358.0
620.296,15047.3
620.378,14950.2
620.461,15154.3
620.543,15055.1
620.625,15142.0
620.707,15321.0
620.79,15103.3
620.872,14705.3
620.954,14749.3
621.037,15063.0
621.119,15157.0
621.201,14991.8
621.283,15008.9
621.366,15010.4
621.448,15350.5
621.53,15068.3
621.612,14963.1
621.695,15161.9
621.777,15180.0
621.859,15189.9
621.941,15210.0
622.024,15240.0
622.106,15241.1
622.188,15192.3
622.27,15090.6
622.353,15038.7
622.435,15188.8
622.517,15066.8
622.599,14999.6
622.682,15012.0
622.764,15098.3
622.846,15154.5
622.928,15219.8
623.01,15138.2
623.093,15357.2
623.175,15501.0
623.257,15392.7
623.339,15101.2
623.422,14844.3
623.504,15081.2
623.586,15465.5
623.668,15139.5
623.75,15118.2
623.833,15250.0
623.915,15454.0
623.997,15315.5
624.079,15378.1
624.161,15371.4
624.244,15126.8
624.326,15238.5
624.408,15253.3
624.49,15255.9
624.572,15428.5
624.654,15431.3
624.737,15240.2
624.819,14817.2
624.901,15051.4
624.983,15288.8
625.065,15368.7
625.147,15421.2
625.23,15467.1
625.312,15429.7
625.394,15468.2
625.476,15278.5
625.558,15112.7
625.64,15330.8
625.723,15441.3
625.805,15260.5
625.887,15115.7
625.969,15122.9
626.051,15085.0
626.133,15216.0
626.215,15500.7
626.298,15489.8
626.38,15271.3
626.462,15150.6
626.544,15291.0
626.626,15569.8
626.708,15408.3
626.79,15245.2
626.872,15403.5
626.955,15311.8
627.037,15280.8
627.119,15417.5
627.201,15231.4
627.283,15185.0
627.365,15232.9
627.447,15410.5
627.529,15429.4
627.611,15524.7
627.693,15403.1
627.776,15383.2
627.858,15447.7
627.94,15571.0
628.022,15477.8
628.104,15386.6
628.186,15669.6
628.268,15656.1
628.35,15573.2
628.432,15387.6
628.514,15100.0
628.596,15223.7
628.678,15274.2
628.761,15280.3
628.843,15370.3
628.925,15429.2
629.007,15563.0
629.089,15563.5
629.171,15549.4
629.253,15478.3
629.335,15573.2
629.417,15617.3
629.499,15547.3
629.581,15455.2
629.663,15551.7
629.745,15456.2
629.827,15580.7
629.909,15623.2
629.991,15524.7
630.073,15523.5
630.155,15524.7
630.237,15264.2
630.319,15383.8
630.401,15413.3
630.483,15326.3
630.565,15326.7
630.647,15319.3
630.73,15339.3
630.812,15405.8
630.894,15569.5
630.976,15563.8
631.058,15483.9
631.14,15456.8
631.222,15614.3
631.304,15801.0
631.386,16021.8
631.468,15759.1
631.55,15505.5
631.632,15363.5
631.714,15296.0
631.796,15335.8
631.877,15482.6
631.959,15284.8
632.041,15226.0
632.123,15374.1
632.205,15365.0
632.287,15557.7
632.369,15629.0
632.451,15697.8
632.533,15704.3
632.615,15734.5
632.697,15525.3
632.779,15651.8
632.861,15581.3
632.943,15640.5
633.025,15823.5
633.107,15938.8
633.189,15716.9
633.271,15633.2
633.353,15554.6
633.435,15446.3
633.517,15537.6
633.599,15526.0
633.681,15529.1
633.763,15520.7
633.844,15671.0
633.926,15757.5
634.008,15918.0
634.09,15853.8
634.172,15804.7
634.254,15676.7
634.336,15668.5
634.418,15584.9
634.5,15696.2
634.582,15701.7
634.664,15478.0
634.746,15420.3
634.827,15537.3
634.909,15540.5
634.991,15534.4
635.073,15833.8
635.155,16136.8
635.237,15832.9
635.319,15386.0
635.401,15258.2
635.483,15350.2
635.564,15390.7
635.646,15377.9
635.728,15266.0
635.81,15378.2
635.892,15721.1
635.974,15706.0
636.056,15554.6
636.138,15667.4
636.219,15583.2
636.301,15488.8
636.383,15317.5
636.465,15563.5
636.547,15944.3
636.629,15935.0
636.711,15548.9
636.792,15329.0
636.874,15433.7
636.956,15496.6
637.038,15486.8
637.12,15676.0
637.202,15787.5
637.283,15557.3
637.365,15565.1
637.447,15544.5
637.529,15572.8
637.611,15607.5
637.693,15599.6
637.774,15568.0
637.856,15641.1
637.938,15600.5
638.02,15609.7
638.102,15632.4
638.184,15322.3
638.265,15274.4
638.347,15638.8
638.429,15975.5
638.511,16019.0
638.593,15871.5
638.674,15693.1
638.756,15399.5
638.838,15162.2
638.92,15320.0
639.002,15521.7
639.083,15562.8
639.165,15625.0
639.247,15679.5
639.329,15589.8
639.41,15674.0
639.492,15478.5
639.574,15418.8
639.656,15513.2
639.737,15465.0
639.819,15592.0
639.901,15651.3
639.983,15523.8
640.065,15372.8
640.146,15507.5
640.228,15273.0
640.31,15227.5
640.392,15332.8
640.473,15663.0
640.555,15706.5
640.637,15526.8
640.719,15346.6
640.8,15477.8
640.882,15161.0
640.964,15023.8
641.045,15449.3
641.127,15684.2
641.209,15490.3
641.291,15293.5
641.372,15310.8
641.454,15744.4
641.536,15609.8
641.618,15347.0
641.699,15206.2
641.781,15263.5
641.863,15273.2
641.944,15500.3
642.026,15393.3
642.108,15366.5
642.189,15391.3
642.271,15380.2
642.353,15400.2
642.435,15681.5
642.516,15530.5
642.598,15403.0
642.68,15537.8
642.761,15440.2
642.843,15155.1
642.925,14872.3
643.006,14876.2
643.088,15133.3
643.17,15262.8
643.251,15402.3
643.333,15056.7
643.415,14710.8
643.496,15354.0
643.578,15526.5
643.66,15650.5
643.741,15648.1
643.823,15802.0
643.905,15259.2
643.986,14902.3
644.068,14827.6
644.149,15008.2
644.231,15307.2
644.313,15565.0
644.394,15555.1
644.476,15403.7
644.558,15445.7
644.639,15264.4
644.721,14866.2
644.803,14974.2
644.884,15011.8
644.966,15182.0
645.047,15532.7
645.129,15405.7
645.211,15432.0
645.292,15460.0
645.374,15159.0
645.455,14816.2
645.537,15040.3
645.619,15618.1
645.7,15285.5
645.782,14916.9
645.863,15279.5
645.945,15351.0
646.027,15080.5
646.108,14867.8
646.19,15072.4
646.271,15338.6
646.353,15144.1
646.435,14929.0
646.516,15170.0
646.598,15370.4
646.679,15442.5
646.761,15334.4
646.842,15224.0
646.924,15084.5
647.005,14748.8
647.087,14829.6
647.169,15157.2
647.25,14680.8
647.332,14924.5
647.413,15175.8
647.495,15042.5
647.576,15068.5
647.658,15227.8
647.739,14716.3
647.821,14779.3
647.902,15026.2
647.984,15128.8
648.066,15091.0
648.147,14970.4
648.229,14660.8
648.31,14652.0
648.392,14970.5
648.473,14803.3
648.555,14623.8
648.636,14822.6
648.718,15122.7
648.799,14969.6
648.881,14985.3
648.962,14845.7
649.044,14569.8
649.125,14551.5
649.207,14763.4
649.288,15237.9
649.37,14809.3
649.451,14548.3
649.533,14580.8
649.614,14743.5
649.696,14475.2
649.777,15109.3
649.859,15558.9
649.94,15208.6
650.022,14736.9
650.103,14448.0
650.184,14451.9
650.266,14522.8
650.347,14571.0
650.429,14429.8
650.51,14451.8
650.592,14797.7
650.673,15185.3
650.755,14910.6
650.836,14904.1
650.918,14996.3
650.999,14686.2
651.08,14622.0
651.162,14584.8
651.243,14727.4
651.325,14539.1
651.406,14765.8
651.488,14922.2
651.569,14934.7
651.651,14865.1
651.732,14466.2
651.813,14652.4
651.895,14969.8
651.976,14558.8
652.058,14303.8
652.139,14294.7
652.22,14130.6
652.302,14332.3
652.383,14214.3
652.465,14243.5
652.546,14408.0
652.627,14436.6
652.709,14689.5
652.79,14756.8
652.872,14425.0
652.953,14100.0
653.034,14263.4
653.116,14024.5
653.197,13870.8
653.278,14043.8
653.36,14219.1
653.441,14344.7
653.523,14496.2
653.604,14432.8
653.685,14228.0
653.767,14145.0
653.848,13736.8
653.929,13716.0
654.011,13589.2
654.092,13744.8
654.173,14113.5
654.255,14125.4
654.336,14075.0
654.418,13967.3
654.499,14010.0
654.58,14044.7
654.662,13692.4
654.743,13881.5
654.824,14268.8
654.906,14132.5
654.987,13806.6
655.068,13672.8
655.149,13445.6
655.231,13703.3
655.312,14260.7
655.393,14241.2
655.475,13900.8
655.556,13537.0
655.637,13524.0
655.719,13852.3
655.8,14178.3
655.881,14228.9
655.963,14078.4
656.044,13958.4
656.125,13476.8
656.206,13399.8
656.288,13593.8
656.369,13945.0
656.45,14537.8
656.532,14204.0
656.613,14293.4
656.694,14234.9
656.775,13823.3
656.857,13640.3
656.938,13163.6
657.019,13248.3
657.1,13339.1
657.182,13591.4
657.263,13620.7
657.344,13662.7
657.425,13864.5
657.507,13666.5
657.588,13623.8
657.669,13447.1
657.75,13653.8
657.832,13602.8
657.913,13537.1
657.994,13674.8
658.075,13400.2
658.157,13251.1
658.238,13181.4
658.319,13114.0
658.4,13162.5
658.482,13238.8
658.563,13599.0
658.644,13556.0
658.725,13576.3
658.806,13402.3
658.888,13408.3
658.969,13551.1
659.05,13515.8
659.131,13384.5
659.212,13241.8
659.294,13152.3
659.375,13450.3
659.456,13204.8
659.537,12953.4
659.618,12895.2
659.7,13005.5
659.781,12906.2
659.862,12775.4
659.943,13068.8
660.024,13073.3
660.105,12796.3
660.187,13311.8
660.268,13171.8
660.349,12860.0
660.43,13080.0
660.511,12924.8
660.592,12851.8
660.674,12900.2
660.755,12758.9
660.836,13091.5
660.917,13186.0
660.998,13184.0
661.079,12724.1
