cm-1,A
4000.0,0.0079
3999.0,0.0079
3998.0,0.0078
3997.0,0.0078
3996.0,0.0079
3995.0,0.0079
3994.0,0.0079
3993.0,0.0079
3992.0,0.008
3991.0,0.008
3990.0,0.0081
3989.0,0.0081
3988.0,0.0081
3987.0,0.0081
3986.0,0.0081
3985.0,0.008
3984.0,0.008
3983.0,0.0079
3982.0,0.0078
3981.0,0.0078
3980.0,0.0078
3979.0,0.0079
3978.0,0.0079
3977.0,0.0079
3976.0,0.0079
3975.0,0.0079
3974.0,0.0079
3973.0,0.0079
3972.0,0.0079
3971.0,0.0079
3970.0,0.0079
3969.0,0.0079
3968.0,0.008
3967.0,0.008
3966.0,0.008
3965.0,0.0081
3964.0,0.0081
3963.0,0.0081
3962.0,0.0081
3961.0,0.008
3960.0,0.008
3959.0,0.0079
3958.0,0.0079
3957.0,0.0079
3956.0,0.0079
3955.0,0.0079
3954.0,0.0079
3953.0,0.008
3952.0,0.008
3951.0,0.008
3950.0,0.008
3949.0,0.008
3948.0,0.0078
3947.0,0.0077
3946.0,0.0078
3945.0,0.0078
3944.0,0.0079
3943.0,0.0079
3942.0,0.0078
3941.0,0.0078
3940.0,0.0078
3939.0,0.0079
3938.0,0.0079
3937.0,0.008
3936.0,0.0081
3935.0,0.0081
3934.0,0.0081
3933.0,0.0081
3932.0,0.008
3931.0,0.008
3930.0,0.0079
3929.0,0.0078
3928.0,0.0079
3927.0,0.0079
3926.0,0.0079
3925.0,0.0079
3924.0,0.0079
3923.0,0.0078
3922.0,0.0078
3921.0,0.0077
3920.0,0.0077
3919.0,0.0077
3918.0,0.0077
3917.0,0.0078
3916.0,0.0079
3915.0,0.008
3914.0,0.0081
3913.0,0.0082
3912.0,0.0082
3911.0,0.0081
3910.0,0.0081
3909.0,0.0082
3908.0,0.0082
3907.0,0.0083
3906.0,0.0082
3905.0,0.0082
3904.0,0.008
3903.0,0.0079
3902.0,0.0078
3901.0,0.0078
3900.0,0.0077
3899.0,0.0076
3898.0,0.0077
3897.0,0.0078
3896.0,0.008
3895.0,0.0081
3894.0,0.0082
3893.0,0.0082
3892.0,0.0081
3891.0,0.0079
3890.0,0.0079
3889.0,0.008
3888.0,0.0081
3887.0,0.0081
3886.0,0.0081
3885.0,0.008
3884.0,0.0081
3883.0,0.0082
3882.0,0.0082
3881.0,0.0081
3880.0,0.008
3879.0,0.0079
3878.0,0.0081
3877.0,0.0083
3876.0,0.0084
3875.0,0.0084
3874.0,0.0083
3873.0,0.0082
3872.0,0.0082
3871.0,0.0082
3870.0,0.0081
3869.0,0.0079
3868.0,0.008
3867.0,0.0082
3866.0,0.0083
3865.0,0.0084
3864.0,0.0083
3863.0,0.0083
3862.0,0.0082
3861.0,0.0082
3860.0,0.0082
3859.0,0.0081
3858.0,0.0081
3857.0,0.0079
3856.0,0.0079
3855.0,0.0081
3854.0,0.0085
3853.0,0.0087
3852.0,0.0087
3851.0,0.0089
3850.0,0.009
3849.0,0.0088
3848.0,0.0085
3847.0,0.0083
3846.0,0.0082
3845.0,0.0081
3844.0,0.0082
3843.0,0.0083
3842.0,0.0084
3841.0,0.0086
3840.0,0.0088
3839.0,0.009
3838.0,0.009
3837.0,0.0089
3836.0,0.0089
3835.0,0.0089
3834.0,0.0089
3833.0,0.0088
3832.0,0.0087
3831.0,0.0086
3830.0,0.0086
3829.0,0.0085
3828.0,0.0085
3827.0,0.0085
3826.0,0.0085
3825.0,0.0085
3824.0,0.0085
3823.0,0.0086
3822.0,0.0087
3821.0,0.0087
3820.0,0.0086
3819.0,0.0088
3818.0,0.009
3817.0,0.009
3816.0,0.0089
3815.0,0.0088
3814.0,0.0089
3813.0,0.009
3812.0,0.0089
3811.0,0.0087
3810.0,0.0086
3809.0,0.0085
3808.0,0.0085
3807.0,0.0085
3806.0,0.0085
3805.0,0.0087
3804.0,0.0088
3803.0,0.0089
3802.0,0.0089
3801.0,0.0088
3800.0,0.0087
3799.0,0.0088
3798.0,0.0089
3797.0,0.0088
3796.0,0.0086
3795.0,0.0086
3794.0,0.0086
3793.0,0.0086
3792.0,0.0086
3791.0,0.0086
3790.0,0.0085
3789.0,0.0086
3788.0,0.0087
3787.0,0.0088
3786.0,0.0088
3785.0,0.0088
3784.0,0.0087
3783.0,0.0086
3782.0,0.0086
3781.0,0.0086
3780.0,0.0086
3779.0,0.0087
3778.0,0.0087
3777.0,0.0088
3776.0,0.0088
3775.0,0.0088
3774.0,0.0087
3773.0,0.0087
3772.0,0.0086
3771.0,0.0086
3770.0,0.0087
3769.0,0.0087
3768.0,0.0088
3767.0,0.0089
3766.0,0.0089
3765.0,0.0088
3764.0,0.0087
3763.0,0.0087
3762.0,0.0086
3761.0,0.0087
3760.0,0.0087
3759.0,0.0088
3758.0,0.0087
3757.0,0.0087
3756.0,0.0086
3755.0,0.0085
3754.0,0.0085
3753.0,0.0087
3752.0,0.009
3751.0,0.0093
3750.0,0.0092
3749.0,0.009
3748.0,0.0089
3747.0,0.0089
3746.0,0.009
3745.0,0.009
3744.0,0.0089
3743.0,0.0089
3742.0,0.0091
3741.0,0.009
3740.0,0.0087
3739.0,0.0083
3738.0,0.0081
3737.0,0.008
3736.0,0.0078
3735.0,0.0074
3734.0,0.0071
3733.0,0.0068
3732.0,0.0067
3731.0,0.0066
3730.0,0.0065
3729.0,0.0065
3728.0,0.0064
3727.0,0.0063
3726.0,0.0063
3725.0,0.0062
3724.0,0.0062
3723.0,0.0063
3722.0,0.0065
3721.0,0.0067
3720.0,0.007
3719.0,0.0073
3718.0,0.0075
3717.0,0.0077
3716.0,0.0079
3715.0,0.0081
3714.0,0.0082
3713.0,0.0084
3712.0,0.0085
3711.0,0.0083
3710.0,0.008
3709.0,0.0078
3708.0,0.0077
3707.0,0.0076
3706.0,0.0076
3705.0,0.0075
3704.0,0.0074
3703.0,0.0073
3702.0,0.0072
3701.0,0.0071
3700.0,0.0071
3699.0,0.0072
3698.0,0.0073
3697.0,0.0074
3696.0,0.0074
3695.0,0.0075
3694.0,0.0075
3693.0,0.0075
3692.0,0.0076
3691.0,0.0079
3690.0,0.0081
3689.0,0.0082
3688.0,0.0083
3687.0,0.0085
3686.0,0.0088
3685.0,0.0089
3684.0,0.0089
3683.0,0.0089
3682.0,0.009
3681.0,0.009
3680.0,0.009
3679.0,0.0089
3678.0,0.0088
3677.0,0.009
3676.0,0.0091
3675.0,0.009
3674.0,0.009
3673.0,0.0092
3672.0,0.0093
3671.0,0.0094
3670.0,0.0094
3669.0,0.0094
3668.0,0.0094
3667.0,0.0095
3666.0,0.0096
3665.0,0.0095
3664.0,0.0095
3663.0,0.0094
3662.0,0.0093
3661.0,0.0093
3660.0,0.0093
3659.0,0.0093
3658.0,0.0094
3657.0,0.0095
3656.0,0.0095
3655.0,0.0094
3654.0,0.0093
3653.0,0.0092
3652.0,0.0091
3651.0,0.0092
3650.0,0.0094
3649.0,0.0095
3648.0,0.0093
3647.0,0.0092
3646.0,0.0092
3645.0,0.0092
3644.0,0.0093
3643.0,0.0093
3642.0,0.0094
3641.0,0.0094
3640.0,0.0094
3639.0,0.0093
3638.0,0.0092
3637.0,0.009
3636.0,0.0089
3635.0,0.0087
3634.0,0.0086
3633.0,0.0085
3632.0,0.0083
3631.0,0.0083
3630.0,0.0083
3629.0,0.0083
3628.0,0.0081
3627.0,0.0081
3626.0,0.0083
3625.0,0.0083
3624.0,0.0083
3623.0,0.0083
3622.0,0.0083
3621.0,0.0084
3620.0,0.0084
3619.0,0.0083
3618.0,0.0084
3617.0,0.0085
3616.0,0.0088
3615.0,0.0091
3614.0,0.0093
3613.0,0.0095
3612.0,0.0097
3611.0,0.0098
3610.0,0.0099
3609.0,0.0098
3608.0,0.0096
3607.0,0.0093
3606.0,0.0091
3605.0,0.009
3604.0,0.0089
3603.0,0.0089
3602.0,0.009
3601.0,0.009
3600.0,0.009
3599.0,0.009
3598.0,0.0089
3597.0,0.0088
3596.0,0.0088
3595.0,0.0088
3594.0,0.0088
3593.0,0.0089
3592.0,0.0089
3591.0,0.009
3590.0,0.009
3589.0,0.0091
3588.0,0.0091
3587.0,0.0091
3586.0,0.0092
3585.0,0.0095
3584.0,0.0098
3583.0,0.01
3582.0,0.0101
3581.0,0.0102
3580.0,0.0102
3579.0,0.0102
3578.0,0.0103
3577.0,0.0103
3576.0,0.0104
3575.0,0.0104
3574.0,0.0104
3573.0,0.0103
3572.0,0.0103
3571.0,0.0102
3570.0,0.0102
3569.0,0.0102
3568.0,0.0102
3567.0,0.0102
3566.0,0.0102
3565.0,0.0103
3564.0,0.0104
3563.0,0.0104
3562.0,0.0105
3561.0,0.0105
3560.0,0.0106
3559.0,0.0108
3558.0,0.0109
3557.0,0.0111
3556.0,0.0111
3555.0,0.0112
3554.0,0.0112
3553.0,0.0112
3552.0,0.0112
3551.0,0.0112
3550.0,0.0112
3549.0,0.0112
3548.0,0.0112
3547.0,0.0111
3546.0,0.011
3545.0,0.011
3544.0,0.011
3543.0,0.0111
3542.0,0.0112
3541.0,0.0112
3540.0,0.0112
3539.0,0.0112
3538.0,0.0112
3537.0,0.0112
3536.0,0.0112
3535.0,0.0113
3534.0,0.0114
3533.0,0.0115
3532.0,0.0115
3531.0,0.0116
3530.0,0.0116
3529.0,0.0115
3528.0,0.0114
3527.0,0.0113
3526.0,0.0113
3525.0,0.0113
3524.0,0.0114
3523.0,0.0114
3522.0,0.0115
3521.0,0.0116
3520.0,0.0116
3519.0,0.0117
3518.0,0.0117
3517.0,0.0116
3516.0,0.0115
3515.0,0.0114
3514.0,0.0114
3513.0,0.0115
3512.0,0.0116
3511.0,0.0117
3510.0,0.0117
3509.0,0.0117
3508.0,0.0117
3507.0,0.0117
3506.0,0.0118
3505.0,0.0119
3504.0,0.012
3503.0,0.0119
3502.0,0.0117
3501.0,0.0116
3500.0,0.0116
3499.0,0.0117
3498.0,0.0118
3497.0,0.0119
3496.0,0.012
3495.0,0.0121
3494.0,0.0121
3493.0,0.0121
3492.0,0.012
3491.0,0.012
3490.0,0.012
3489.0,0.0121
3488.0,0.0121
3487.0,0.0121
3486.0,0.0121
3485.0,0.0121
3484.0,0.0121
3483.0,0.012
3482.0,0.0119
3481.0,0.0119
3480.0,0.0119
3479.0,0.012
3478.0,0.0121
3477.0,0.0121
3476.0,0.012
3475.0,0.012
3474.0,0.012
3473.0,0.0121
3472.0,0.0121
3471.0,0.0123
3470.0,0.0124
3469.0,0.0124
3468.0,0.0124
3467.0,0.0124
3466.0,0.0123
3465.0,0.0123
3464.0,0.0122
3463.0,0.0121
3462.0,0.0121
3461.0,0.0121
3460.0,0.0122
3459.0,0.0123
3458.0,0.0123
3457.0,0.0123
3456.0,0.0123
3455.0,0.0123
3454.0,0.0122
3453.0,0.0122
3452.0,0.0122
3451.0,0.0121
3450.0,0.0121
3449.0,0.0121
3448.0,0.0121
3447.0,0.0121
3446.0,0.0121
3445.0,0.0121
3444.0,0.0122
3443.0,0.0123
3442.0,0.0124
3441.0,0.0124
3440.0,0.0125
3439.0,0.0125
3438.0,0.0125
3437.0,0.0125
3436.0,0.0125
3435.0,0.0125
3434.0,0.0124
3433.0,0.0124
3432.0,0.0123
3431.0,0.0123
3430.0,0.0124
3429.0,0.0125
3428.0,0.0125
3427.0,0.0126
3426.0,0.0126
3425.0,0.0125
3424.0,0.0125
3423.0,0.0125
3422.0,0.0125
3421.0,0.0125
3420.0,0.0125
3419.0,0.0125
3418.0,0.0126
3417.0,0.0126
3416.0,0.0126
3415.0,0.0127
3414.0,0.0128
3413.0,0.0129
3412.0,0.0129
3411.0,0.0129
3410.0,0.0127
3409.0,0.0126
3408.0,0.0125
3407.0,0.0125
3406.0,0.0125
3405.0,0.0126
3404.0,0.0127
3403.0,0.0128
3402.0,0.0128
3401.0,0.0128
3400.0,0.0128
3399.0,0.0128
3398.0,0.0127
3397.0,0.0127
3396.0,0.0126
3395.0,0.0126
3394.0,0.0126
3393.0,0.0127
3392.0,0.0128
3391.0,0.0127
3390.0,0.0127
3389.0,0.0126
3388.0,0.0125
3387.0,0.0125
3386.0,0.0125
3385.0,0.0125
3384.0,0.0125
3383.0,0.0126
3382.0,0.0126
3381.0,0.0126
3380.0,0.0125
3379.0,0.0125
3378.0,0.0125
3377.0,0.0125
3376.0,0.0125
3375.0,0.0125
3374.0,0.0125
3373.0,0.0125
3372.0,0.0125
3371.0,0.0125
3370.0,0.0126
3369.0,0.0126
3368.0,0.0127
3367.0,0.0127
3366.0,0.0127
3365.0,0.0126
3364.0,0.0125
3363.0,0.0125
3362.0,0.0125
3361.0,0.0125
3360.0,0.0125
3359.0,0.0126
3358.0,0.0126
3357.0,0.0126
3356.0,0.0126
3355.0,0.0127
3354.0,0.0129
3353.0,0.0129
3352.0,0.0129
3351.0,0.0129
3350.0,0.0128
3349.0,0.0127
3348.0,0.0127
3347.0,0.0126
3346.0,0.0126
3345.0,0.0127
3344.0,0.0126
3343.0,0.0126
3342.0,0.0125
3341.0,0.0125
3340.0,0.0125
3339.0,0.0125
3338.0,0.0125
3337.0,0.0124
3336.0,0.0124
3335.0,0.0124
3334.0,0.0123
3333.0,0.0123
3332.0,0.0123
3331.0,0.0124
3330.0,0.0125
3329.0,0.0125
3328.0,0.0125
3327.0,0.0125
3326.0,0.0124
3325.0,0.0124
3324.0,0.0124
3323.0,0.0123
3322.0,0.0122
3321.0,0.0122
3320.0,0.0122
3319.0,0.0123
3318.0,0.0123
3317.0,0.0123
3316.0,0.0123
3315.0,0.0123
3314.0,0.0122
3313.0,0.0121
3312.0,0.012
3311.0,0.012
3310.0,0.0121
3309.0,0.0123
3308.0,0.0123
3307.0,0.0124
3306.0,0.0124
3305.0,0.0123
3304.0,0.0123
3303.0,0.0122
3302.0,0.0121
3301.0,0.0121
3300.0,0.0121
3299.0,0.0121
3298.0,0.0122
3297.0,0.0121
3296.0,0.0121
3295.0,0.0121
3294.0,0.0121
3293.0,0.0121
3292.0,0.0121
3291.0,0.012
3290.0,0.012
3289.0,0.0119
3288.0,0.0119
3287.0,0.0119
3286.0,0.0119
3285.0,0.012
3284.0,0.012
3283.0,0.0121
3282.0,0.0121
3281.0,0.0121
3280.0,0.0121
3279.0,0.012
3278.0,0.012
3277.0,0.0119
3276.0,0.0119
3275.0,0.0119
3274.0,0.0119
3273.0,0.0119
3272.0,0.0119
3271.0,0.0118
3270.0,0.0118
3269.0,0.0117
3268.0,0.0118
3267.0,0.0118
3266.0,0.0119
3265.0,0.0119
3264.0,0.0119
3263.0,0.0118
3262.0,0.0117
3261.0,0.0115
3260.0,0.0113
3259.0,0.0113
3258.0,0.0113
3257.0,0.0114
3256.0,0.0115
3255.0,0.0115
3254.0,0.0115
3253.0,0.0115
3252.0,0.0115
3251.0,0.0115
3250.0,0.0114
3249.0,0.0114
3248.0,0.0113
3247.0,0.0114
3246.0,0.0114
3245.0,0.0114
3244.0,0.0114
3243.0,0.0113
3242.0,0.0113
3241.0,0.0114
3240.0,0.0114
3239.0,0.0113
3238.0,0.0112
3237.0,0.0112
3236.0,0.0111
3235.0,0.0112
3234.0,0.0112
3233.0,0.0112
3232.0,0.0113
3231.0,0.0113
3230.0,0.0114
3229.0,0.0114
3228.0,0.0115
3227.0,0.0114
3226.0,0.0114
3225.0,0.0114
3224.0,0.0114
3223.0,0.0114
3222.0,0.0113
3221.0,0.0113
3220.0,0.0112
3219.0,0.0111
3218.0,0.0111
3217.0,0.0112
3216.0,0.0113
3215.0,0.0114
3214.0,0.0114
3213.0,0.0114
3212.0,0.0114
3211.0,0.0114
3210.0,0.0113
3209.0,0.0112
3208.0,0.0112
3207.0,0.0112
3206.0,0.0112
3205.0,0.0113
3204.0,0.0113
3203.0,0.0114
3202.0,0.0114
3201.0,0.0114
3200.0,0.0113
3199.0,0.0112
3198.0,0.0112
3197.0,0.0111
3196.0,0.0111
3195.0,0.011
3194.0,0.011
3193.0,0.011
3192.0,0.011
3191.0,0.011
3190.0,0.0111
3189.0,0.0111
3188.0,0.011
3187.0,0.0109
3186.0,0.0108
3185.0,0.0108
3184.0,0.0107
3183.0,0.0106
3182.0,0.0105
3181.0,0.0105
3180.0,0.0105
3179.0,0.0105
3178.0,0.0105
3177.0,0.0104
3176.0,0.0104
3175.0,0.0104
3174.0,0.0103
3173.0,0.0103
3172.0,0.0103
3171.0,0.0103
3170.0,0.0104
3169.0,0.0104
3168.0,0.0104
3167.0,0.0105
3166.0,0.0105
3165.0,0.0104
3164.0,0.0103
3163.0,0.0102
3162.0,0.0102
3161.0,0.0101
3160.0,0.0101
3159.0,0.0102
3158.0,0.0102
3157.0,0.0102
3156.0,0.0101
3155.0,0.0101
3154.0,0.01
3153.0,0.01
3152.0,0.01
3151.0,0.0101
3150.0,0.0101
3149.0,0.0101
3148.0,0.0101
3147.0,0.0101
3146.0,0.01
3145.0,0.01
3144.0,0.0099
3143.0,0.0098
3142.0,0.0097
3141.0,0.0098
3140.0,0.0098
3139.0,0.0099
3138.0,0.0099
3137.0,0.0098
3136.0,0.0097
3135.0,0.0097
3134.0,0.0096
3133.0,0.0095
3132.0,0.0094
3131.0,0.0093
3130.0,0.0093
3129.0,0.0093
3128.0,0.0093
3127.0,0.0094
3126.0,0.0093
3125.0,0.0093
3124.0,0.0092
3123.0,0.0091
3122.0,0.009
3121.0,0.009
3120.0,0.0091
3119.0,0.0091
3118.0,0.0091
3117.0,0.009
3116.0,0.009
3115.0,0.009
3114.0,0.0089
3113.0,0.0089
3112.0,0.0088
3111.0,0.0087
3110.0,0.0086
3109.0,0.0086
3108.0,0.0086
3107.0,0.0086
3106.0,0.0086
3105.0,0.0086
3104.0,0.0085
3103.0,0.0085
3102.0,0.0084
3101.0,0.0084
3100.0,0.0084
3099.0,0.0084
3098.0,0.0084
3097.0,0.0083
3096.0,0.0083
3095.0,0.0082
3094.0,0.0082
3093.0,0.0082
3092.0,0.0082
3091.0,0.0082
3090.0,0.0081
3089.0,0.0081
3088.0,0.008
3087.0,0.0079
3086.0,0.0078
3085.0,0.0077
3084.0,0.0076
3083.0,0.0076
3082.0,0.0076
3081.0,0.0076
3080.0,0.0076
3079.0,0.0076
3078.0,0.0076
3077.0,0.0076
3076.0,0.0075
3075.0,0.0074
3074.0,0.0073
3073.0,0.0073
3072.0,0.0073
3071.0,0.0073
3070.0,0.0073
3069.0,0.0073
3068.0,0.0072
3067.0,0.0072
3066.0,0.0071
3065.0,0.0071
3064.0,0.007
3063.0,0.007
3062.0,0.0069
3061.0,0.0068
3060.0,0.0067
3059.0,0.0067
3058.0,0.0067
3057.0,0.0067
3056.0,0.0067
3055.0,0.0067
3054.0,0.0067
3053.0,0.0067
3052.0,0.0067
3051.0,0.0066
3050.0,0.0065
3049.0,0.0063
3048.0,0.0062
3047.0,0.0061
3046.0,0.0061
3045.0,0.006
3044.0,0.006
3043.0,0.006
3042.0,0.006
3041.0,0.006
3040.0,0.006
3039.0,0.0059
3038.0,0.0058
3037.0,0.0057
3036.0,0.0056
3035.0,0.0055
3034.0,0.0055
3033.0,0.0055
3032.0,0.0054
3031.0,0.0054
3030.0,0.0053
3029.0,0.0052
3028.0,0.005
3027.0,0.0049
3026.0,0.0049
3025.0,0.0049
3024.0,0.0049
3023.0,0.0049
3022.0,0.005
3021.0,0.005
3020.0,0.0049
3019.0,0.0048
3018.0,0.0047
3017.0,0.0046
3016.0,0.0046
3015.0,0.0046
3014.0,0.0046
3013.0,0.0047
3012.0,0.0047
3011.0,0.0047
3010.0,0.0047
3009.0,0.0047
3008.0,0.0047
3007.0,0.0047
3006.0,0.0047
3005.0,0.0047
3004.0,0.0047
3003.0,0.0047
3002.0,0.0047
3001.0,0.0047
3000.0,0.0048
2999.0,0.0048
2998.0,0.0049
2997.0,0.0049
2996.0,0.005
2995.0,0.0051
2994.0,0.0052
2993.0,0.0054
2992.0,0.0057
2991.0,0.006
2990.0,0.0063
2989.0,0.0066
2988.0,0.007
2987.0,0.0075
2986.0,0.008
2985.0,0.0086
2984.0,0.0093
2983.0,0.0102
2982.0,0.0112
2981.0,0.0124
2980.0,0.0138
2979.0,0.0153
2978.0,0.017
2977.0,0.019
2976.0,0.0213
2975.0,0.0241
2974.0,0.0272
2973.0,0.0307
2972.0,0.0346
2971.0,0.0389
2970.0,0.0436
2969.0,0.0487
2968.0,0.0541
2967.0,0.0598
2966.0,0.0656
2965.0,0.0713
2964.0,0.0769
2963.0,0.0819
2962.0,0.0862
2961.0,0.0896
2960.0,0.0925
2959.0,0.095
2958.0,0.0977
2957.0,0.1011
2956.0,0.1053
2955.0,0.1106
2954.0,0.1167
2953.0,0.1232
2952.0,0.1293
2951.0,0.1342
2950.0,0.1369
2949.0,0.1367
2948.0,0.1336
2947.0,0.1277
2946.0,0.1198
2945.0,0.1108
2944.0,0.1017
2943.0,0.0934
2942.0,0.0865
2941.0,0.0813
2940.0,0.0777
2939.0,0.0757
2938.0,0.0751
2937.0,0.0759
2936.0,0.0779
2935.0,0.081
2934.0,0.0851
2933.0,0.0902
2932.0,0.0961
2931.0,0.1027
2930.0,0.1096
2929.0,0.1167
2928.0,0.1238
2927.0,0.1307
2926.0,0.1373
2925.0,0.1437
2924.0,0.1501
2923.0,0.1565
2922.0,0.1629
2921.0,0.1692
2920.0,0.175
2919.0,0.1797
2918.0,0.1825
2917.0,0.183
2916.0,0.181
2915.0,0.1769
2914.0,0.1714
2913.0,0.1654
2912.0,0.1595
2911.0,0.1542
2910.0,0.1493
2909.0,0.1449
2908.0,0.1408
2907.0,0.1368
2906.0,0.1329
2905.0,0.1289
2904.0,0.1248
2903.0,0.1208
2902.0,0.1167
2901.0,0.1128
2900.0,0.1089
2899.0,0.1051
2898.0,0.1016
2897.0,0.0984
2896.0,0.0956
2895.0,0.0931
2894.0,0.0911
2893.0,0.0894
2892.0,0.088
2891.0,0.0871
2890.0,0.0866
2889.0,0.0864
2888.0,0.0865
2887.0,0.0869
2886.0,0.0876
2885.0,0.0885
2884.0,0.0897
2883.0,0.0913
2882.0,0.0932
2881.0,0.0953
2880.0,0.0974
2879.0,0.0992
2878.0,0.1004
2877.0,0.1009
2876.0,0.1008
2875.0,0.1004
2874.0,0.1001
2873.0,0.1001
2872.0,0.1007
2871.0,0.102
2870.0,0.1036
2869.0,0.1054
2868.0,0.1067
2867.0,0.1069
2866.0,0.1056
2865.0,0.1024
2864.0,0.0976
2863.0,0.0917
2862.0,0.0853
2861.0,0.0793
2860.0,0.074
2859.0,0.0697
2858.0,0.0662
2857.0,0.0636
2856.0,0.0617
2855.0,0.0604
2854.0,0.0595
2853.0,0.059
2852.0,0.0589
2851.0,0.0594
2850.0,0.0603
2849.0,0.0618
2848.0,0.0639
2847.0,0.0665
2846.0,0.0698
2845.0,0.0739
2844.0,0.0785
2843.0,0.0835
2842.0,0.0887
2841.0,0.0935
2840.0,0.0977
2839.0,0.1005
2838.0,0.1017
2837.0,0.1007
2836.0,0.0977
2835.0,0.093
2834.0,0.0871
2833.0,0.0807
2832.0,0.0746
2831.0,0.069
2830.0,0.0642
2829.0,0.0601
2828.0,0.0567
2827.0,0.0539
2826.0,0.0515
2825.0,0.0495
2824.0,0.0479
2823.0,0.0465
2822.0,0.0452
2821.0,0.0441
2820.0,0.0431
2819.0,0.0422
2818.0,0.0414
2817.0,0.0408
2816.0,0.0401
2815.0,0.0395
2814.0,0.0389
2813.0,0.0384
2812.0,0.0379
2811.0,0.0374
2810.0,0.0369
2809.0,0.0363
2808.0,0.0358
2807.0,0.0352
2806.0,0.0347
2805.0,0.0342
2804.0,0.0336
2803.0,0.0331
2802.0,0.0325
2801.0,0.032
2800.0,0.0316
2799.0,0.0313
2798.0,0.0309
2797.0,0.0306
2796.0,0.0302
2795.0,0.0299
2794.0,0.0296
2793.0,0.0293
2792.0,0.029
2791.0,0.0287
2790.0,0.0284
2789.0,0.0282
2788.0,0.0279
2787.0,0.0277
2786.0,0.0275
2785.0,0.0272
2784.0,0.027
2783.0,0.0267
2782.0,0.0265
2781.0,0.0263
2780.0,0.026
2779.0,0.0257
2778.0,0.0255
2777.0,0.0253
2776.0,0.0251
2775.0,0.0249
2774.0,0.0248
2773.0,0.0247
2772.0,0.0246
2771.0,0.0245
2770.0,0.0244
2769.0,0.0243
2768.0,0.0242
2767.0,0.024
2766.0,0.0239
2765.0,0.0237
2764.0,0.0236
2763.0,0.0236
2762.0,0.0235
2761.0,0.0234
2760.0,0.0233
2759.0,0.0232
2758.0,0.0231
2757.0,0.023
2756.0,0.023
2755.0,0.023
2754.0,0.0229
2753.0,0.0228
2752.0,0.0226
2751.0,0.0225
2750.0,0.0224
2749.0,0.0224
2748.0,0.0224
2747.0,0.0224
2746.0,0.0224
2745.0,0.0223
2744.0,0.0223
2743.0,0.0223
2742.0,0.0224
2741.0,0.0225
2740.0,0.0226
2739.0,0.0227
2738.0,0.0228
2737.0,0.0228
2736.0,0.0229
2735.0,0.023
2734.0,0.0231
2733.0,0.0232
2732.0,0.0233
2731.0,0.0234
2730.0,0.0236
2729.0,0.0238
2728.0,0.024
2727.0,0.0243
2726.0,0.0245
2725.0,0.0247
2724.0,0.0249
2723.0,0.025
2722.0,0.025
2721.0,0.0248
2720.0,0.0247
2719.0,0.0244
2718.0,0.0241
2717.0,0.0238
2716.0,0.0235
2715.0,0.0233
2714.0,0.0231
2713.0,0.0229
2712.0,0.0228
2711.0,0.0226
2710.0,0.0224
2709.0,0.0222
2708.0,0.022
2707.0,0.0218
2706.0,0.0217
2705.0,0.0216
2704.0,0.0215
2703.0,0.0213
2702.0,0.0212
2701.0,0.0211
2700.0,0.021
2699.0,0.0209
2698.0,0.0208
2697.0,0.0207
2696.0,0.0206
2695.0,0.0206
2694.0,0.0206
2693.0,0.0206
2692.0,0.0206
2691.0,0.0206
2690.0,0.0206
2689.0,0.0206
2688.0,0.0205
2687.0,0.0205
2686.0,0.0204
2685.0,0.0204
2684.0,0.0204
2683.0,0.0204
2682.0,0.0203
2681.0,0.0203
2680.0,0.0202
2679.0,0.0202
2678.0,0.0203
2677.0,0.0203
2676.0,0.0203
2675.0,0.0203
2674.0,0.0203
2673.0,0.0203
2672.0,0.0203
2671.0,0.0202
2670.0,0.0202
2669.0,0.0202
2668.0,0.0201
2667.0,0.0201
2666.0,0.0201
2665.0,0.0201
2664.0,0.0201
2663.0,0.02
2662.0,0.0199
2661.0,0.0198
2660.0,0.0198
2659.0,0.0198
2658.0,0.0198
2657.0,0.0198
2656.0,0.0198
2655.0,0.0197
2654.0,0.0196
2653.0,0.0195
2652.0,0.0195
2651.0,0.0195
2650.0,0.0195
2649.0,0.0194
2648.0,0.0194
2647.0,0.0193
2646.0,0.0192
2645.0,0.0192
2644.0,0.0191
2643.0,0.0191
2642.0,0.019
2641.0,0.0189
2640.0,0.0189
2639.0,0.0188
2638.0,0.0188
2637.0,0.0188
2636.0,0.0188
2635.0,0.0187
2634.0,0.0187
2633.0,0.0188
2632.0,0.0188
2631.0,0.0188
2630.0,0.0189
2629.0,0.0189
2628.0,0.0189
2627.0,0.019
2626.0,0.019
2625.0,0.0189
2624.0,0.0189
2623.0,0.0188
2622.0,0.0188
2621.0,0.0189
2620.0,0.0189
2619.0,0.0189
2618.0,0.0188
2617.0,0.0188
2616.0,0.0187
2615.0,0.0188
2614.0,0.0188
2613.0,0.0189
2612.0,0.0189
2611.0,0.0189
2610.0,0.0188
2609.0,0.0187
2608.0,0.0187
2607.0,0.0186
2606.0,0.0186
2605.0,0.0185
2604.0,0.0184
2603.0,0.0182
2602.0,0.0181
2601.0,0.0181
2600.0,0.018
2599.0,0.0181
2598.0,0.0181
2597.0,0.0181
2596.0,0.0182
2595.0,0.0182
2594.0,0.0182
2593.0,0.0182
2592.0,0.0182
2591.0,0.0183
2590.0,0.0183
2589.0,0.0184
2588.0,0.0185
2587.0,0.0186
2586.0,0.0186
2585.0,0.0187
2584.0,0.0187
2583.0,0.0187
2582.0,0.0187
2581.0,0.0188
2580.0,0.0188
2579.0,0.0188
2578.0,0.0187
2577.0,0.0186
2576.0,0.0185
2575.0,0.0184
2574.0,0.0184
2573.0,0.0183
2572.0,0.0183
2571.0,0.0182
2570.0,0.018
2569.0,0.0179
2568.0,0.0179
2567.0,0.0178
2566.0,0.0178
2565.0,0.0178
2564.0,0.0178
2563.0,0.0177
2562.0,0.0177
2561.0,0.0176
2560.0,0.0176
2559.0,0.0175
2558.0,0.0174
2557.0,0.0174
2556.0,0.0174
2555.0,0.0174
2554.0,0.0174
2553.0,0.0174
2552.0,0.0173
2551.0,0.0172
2550.0,0.0172
2549.0,0.0171
2548.0,0.017
2547.0,0.017
2546.0,0.017
2545.0,0.017
2544.0,0.017
2543.0,0.017
2542.0,0.017
2541.0,0.0169
2540.0,0.0168
2539.0,0.0168
2538.0,0.0168
2537.0,0.0168
2536.0,0.0168
2535.0,0.0167
2534.0,0.0167
2533.0,0.0167
2532.0,0.0167
2531.0,0.0167
2530.0,0.0167
2529.0,0.0166
2528.0,0.0166
2527.0,0.0166
2526.0,0.0166
2525.0,0.0166
2524.0,0.0165
2523.0,0.0165
2522.0,0.0164
2521.0,0.0164
2520.0,0.0163
2519.0,0.0163
2518.0,0.0163
2517.0,0.0163
2516.0,0.0163
2515.0,0.0163
2514.0,0.0163
2513.0,0.0163
2512.0,0.0162
2511.0,0.0162
2510.0,0.0162
2509.0,0.0162
2508.0,0.0162
2507.0,0.0162
2506.0,0.0162
2505.0,0.0162
2504.0,0.0161
2503.0,0.0161
2502.0,0.016
2501.0,0.016
2500.0,0.0161
2499.0,0.0161
2498.0,0.0161
2497.0,0.0161
2496.0,0.0161
2495.0,0.016
2494.0,0.016
2493.0,0.016
2492.0,0.016
2491.0,0.0161
2490.0,0.0161
2489.0,0.016
2488.0,0.016
2487.0,0.0159
2486.0,0.0159
2485.0,0.0159
2484.0,0.0159
2483.0,0.0159
2482.0,0.0158
2481.0,0.0158
2480.0,0.0158
2479.0,0.0158
2478.0,0.0159
2477.0,0.0158
2476.0,0.0158
2475.0,0.0157
2474.0,0.0156
2473.0,0.0156
2472.0,0.0156
2471.0,0.0155
2470.0,0.0156
2469.0,0.0156
2468.0,0.0156
2467.0,0.0156
2466.0,0.0156
2465.0,0.0156
2464.0,0.0157
2463.0,0.0157
2462.0,0.0157
2461.0,0.0157
2460.0,0.0157
2459.0,0.0156
2458.0,0.0157
2457.0,0.0157
2456.0,0.0157
2455.0,0.0157
2454.0,0.0157
2453.0,0.0156
2452.0,0.0156
2451.0,0.0156
2450.0,0.0156
2449.0,0.0156
2448.0,0.0156
2447.0,0.0156
2446.0,0.0156
2445.0,0.0156
2444.0,0.0156
2443.0,0.0155
2442.0,0.0154
2441.0,0.0154
2440.0,0.0155
2439.0,0.0155
2438.0,0.0155
2437.0,0.0155
2436.0,0.0155
2435.0,0.0155
2434.0,0.0155
2433.0,0.0155
2432.0,0.0156
2431.0,0.0156
2430.0,0.0157
2429.0,0.0157
2428.0,0.0157
2427.0,0.0158
2426.0,0.0157
2425.0,0.0157
2424.0,0.0156
2423.0,0.0156
2422.0,0.0156
2421.0,0.0156
2420.0,0.0156
2419.0,0.0156
2418.0,0.0156
2417.0,0.0156
2416.0,0.0155
2415.0,0.0155
2414.0,0.0155
2413.0,0.0156
2412.0,0.0156
2411.0,0.0156
2410.0,0.0156
2409.0,0.0156
2408.0,0.0155
2407.0,0.0155
2406.0,0.0155
2405.0,0.0156
2404.0,0.0156
2403.0,0.0156
2402.0,0.0155
2401.0,0.0155
2400.0,0.0154
2399.0,0.0154
2398.0,0.0154
2397.0,0.0154
2396.0,0.0153
2395.0,0.0153
2394.0,0.0153
2393.0,0.0153
2392.0,0.0153
2391.0,0.0154
2390.0,0.0154
2389.0,0.0153
2388.0,0.0152
2387.0,0.015
2386.0,0.0146
2385.0,0.0141
2384.0,0.0135
2383.0,0.0128
2382.0,0.0119
2381.0,0.0107
2380.0,0.0094
2379.0,0.0081
2378.0,0.007
2377.0,0.0062
2376.0,0.0057
2375.0,0.0057
2374.0,0.0063
2373.0,0.0071
2372.0,0.0078
2371.0,0.008
2370.0,0.0078
2369.0,0.0072
2368.0,0.0063
2367.0,0.0053
2366.0,0.0038
2365.0,0.0021
2364.0,0.0011
2363.0,0.0016
2362.0,0.0028
2361.0,0.0028
2360.0,0.0018
2359.0,0.0014
2358.0,0.0018
2357.0,0.0013
2356.0,-0.0008
2355.0,-0.0031
2354.0,-0.0044
2353.0,-0.0049
2352.0,-0.005
2351.0,-0.0043
2350.0,-0.0031
2349.0,-0.0018
2348.0,-0.001
2347.0,-0.001
2346.0,-0.0018
2345.0,-0.003
2344.0,-0.0041
2343.0,-0.0041
2342.0,-0.0032
2341.0,-0.0022
2340.0,-0.0019
2339.0,-0.0019
2338.0,-0.0019
2337.0,-0.0019
2336.0,-0.002
2335.0,-0.0023
2334.0,-0.0029
2333.0,-0.0037
2332.0,-0.0045
2331.0,-0.0048
2330.0,-0.0041
2329.0,-0.0029
2328.0,-0.0016
2327.0,-0.0006
2326.0,0.0004
2325.0,0.0012
2324.0,0.0016
2323.0,0.0019
2322.0,0.0022
2321.0,0.0029
2320.0,0.0038
2319.0,0.0048
2318.0,0.0057
2317.0,0.0064
2316.0,0.0067
2315.0,0.0067
2314.0,0.0063
2313.0,0.0058
2312.0,0.0056
2311.0,0.0057
2310.0,0.006
2309.0,0.0065
2308.0,0.0071
2307.0,0.0077
2306.0,0.0083
2305.0,0.0088
2304.0,0.0091
2303.0,0.0094
2302.0,0.0096
2301.0,0.0098
2300.0,0.0101
2299.0,0.0103
2298.0,0.0106
2297.0,0.0109
2296.0,0.0111
2295.0,0.0113
2294.0,0.0115
2293.0,0.0118
2292.0,0.012
2291.0,0.0123
2290.0,0.0126
2289.0,0.0128
2288.0,0.0131
2287.0,0.0133
2286.0,0.0135
2285.0,0.0137
2284.0,0.0139
2283.0,0.014
2282.0,0.0141
2281.0,0.014
2280.0,0.0139
2279.0,0.0137
2278.0,0.0135
2277.0,0.0134
2276.0,0.0134
2275.0,0.0134
2274.0,0.0134
2273.0,0.0134
2272.0,0.0134
2271.0,0.0134
2270.0,0.0135
2269.0,0.0135
2268.0,0.0136
2267.0,0.0136
2266.0,0.0136
2265.0,0.0136
2264.0,0.0136
2263.0,0.0136
2262.0,0.0137
2261.0,0.0137
2260.0,0.0138
2259.0,0.0139
2258.0,0.014
2257.0,0.0141
2256.0,0.0142
2255.0,0.0142
2254.0,0.0142
2253.0,0.0142
2252.0,0.0142
2251.0,0.0141
2250.0,0.0142
2249.0,0.0142
2248.0,0.0142
2247.0,0.0143
2246.0,0.0143
2245.0,0.0144
2244.0,0.0144
2243.0,0.0144
2242.0,0.0144
2241.0,0.0144
2240.0,0.0145
2239.0,0.0145
2238.0,0.0145
2237.0,0.0144
2236.0,0.0143
2235.0,0.0143
2234.0,0.0144
2233.0,0.0145
2232.0,0.0145
2231.0,0.0145
2230.0,0.0145
2229.0,0.0145
2228.0,0.0145
2227.0,0.0144
2226.0,0.0144
2225.0,0.0144
2224.0,0.0144
2223.0,0.0143
2222.0,0.0144
2221.0,0.0144
2220.0,0.0144
2219.0,0.0145
2218.0,0.0145
2217.0,0.0145
2216.0,0.0145
2215.0,0.0144
2214.0,0.0144
2213.0,0.0144
2212.0,0.0144
2211.0,0.0144
2210.0,0.0144
2209.0,0.0144
2208.0,0.0144
2207.0,0.0144
2206.0,0.0144
2205.0,0.0144
2204.0,0.0145
2203.0,0.0145
2202.0,0.0145
2201.0,0.0146
2200.0,0.0145
2199.0,0.0145
2198.0,0.0144
2197.0,0.0144
2196.0,0.0145
2195.0,0.0145
2194.0,0.0146
2193.0,0.0146
2192.0,0.0146
2191.0,0.0146
2190.0,0.0145
2189.0,0.0145
2188.0,0.0145
2187.0,0.0145
2186.0,0.0145
2185.0,0.0145
2184.0,0.0145
2183.0,0.0144
2182.0,0.0144
2181.0,0.0144
2180.0,0.0144
2179.0,0.0144
2178.0,0.0144
2177.0,0.0144
2176.0,0.0144
2175.0,0.0145
2174.0,0.0145
2173.0,0.0145
2172.0,0.0145
2171.0,0.0146
2170.0,0.0146
2169.0,0.0146
2168.0,0.0146
2167.0,0.0145
2166.0,0.0145
2165.0,0.0144
2164.0,0.0144
2163.0,0.0144
2162.0,0.0144
2161.0,0.0144
2160.0,0.0144
2159.0,0.0144
2158.0,0.0144
2157.0,0.0144
2156.0,0.0144
2155.0,0.0144
2154.0,0.0144
2153.0,0.0144
2152.0,0.0143
2151.0,0.0143
2150.0,0.0143
2149.0,0.0143
2148.0,0.0143
2147.0,0.0142
2146.0,0.0142
2145.0,0.0142
2144.0,0.0142
2143.0,0.0142
2142.0,0.0142
2141.0,0.0142
2140.0,0.0143
2139.0,0.0143
2138.0,0.0144
2137.0,0.0144
2136.0,0.0144
2135.0,0.0144
2134.0,0.0144
2133.0,0.0144
2132.0,0.0144
2131.0,0.0144
2130.0,0.0144
2129.0,0.0144
2128.0,0.0144
2127.0,0.0143
2126.0,0.0143
2125.0,0.0142
2124.0,0.0142
2123.0,0.0142
2122.0,0.0143
2121.0,0.0143
2120.0,0.0143
2119.0,0.0142
2118.0,0.0141
2117.0,0.014
2116.0,0.014
2115.0,0.014
2114.0,0.0141
2113.0,0.0141
2112.0,0.0141
2111.0,0.0141
2110.0,0.0141
2109.0,0.0141
2108.0,0.0141
2107.0,0.0142
2106.0,0.0142
2105.0,0.0142
2104.0,0.0141
2103.0,0.0141
2102.0,0.0141
2101.0,0.0141
2100.0,0.0141
2099.0,0.0141
2098.0,0.0141
2097.0,0.0141
2096.0,0.0141
2095.0,0.0141
2094.0,0.0141
2093.0,0.0141
2092.0,0.0141
2091.0,0.014
2090.0,0.014
2089.0,0.014
2088.0,0.014
2087.0,0.014
2086.0,0.014
2085.0,0.014
2084.0,0.014
2083.0,0.014
2082.0,0.014
2081.0,0.014
2080.0,0.014
2079.0,0.014
2078.0,0.014
2077.0,0.0141
2076.0,0.014
2075.0,0.014
2074.0,0.0141
2073.0,0.0141
2072.0,0.0141
2071.0,0.014
2070.0,0.014
2069.0,0.0139
2068.0,0.0139
2067.0,0.014
2066.0,0.014
2065.0,0.014
2064.0,0.014
2063.0,0.014
2062.0,0.0141
2061.0,0.0141
2060.0,0.0141
2059.0,0.014
2058.0,0.014
2057.0,0.014
2056.0,0.014
2055.0,0.0139
2054.0,0.0139
2053.0,0.0139
2052.0,0.014
2051.0,0.0141
2050.0,0.0141
2049.0,0.0141
2048.0,0.0141
2047.0,0.014
2046.0,0.014
2045.0,0.014
2044.0,0.014
2043.0,0.014
2042.0,0.014
2041.0,0.0139
2040.0,0.0139
2039.0,0.0139
2038.0,0.0139
2037.0,0.014
2036.0,0.014
2035.0,0.014
2034.0,0.014
2033.0,0.014
2032.0,0.0139
2031.0,0.0139
2030.0,0.0139
2029.0,0.014
2028.0,0.014
2027.0,0.014
2026.0,0.014
2025.0,0.014
2024.0,0.014
2023.0,0.014
2022.0,0.014
2021.0,0.014
2020.0,0.0141
2019.0,0.0141
2018.0,0.0141
2017.0,0.0141
2016.0,0.0141
2015.0,0.014
2014.0,0.0141
2013.0,0.0141
2012.0,0.0141
2011.0,0.0142
2010.0,0.0141
2009.0,0.0141
2008.0,0.0141
2007.0,0.0141
2006.0,0.0141
2005.0,0.0141
2004.0,0.0141
2003.0,0.014
2002.0,0.014
2001.0,0.0141
2000.0,0.0141
1999.0,0.0141
1998.0,0.0141
1997.0,0.0141
1996.0,0.0141
1995.0,0.0141
1994.0,0.0141
1993.0,0.0141
1992.0,0.0141
1991.0,0.0141
1990.0,0.0141
1989.0,0.0141
1988.0,0.0141
1987.0,0.0141
1986.0,0.014
1985.0,0.014
1984.0,0.014
1983.0,0.014
1982.0,0.014
1981.0,0.014
1980.0,0.014
1979.0,0.014
1978.0,0.014
1977.0,0.014
1976.0,0.014
1975.0,0.0139
1974.0,0.0139
1973.0,0.014
1972.0,0.014
1971.0,0.0141
1970.0,0.0141
1969.0,0.0141
1968.0,0.0141
1967.0,0.014
1966.0,0.014
1965.0,0.0139
1964.0,0.0139
1963.0,0.014
1962.0,0.014
1961.0,0.014
1960.0,0.014
1959.0,0.014
1958.0,0.014
1957.0,0.014
1956.0,0.014
1955.0,0.014
1954.0,0.014
1953.0,0.0139
1952.0,0.0139
1951.0,0.0139
1950.0,0.0139
1949.0,0.014
1948.0,0.014
1947.0,0.014
1946.0,0.014
1945.0,0.014
1944.0,0.014
1943.0,0.014
1942.0,0.014
1941.0,0.014
1940.0,0.014
1939.0,0.014
1938.0,0.014
1937.0,0.014
1936.0,0.0141
1935.0,0.0141
1934.0,0.0141
1933.0,0.0141
1932.0,0.014
1931.0,0.014
1930.0,0.014
1929.0,0.014
1928.0,0.0141
1927.0,0.0141
1926.0,0.0141
1925.0,0.0141
1924.0,0.0141
1923.0,0.0141
1922.0,0.0141
1921.0,0.0142
1920.0,0.0142
1919.0,0.0142
1918.0,0.0142
1917.0,0.0142
1916.0,0.0141
1915.0,0.0141
1914.0,0.0141
1913.0,0.0141
1912.0,0.0141
1911.0,0.0141
1910.0,0.0142
1909.0,0.0142
1908.0,0.0142
1907.0,0.0142
1906.0,0.0142
1905.0,0.0141
1904.0,0.0141
1903.0,0.0141
1902.0,0.0141
1901.0,0.0141
1900.0,0.0141
1899.0,0.0141
1898.0,0.0141
1897.0,0.0141
1896.0,0.0141
1895.0,0.0141
1894.0,0.0141
1893.0,0.0142
1892.0,0.0142
1891.0,0.0142
1890.0,0.0143
1889.0,0.0143
1888.0,0.0143
1887.0,0.0143
1886.0,0.0143
1885.0,0.0143
1884.0,0.0142
1883.0,0.0142
1882.0,0.0142
1881.0,0.0142
1880.0,0.0142
1879.0,0.0142
1878.0,0.0142
1877.0,0.0142
1876.0,0.0142
1875.0,0.0142
1874.0,0.0141
1873.0,0.0141
1872.0,0.0141
1871.0,0.0142
1870.0,0.0142
1869.0,0.0143
1868.0,0.0142
1867.0,0.0142
1866.0,0.0142
1865.0,0.0142
1864.0,0.0142
1863.0,0.0142
1862.0,0.0142
1861.0,0.0142
1860.0,0.0142
1859.0,0.0142
1858.0,0.0142
1857.0,0.0142
1856.0,0.0142
1855.0,0.0142
1854.0,0.0142
1853.0,0.0142
1852.0,0.0141
1851.0,0.0141
1850.0,0.0141
1849.0,0.0142
1848.0,0.0142
1847.0,0.0143
1846.0,0.0144
1845.0,0.0144
1844.0,0.0144
1843.0,0.0143
1842.0,0.0143
1841.0,0.0143
1840.0,0.0143
1839.0,0.0143
1838.0,0.0143
1837.0,0.0142
1836.0,0.0142
1835.0,0.0142
1834.0,0.0143
1833.0,0.0143
1832.0,0.0144
1831.0,0.0144
1830.0,0.0144
1829.0,0.0144
1828.0,0.0144
1827.0,0.0144
1826.0,0.0144
1825.0,0.0144
1824.0,0.0143
1823.0,0.0143
1822.0,0.0143
1821.0,0.0142
1820.0,0.0142
1819.0,0.0143
1818.0,0.0143
1817.0,0.0143
1816.0,0.0143
1815.0,0.0142
1814.0,0.0142
1813.0,0.0142
1812.0,0.0142
1811.0,0.0142
1810.0,0.0142
1809.0,0.0142
1808.0,0.0143
1807.0,0.0143
1806.0,0.0143
1805.0,0.0143
1804.0,0.0143
1803.0,0.0142
1802.0,0.0143
1801.0,0.0143
1800.0,0.0143
1799.0,0.0143
1798.0,0.0143
1797.0,0.0143
1796.0,0.0144
1795.0,0.0144
1794.0,0.0144
1793.0,0.0144
1792.0,0.0145
1791.0,0.0145
1790.0,0.0145
1789.0,0.0145
1788.0,0.0145
1787.0,0.0145
1786.0,0.0144
1785.0,0.0144
1784.0,0.0144
1783.0,0.0143
1782.0,0.0143
1781.0,0.0143
1780.0,0.0144
1779.0,0.0145
1778.0,0.0145
1777.0,0.0145
1776.0,0.0145
1775.0,0.0145
1774.0,0.0144
1773.0,0.0144
1772.0,0.0144
1771.0,0.0143
1770.0,0.0144
1769.0,0.0146
1768.0,0.0147
1767.0,0.0148
1766.0,0.0148
1765.0,0.0148
1764.0,0.0149
1763.0,0.015
1762.0,0.0151
1761.0,0.0152
1760.0,0.0152
1759.0,0.0153
1758.0,0.0155
1757.0,0.0157
1756.0,0.0159
1755.0,0.0161
1754.0,0.0162
1753.0,0.0164
1752.0,0.0166
1751.0,0.0169
1750.0,0.0171
1749.0,0.0172
1748.0,0.0174
1747.0,0.0175
1746.0,0.0176
1745.0,0.0177
1744.0,0.0178
1743.0,0.0179
1742.0,0.0178
1741.0,0.0178
1740.0,0.0177
1739.0,0.0175
1738.0,0.0173
1737.0,0.0172
1736.0,0.0171
1735.0,0.017
1734.0,0.0168
1733.0,0.0165
1732.0,0.0164
1731.0,0.0163
1730.0,0.0162
1729.0,0.0162
1728.0,0.0163
1727.0,0.0163
1726.0,0.0162
1725.0,0.0162
1724.0,0.0162
1723.0,0.0161
1722.0,0.016
1721.0,0.016
1720.0,0.016
1719.0,0.016
1718.0,0.0161
1717.0,0.0162
1716.0,0.0162
1715.0,0.0162
1714.0,0.0162
1713.0,0.0162
1712.0,0.0162
1711.0,0.0162
1710.0,0.0162
1709.0,0.0162
1708.0,0.0162
1707.0,0.0162
1706.0,0.0162
1705.0,0.0162
1704.0,0.0162
1703.0,0.0163
1702.0,0.0164
1701.0,0.0166
1700.0,0.0168
1699.0,0.0168
1698.0,0.0168
1697.0,0.0168
1696.0,0.0168
1695.0,0.0167
1694.0,0.0167
1693.0,0.0168
1692.0,0.0169
1691.0,0.0169
1690.0,0.0169
1689.0,0.017
1688.0,0.0172
1687.0,0.0172
1686.0,0.0172
1685.0,0.0173
1684.0,0.0174
1683.0,0.0174
1682.0,0.0175
1681.0,0.0177
1680.0,0.0177
1679.0,0.0178
1678.0,0.0179
1677.0,0.018
1676.0,0.0181
1675.0,0.0181
1674.0,0.0181
1673.0,0.0181
1672.0,0.0181
1671.0,0.0182
1670.0,0.0183
1669.0,0.0183
1668.0,0.0183
1667.0,0.0183
1666.0,0.0184
1665.0,0.0183
1664.0,0.0184
1663.0,0.0185
1662.0,0.0186
1661.0,0.0187
1660.0,0.0188
1659.0,0.0188
1658.0,0.0188
1657.0,0.0187
1656.0,0.0187
1655.0,0.0186
1654.0,0.0188
1653.0,0.019
1652.0,0.0188
1651.0,0.0188
1650.0,0.0188
1649.0,0.0188
1648.0,0.0188
1647.0,0.0187
1646.0,0.0186
1645.0,0.0186
1644.0,0.0187
1643.0,0.0188
1642.0,0.0188
1641.0,0.0188
1640.0,0.0187
1639.0,0.0185
1638.0,0.0184
1637.0,0.0184
1636.0,0.0184
1635.0,0.0184
1634.0,0.0183
1633.0,0.0183
1632.0,0.0183
1631.0,0.0182
1630.0,0.0181
1629.0,0.018
1628.0,0.0179
1627.0,0.0179
1626.0,0.0179
1625.0,0.0178
1624.0,0.0179
1623.0,0.0179
1622.0,0.0178
1621.0,0.0178
1620.0,0.0177
1619.0,0.0176
1618.0,0.0175
1617.0,0.0174
1616.0,0.0173
1615.0,0.0173
1614.0,0.0173
1613.0,0.0174
1612.0,0.0174
1611.0,0.0174
1610.0,0.0173
1609.0,0.0173
1608.0,0.0172
1607.0,0.0172
1606.0,0.0172
1605.0,0.0172
1604.0,0.0172
1603.0,0.0173
1602.0,0.0172
1601.0,0.0172
1600.0,0.0172
1599.0,0.0171
1598.0,0.0171
1597.0,0.017
1596.0,0.017
1595.0,0.0169
1594.0,0.0169
1593.0,0.0169
1592.0,0.0169
1591.0,0.0169
1590.0,0.0169
1589.0,0.0169
1588.0,0.0169
1587.0,0.0169
1586.0,0.0169
1585.0,0.0168
1584.0,0.0168
1583.0,0.0167
1582.0,0.0167
1581.0,0.0168
1580.0,0.0168
1579.0,0.0169
1578.0,0.0168
1577.0,0.0168
1576.0,0.0167
1575.0,0.0166
1574.0,0.0166
1573.0,0.0166
1572.0,0.0166
1571.0,0.0165
1570.0,0.0164
1569.0,0.0163
1568.0,0.0163
1567.0,0.0163
1566.0,0.0163
1565.0,0.0162
1564.0,0.0163
1563.0,0.0163
1562.0,0.0163
1561.0,0.0161
1560.0,0.0162
1559.0,0.0164
1558.0,0.0163
1557.0,0.0163
1556.0,0.0165
1555.0,0.0166
1554.0,0.0165
1553.0,0.0165
1552.0,0.0165
1551.0,0.0165
1550.0,0.0165
1549.0,0.0164
1548.0,0.0165
1547.0,0.0165
1546.0,0.0165
1545.0,0.0166
1544.0,0.0168
1543.0,0.0169
1542.0,0.0169
1541.0,0.0169
1540.0,0.0165
1539.0,0.0159
1538.0,0.0158
1537.0,0.016
1536.0,0.016
1535.0,0.016
1534.0,0.0159
1533.0,0.0158
1532.0,0.0157
1531.0,0.0156
1530.0,0.0154
1529.0,0.0154
1528.0,0.0154
1527.0,0.0154
1526.0,0.0154
1525.0,0.0153
1524.0,0.0152
1523.0,0.0151
1522.0,0.0149
1521.0,0.0149
1520.0,0.0148
1519.0,0.0147
1518.0,0.0146
1517.0,0.0146
1516.0,0.0147
1515.0,0.0147
1514.0,0.0147
1513.0,0.0147
1512.0,0.0147
1511.0,0.0146
1510.0,0.0145
1509.0,0.0145
1508.0,0.0146
1507.0,0.0146
1506.0,0.0142
1505.0,0.0143
1504.0,0.0144
1503.0,0.0144
1502.0,0.0144
1501.0,0.0144
1500.0,0.0144
1499.0,0.0144
1498.0,0.0144
1497.0,0.0145
1496.0,0.0146
1495.0,0.0145
1494.0,0.0145
1493.0,0.0146
1492.0,0.0147
1491.0,0.0147
1490.0,0.0146
1489.0,0.0147
1488.0,0.0148
1487.0,0.015
1486.0,0.0152
1485.0,0.0155
1484.0,0.0159
1483.0,0.0162
1482.0,0.0166
1481.0,0.0172
1480.0,0.0178
1479.0,0.0184
1478.0,0.0192
1477.0,0.0204
1476.0,0.0219
1475.0,0.0235
1474.0,0.026
1473.0,0.0304
1472.0,0.0357
1471.0,0.0403
1470.0,0.0446
1469.0,0.0491
1468.0,0.0542
1467.0,0.0599
1466.0,0.0671
1465.0,0.0754
1464.0,0.0825
1463.0,0.0871
1462.0,0.0899
1461.0,0.0919
1460.0,0.0934
1459.0,0.0945
1458.0,0.0963
1457.0,0.0986
1456.0,0.0997
1455.0,0.0996
1454.0,0.0991
1453.0,0.0983
1452.0,0.097
1451.0,0.0949
1450.0,0.0918
1449.0,0.0873
1448.0,0.0813
1447.0,0.0749
1446.0,0.0692
1445.0,0.0643
1444.0,0.0599
1443.0,0.0562
1442.0,0.0533
1441.0,0.0513
1440.0,0.05
1439.0,0.0495
1438.0,0.0498
1437.0,0.0506
1436.0,0.0506
1435.0,0.0491
1434.0,0.0466
1433.0,0.0433
1432.0,0.0398
1431.0,0.0365
1430.0,0.0339
1429.0,0.0319
1428.0,0.0305
1427.0,0.0295
1426.0,0.0287
1425.0,0.0279
1424.0,0.0272
1423.0,0.0268
1422.0,0.0265
1421.0,0.0262
1420.0,0.0258
1419.0,0.0255
1418.0,0.0252
1417.0,0.0248
1416.0,0.0244
1415.0,0.0241
1414.0,0.0239
1413.0,0.0236
1412.0,0.0233
1411.0,0.0231
1410.0,0.0229
1409.0,0.0226
1408.0,0.0224
1407.0,0.0222
1406.0,0.022
1405.0,0.0218
1404.0,0.0215
1403.0,0.0214
1402.0,0.0213
1401.0,0.0211
1400.0,0.0208
1399.0,0.0207
1398.0,0.0207
1397.0,0.0205
1396.0,0.0203
1395.0,0.0202
1394.0,0.0202
1393.0,0.0201
1392.0,0.0201
1391.0,0.0203
1390.0,0.0206
1389.0,0.0211
1388.0,0.0221
1387.0,0.024
1386.0,0.0268
1385.0,0.0307
1384.0,0.0364
1383.0,0.0448
1382.0,0.0564
1381.0,0.0714
1380.0,0.09
1379.0,0.1114
1378.0,0.132
1377.0,0.1477
1376.0,0.1548
1375.0,0.1506
1374.0,0.1363
1373.0,0.1185
1372.0,0.1023
1371.0,0.0884
1370.0,0.0764
1369.0,0.0665
1368.0,0.0593
1367.0,0.0547
1366.0,0.0519
1365.0,0.0505
1364.0,0.0503
1363.0,0.0512
1362.0,0.0529
1361.0,0.0548
1360.0,0.0562
1359.0,0.0568
1358.0,0.0562
1357.0,0.0544
1356.0,0.0517
1355.0,0.0486
1354.0,0.0455
1353.0,0.0427
1352.0,0.0405
1351.0,0.0385
1350.0,0.0369
1349.0,0.0355
1348.0,0.0343
1347.0,0.0333
1346.0,0.0324
1345.0,0.0317
1344.0,0.031
1343.0,0.0304
1342.0,0.0299
1341.0,0.0295
1340.0,0.0291
1339.0,0.0289
1338.0,0.0287
1337.0,0.0286
1336.0,0.0285
1335.0,0.0286
1334.0,0.0287
1333.0,0.0289
1332.0,0.0293
1331.0,0.0296
1330.0,0.0298
1329.0,0.0297
1328.0,0.0295
1327.0,0.029
1326.0,0.0285
1325.0,0.028
1324.0,0.0276
1323.0,0.0271
1322.0,0.0267
1321.0,0.0264
1320.0,0.0261
1319.0,0.0259
1318.0,0.0256
1317.0,0.0254
1316.0,0.0252
1315.0,0.0251
1314.0,0.025
1313.0,0.0249
1312.0,0.0249
1311.0,0.0249
1310.0,0.025
1309.0,0.0252
1308.0,0.0257
1307.0,0.0263
1306.0,0.0269
1305.0,0.0274
1304.0,0.0277
1303.0,0.0276
1302.0,0.0275
1301.0,0.0274
1300.0,0.0274
1299.0,0.0275
1298.0,0.0277
1297.0,0.0279
1296.0,0.0279
1295.0,0.0278
1294.0,0.0275
1293.0,0.0272
1292.0,0.0268
1291.0,0.0263
1290.0,0.026
1289.0,0.0257
1288.0,0.0255
1287.0,0.0252
1286.0,0.025
1285.0,0.0248
1284.0,0.0246
1283.0,0.0245
1282.0,0.0244
1281.0,0.0244
1280.0,0.0243
1279.0,0.0242
1278.0,0.0241
1277.0,0.0241
1276.0,0.0241
1275.0,0.0241
1274.0,0.024
1273.0,0.024
1272.0,0.024
1271.0,0.0239
1270.0,0.024
1269.0,0.024
1268.0,0.024
1267.0,0.0241
1266.0,0.0242
1265.0,0.0243
1264.0,0.0244
1263.0,0.0246
1262.0,0.0248
1261.0,0.0251
1260.0,0.0254
1259.0,0.0259
1258.0,0.0263
1257.0,0.0267
1256.0,0.0269
1255.0,0.0269
1254.0,0.0266
1253.0,0.0262
1252.0,0.0257
1251.0,0.0253
1250.0,0.025
1249.0,0.0247
1248.0,0.0246
1247.0,0.0244
1246.0,0.0243
1245.0,0.0241
1244.0,0.024
1243.0,0.0239
1242.0,0.0238
1241.0,0.0237
1240.0,0.0237
1239.0,0.0236
1238.0,0.0236
1237.0,0.0235
1236.0,0.0235
1235.0,0.0234
1234.0,0.0233
1233.0,0.0233
1232.0,0.0233
1231.0,0.0234
1230.0,0.0234
1229.0,0.0235
1228.0,0.0235
1227.0,0.0236
1226.0,0.0237
1225.0,0.0239
1224.0,0.0242
1223.0,0.0244
1222.0,0.0247
1221.0,0.0249
1220.0,0.0251
1219.0,0.0252
1218.0,0.0252
1217.0,0.025
1216.0,0.0248
1215.0,0.0246
1214.0,0.0245
1213.0,0.0243
1212.0,0.0242
1211.0,0.0241
1210.0,0.024
1209.0,0.0238
1208.0,0.0238
1207.0,0.0237
1206.0,0.0237
1205.0,0.0237
1204.0,0.0237
1203.0,0.0237
1202.0,0.0237
1201.0,0.0237
1200.0,0.0237
1199.0,0.0238
1198.0,0.0239
1197.0,0.0239
1196.0,0.0239
1195.0,0.0239
1194.0,0.0239
1193.0,0.0239
1192.0,0.0239
1191.0,0.0239
1190.0,0.0239
1189.0,0.024
1188.0,0.0241
1187.0,0.0241
1186.0,0.0242
1185.0,0.0243
1184.0,0.0244
1183.0,0.0245
1182.0,0.0246
1181.0,0.0248
1180.0,0.025
1179.0,0.0253
1178.0,0.0256
1177.0,0.0261
1176.0,0.0269
1175.0,0.0279
1174.0,0.0292
1173.0,0.0309
1172.0,0.0328
1171.0,0.0349
1170.0,0.0369
1169.0,0.0386
1168.0,0.0396
1167.0,0.04
1166.0,0.0398
1165.0,0.0392
1164.0,0.0385
1163.0,0.0378
1162.0,0.0371
1161.0,0.0366
1160.0,0.0362
1159.0,0.0359
1158.0,0.0357
1157.0,0.0356
1156.0,0.0355
1155.0,0.0356
1154.0,0.0356
1153.0,0.0356
1152.0,0.0354
1151.0,0.0351
1150.0,0.0346
1149.0,0.0339
1148.0,0.0332
1147.0,0.0324
1146.0,0.0316
1145.0,0.0309
1144.0,0.0303
1143.0,0.0297
1142.0,0.0291
1141.0,0.0287
1140.0,0.0283
1139.0,0.0279
1138.0,0.0276
1137.0,0.0273
1136.0,0.0271
1135.0,0.0268
1134.0,0.0266
1133.0,0.0264
1132.0,0.0263
1131.0,0.0263
1130.0,0.0262
1129.0,0.0262
1128.0,0.0262
1127.0,0.0262
1126.0,0.0262
1125.0,0.0262
1124.0,0.0262
1123.0,0.0262
1122.0,0.0263
1121.0,0.0263
1120.0,0.0263
1119.0,0.0264
1118.0,0.0265
1117.0,0.0266
1116.0,0.0266
1115.0,0.0266
1114.0,0.0267
1113.0,0.0268
1112.0,0.0269
1111.0,0.027
1110.0,0.0272
1109.0,0.0276
1108.0,0.028
1107.0,0.0286
1106.0,0.0293
1105.0,0.0299
1104.0,0.0304
1103.0,0.0307
1102.0,0.0307
1101.0,0.0305
1100.0,0.0301
1099.0,0.0297
1098.0,0.0292
1097.0,0.0288
1096.0,0.0285
1095.0,0.0281
1094.0,0.0277
1093.0,0.0274
1092.0,0.0272
1091.0,0.027
1090.0,0.0269
1089.0,0.0268
1088.0,0.0267
1087.0,0.0266
1086.0,0.0265
1085.0,0.0264
1084.0,0.0263
1083.0,0.0262
1082.0,0.0261
1081.0,0.026
1080.0,0.0259
1079.0,0.0258
1078.0,0.0257
1077.0,0.0256
1076.0,0.0256
1075.0,0.0257
1074.0,0.0257
1073.0,0.0257
1072.0,0.0257
1071.0,0.0256
1070.0,0.0256
1069.0,0.0255
1068.0,0.0255
1067.0,0.0255
1066.0,0.0255
1065.0,0.0255
1064.0,0.0255
1063.0,0.0255
1062.0,0.0256
1061.0,0.0256
1060.0,0.0256
1059.0,0.0256
1058.0,0.0256
1057.0,0.0256
1056.0,0.0256
1055.0,0.0256
1054.0,0.0256
1053.0,0.0256
1052.0,0.0256
1051.0,0.0255
1050.0,0.0255
1049.0,0.0257
1048.0,0.0258
1047.0,0.026
1046.0,0.0261
1045.0,0.0261
1044.0,0.0261
1043.0,0.026
1042.0,0.0257
1041.0,0.0255
1040.0,0.0253
1039.0,0.0251
1038.0,0.025
1037.0,0.0248
1036.0,0.0247
1035.0,0.0245
1034.0,0.0243
1033.0,0.0242
1032.0,0.024
1031.0,0.0239
1030.0,0.0238
1029.0,0.0236
1028.0,0.0236
1027.0,0.0235
1026.0,0.0235
1025.0,0.0234
1024.0,0.0234
1023.0,0.0234
1022.0,0.0233
1021.0,0.0233
1020.0,0.0233
1019.0,0.0233
1018.0,0.0233
1017.0,0.0233
1016.0,0.0233
1015.0,0.0233
1014.0,0.0234
1013.0,0.0234
1012.0,0.0235
1011.0,0.0237
1010.0,0.0239
1009.0,0.0241
1008.0,0.0244
1007.0,0.0249
1006.0,0.0254
1005.0,0.0261
1004.0,0.027
1003.0,0.0284
1002.0,0.0304
1001.0,0.033
1000.0,0.0356
999.0,0.0379
998.0,0.039
997.0,0.0388
996.0,0.0373
995.0,0.0351
994.0,0.0327
993.0,0.0306
992.0,0.0289
991.0,0.0275
990.0,0.0265
989.0,0.0257
988.0,0.0252
987.0,0.0249
986.0,0.0247
985.0,0.0247
984.0,0.0249
983.0,0.0253
982.0,0.026
981.0,0.027
980.0,0.0286
979.0,0.0309
978.0,0.0338
977.0,0.0371
976.0,0.0407
975.0,0.044
974.0,0.0463
973.0,0.0471
972.0,0.0461
971.0,0.0437
970.0,0.0404
969.0,0.0371
968.0,0.0342
967.0,0.0321
966.0,0.0305
965.0,0.0293
964.0,0.0284
963.0,0.0277
962.0,0.0271
961.0,0.0266
960.0,0.0262
959.0,0.0259
958.0,0.0256
957.0,0.0253
956.0,0.025
955.0,0.0247
954.0,0.0245
953.0,0.0242
952.0,0.024
951.0,0.0238
950.0,0.0237
949.0,0.0236
948.0,0.0235
947.0,0.0236
946.0,0.0238
945.0,0.024
944.0,0.0243
943.0,0.0246
942.0,0.0249
941.0,0.0251
940.0,0.0252
939.0,0.025
938.0,0.0247
937.0,0.0242
936.0,0.0237
935.0,0.0233
934.0,0.023
933.0,0.0228
932.0,0.0226
931.0,0.0224
930.0,0.0223
929.0,0.0221
928.0,0.022
927.0,0.0219
926.0,0.0219
925.0,0.0219
924.0,0.022
923.0,0.0221
922.0,0.022
921.0,0.022
920.0,0.0219
919.0,0.0218
918.0,0.0219
917.0,0.0219
916.0,0.0219
915.0,0.0219
914.0,0.022
913.0,0.022
912.0,0.0222
911.0,0.0223
910.0,0.0224
909.0,0.0226
908.0,0.0227
907.0,0.0229
906.0,0.0234
905.0,0.0243
904.0,0.0257
903.0,0.0274
902.0,0.0294
901.0,0.0313
900.0,0.0328
899.0,0.0335
898.0,0.0333
897.0,0.0322
896.0,0.0307
895.0,0.029
894.0,0.0276
893.0,0.0264
892.0,0.0256
891.0,0.0251
890.0,0.0247
889.0,0.0244
888.0,0.0242
887.0,0.024
886.0,0.0239
885.0,0.0238
884.0,0.0237
883.0,0.0236
882.0,0.0235
881.0,0.0234
880.0,0.0233
879.0,0.0232
878.0,0.0232
877.0,0.0232
876.0,0.0232
875.0,0.0233
874.0,0.0233
873.0,0.0233
872.0,0.0233
871.0,0.0233
870.0,0.0233
869.0,0.0233
868.0,0.0233
867.0,0.0233
866.0,0.0234
865.0,0.0236
864.0,0.0237
863.0,0.0238
862.0,0.0238
861.0,0.0237
860.0,0.0237
859.0,0.0237
858.0,0.0238
857.0,0.0239
856.0,0.0241
855.0,0.0242
854.0,0.0244
853.0,0.0245
852.0,0.0246
851.0,0.0247
850.0,0.025
849.0,0.0253
848.0,0.0258
847.0,0.0265
846.0,0.0278
845.0,0.0297
844.0,0.0326
843.0,0.0358
842.0,0.0383
841.0,0.0391
840.0,0.0379
839.0,0.0354
838.0,0.0326
837.0,0.0303
836.0,0.0287
835.0,0.0277
834.0,0.027
833.0,0.0265
832.0,0.0262
831.0,0.026
830.0,0.0257
829.0,0.0255
828.0,0.0254
827.0,0.0252
826.0,0.025
825.0,0.0248
824.0,0.0245
823.0,0.0244
822.0,0.0244
821.0,0.0245
820.0,0.0248
819.0,0.0251
818.0,0.0255
817.0,0.0259
816.0,0.0265
815.0,0.0274
814.0,0.0285
813.0,0.0301
812.0,0.0319
811.0,0.0337
810.0,0.0353
809.0,0.0362
808.0,0.0364
807.0,0.0357
806.0,0.0345
805.0,0.0331
804.0,0.0317
803.0,0.0305
802.0,0.0295
801.0,0.0287
800.0,0.0281
799.0,0.0276
798.0,0.0272
797.0,0.0269
796.0,0.0266
795.0,0.0264
794.0,0.026
793.0,0.0257
792.0,0.0254
791.0,0.0251
790.0,0.0249
789.0,0.0247
788.0,0.0245
787.0,0.0243
786.0,0.0242
785.0,0.024
784.0,0.0239
783.0,0.0237
782.0,0.0235
781.0,0.0234
780.0,0.0232
779.0,0.0231
778.0,0.0231
777.0,0.0231
776.0,0.0232
775.0,0.0232
774.0,0.0232
773.0,0.0232
772.0,0.0233
771.0,0.0234
770.0,0.0234
769.0,0.0233
768.0,0.0231
767.0,0.023
766.0,0.0228
765.0,0.0227
764.0,0.0226
763.0,0.0226
762.0,0.0226
761.0,0.0227
760.0,0.0227
759.0,0.0226
758.0,0.0226
757.0,0.0226
756.0,0.0226
755.0,0.0225
754.0,0.0224
753.0,0.0224
752.0,0.0226
751.0,0.0228
750.0,0.0229
749.0,0.0229
748.0,0.0228
747.0,0.0228
746.0,0.0226
745.0,0.0226
744.0,0.0226
743.0,0.0227
742.0,0.0228
741.0,0.023
740.0,0.023
739.0,0.023
738.0,0.0228
737.0,0.0226
736.0,0.0225
735.0,0.0224
734.0,0.0225
733.0,0.0225
732.0,0.0226
731.0,0.0226
730.0,0.0226
729.0,0.0226
728.0,0.0225
727.0,0.0224
726.0,0.0225
725.0,0.0228
724.0,0.0232
723.0,0.0235
722.0,0.0232
721.0,0.0227
720.0,0.0223
719.0,0.0222
718.0,0.0222
717.0,0.0223
716.0,0.0222
715.0,0.0221
714.0,0.0222
713.0,0.0223
712.0,0.0226
711.0,0.0228
710.0,0.0229
709.0,0.0227
708.0,0.0222
707.0,0.0218
706.0,0.0218
705.0,0.0221
704.0,0.0225
703.0,0.0225
702.0,0.0222
701.0,0.0218
700.0,0.0214
699.0,0.021
698.0,0.0205
697.0,0.0201
696.0,0.0199
695.0,0.02
694.0,0.0204
693.0,0.0208
692.0,0.0212
691.0,0.0209
690.0,0.0199
689.0,0.018
688.0,0.016
687.0,0.0146
686.0,0.0143
685.0,0.0151
684.0,0.0162
683.0,0.0173
682.0,0.0177
681.0,0.0174
680.0,0.0168
679.0,0.016
678.0,0.0154
677.0,0.0156
676.0,0.0164
675.0,0.0173
674.0,0.018
673.0,0.0178
672.0,0.017
671.0,0.0158
670.0,0.016
669.0,0.0164
668.0,0.0239
667.0,0.025
666.0,0.0237
665.0,0.0233
664.0,0.0225
663.0,0.0222
662.0,0.0218
661.0,0.0228
660.0,0.0189
659.0,0.0182
658.0,0.0182
657.0,0.0178
656.0,0.0179
655.0,0.0178
654.0,0.0176
653.0,0.0172
652.0,0.0169
651.0,0.0169
650.0,0.0172
649.0,0.0178
648.0,0.0185
647.0,0.019
646.0,0.0189
645.0,0.0185
644.0,0.0182
643.0,0.0181
642.0,0.0183
641.0,0.0188
640.0,0.0196
639.0,0.0207
638.0,0.0219
637.0,0.0233
636.0,0.0248
635.0,0.0259
634.0,0.026
633.0,0.0256
632.0,0.0251
631.0,0.0248
630.0,0.0245
629.0,0.0243
628.0,0.024
627.0,0.0238
626.0,0.0239
625.0,0.0245
624.0,0.0253
623.0,0.0258
622.0,0.0257
621.0,0.0253
620.0,0.025
619.0,0.0247
618.0,0.0242
617.0,0.0239
616.0,0.024
615.0,0.0247
614.0,0.0253
613.0,0.0254
612.0,0.0251
611.0,0.0245
610.0,0.0241
609.0,0.0243
608.0,0.0248
607.0,0.0253
606.0,0.0253
605.0,0.025
604.0,0.0244
603.0,0.0237
602.0,0.023
601.0,0.0229
600.0,0.0236
