cm-1,A
4000.0,-0.0004
3999.0,-0.0004
3998.0,-0.0004
3997.0,-0.0004
3996.0,-0.0005
3995.0,-0.0005
3994.0,-0.0004
3993.0,-0.0004
3992.0,-0.0004
3991.0,-0.0005
3990.0,-0.0005
3989.0,-0.0005
3988.0,-0.0005
3987.0,-0.0005
3986.0,-0.0005
3985.0,-0.0005
3984.0,-0.0006
3983.0,-0.0006
3982.0,-0.0006
3981.0,-0.0006
3980.0,-0.0006
3979.0,-0.0005
3978.0,-0.0005
3977.0,-0.0006
3976.0,-0.0006
3975.0,-0.0005
3974.0,-0.0005
3973.0,-0.0005
3972.0,-0.0005
3971.0,-0.0006
3970.0,-0.0006
3969.0,-0.0006
3968.0,-0.0005
3967.0,-0.0004
3966.0,-0.0004
3965.0,-0.0004
3964.0,-0.0005
3963.0,-0.0006
3962.0,-0.0007
3961.0,-0.0007
3960.0,-0.0007
3959.0,-0.0007
3958.0,-0.0008
3957.0,-0.0008
3956.0,-0.0008
3955.0,-0.0007
3954.0,-0.0007
3953.0,-0.0006
3952.0,-0.0006
3951.0,-0.0006
3950.0,-0.0006
3949.0,-0.0005
3948.0,-0.0004
3947.0,-0.0004
3946.0,-0.0003
3945.0,-0.0003
3944.0,-0.0003
3943.0,-0.0004
3942.0,-0.0004
3941.0,-0.0004
3940.0,-0.0004
3939.0,-0.0005
3938.0,-0.0005
3937.0,-0.0006
3936.0,-0.0006
3935.0,-0.0006
3934.0,-0.0006
3933.0,-0.0006
3932.0,-0.0005
3931.0,-0.0005
3930.0,-0.0006
3929.0,-0.0007
3928.0,-0.0007
3927.0,-0.0008
3926.0,-0.0008
3925.0,-0.0008
3924.0,-0.0008
3923.0,-0.0008
3922.0,-0.0008
3921.0,-0.0008
3920.0,-0.0007
3919.0,-0.0006
3918.0,-0.0006
3917.0,-0.0005
3916.0,-0.0005
3915.0,-0.0005
3914.0,-0.0005
3913.0,-0.0005
3912.0,-0.0005
3911.0,-0.0006
3910.0,-0.0007
3909.0,-0.0007
3908.0,-0.0008
3907.0,-0.0008
3906.0,-0.0007
3905.0,-0.0007
3904.0,-0.0007
3903.0,-0.0007
3902.0,-0.0008
3901.0,-0.0008
3900.0,-0.0007
3899.0,-0.0006
3898.0,-0.0005
3897.0,-0.0004
3896.0,-0.0005
3895.0,-0.0006
3894.0,-0.0006
3893.0,-0.0007
3892.0,-0.0006
3891.0,-0.0005
3890.0,-0.0005
3889.0,-0.0005
3888.0,-0.0005
3887.0,-0.0005
3886.0,-0.0005
3885.0,-0.0005
3884.0,-0.0005
3883.0,-0.0005
3882.0,-0.0004
3881.0,-0.0004
3880.0,-0.0004
3879.0,-0.0005
3878.0,-0.0006
3877.0,-0.0007
3876.0,-0.0007
3875.0,-0.0007
3874.0,-0.0005
3873.0,-0.0004
3872.0,-0.0004
3871.0,-0.0004
3870.0,-0.0004
3869.0,-0.0004
3868.0,-0.0004
3867.0,-0.0004
3866.0,-0.0004
3865.0,-0.0004
3864.0,-0.0004
3863.0,-0.0004
3862.0,-0.0004
3861.0,-0.0004
3860.0,-0.0004
3859.0,-0.0004
3858.0,-0.0004
3857.0,-0.0005
3856.0,-0.0005
3855.0,-0.0005
3854.0,-0.0005
3853.0,-0.0006
3852.0,-0.0007
3851.0,-0.0006
3850.0,-0.0006
3849.0,-0.0006
3848.0,-0.0006
3847.0,-0.0006
3846.0,-0.0006
3845.0,-0.0005
3844.0,-0.0004
3843.0,-0.0003
3842.0,-0.0004
3841.0,-0.0004
3840.0,-0.0005
3839.0,-0.0005
3838.0,-0.0005
3837.0,-0.0006
3836.0,-0.0006
3835.0,-0.0007
3834.0,-0.0006
3833.0,-0.0005
3832.0,-0.0004
3831.0,-0.0004
3830.0,-0.0004
3829.0,-0.0004
3828.0,-0.0004
3827.0,-0.0004
3826.0,-0.0004
3825.0,-0.0004
3824.0,-0.0005
3823.0,-0.0005
3822.0,-0.0004
3821.0,-0.0004
3820.0,-0.0004
3819.0,-0.0004
3818.0,-0.0004
3817.0,-0.0004
3816.0,-0.0005
3815.0,-0.0007
3814.0,-0.0008
3813.0,-0.0008
3812.0,-0.0008
3811.0,-0.0007
3810.0,-0.0007
3809.0,-0.0006
3808.0,-0.0005
3807.0,-0.0004
3806.0,-0.0003
3805.0,-0.0003
3804.0,-0.0003
3803.0,-0.0003
3802.0,-0.0004
3801.0,-0.0005
3800.0,-0.0004
3799.0,-0.0004
3798.0,-0.0003
3797.0,-0.0004
3796.0,-0.0004
3795.0,-0.0004
3794.0,-0.0004
3793.0,-0.0004
3792.0,-0.0004
3791.0,-0.0004
3790.0,-0.0004
3789.0,-0.0005
3788.0,-0.0005
3787.0,-0.0005
3786.0,-0.0005
3785.0,-0.0005
3784.0,-0.0005
3783.0,-0.0005
3782.0,-0.0005
3781.0,-0.0005
3780.0,-0.0006
3779.0,-0.0006
3778.0,-0.0006
3777.0,-0.0005
3776.0,-0.0005
3775.0,-0.0004
3774.0,-0.0004
3773.0,-0.0005
3772.0,-0.0005
3771.0,-0.0005
3770.0,-0.0005
3769.0,-0.0005
3768.0,-0.0005
3767.0,-0.0005
3766.0,-0.0004
3765.0,-0.0003
3764.0,-0.0003
3763.0,-0.0003
3762.0,-0.0004
3761.0,-0.0005
3760.0,-0.0006
3759.0,-0.0006
3758.0,-0.0006
3757.0,-0.0005
3756.0,-0.0005
3755.0,-0.0004
3754.0,-0.0003
3753.0,-0.0003
3752.0,-0.0004
3751.0,-0.0006
3750.0,-0.0008
3749.0,-0.001
3748.0,-0.001
3747.0,-0.0009
3746.0,-0.0008
3745.0,-0.0007
3744.0,-0.0007
3743.0,-0.0008
3742.0,-0.0009
3741.0,-0.0009
3740.0,-0.0008
3739.0,-0.0008
3738.0,-0.0008
3737.0,-0.0007
3736.0,-0.0007
3735.0,-0.0008
3734.0,-0.0008
3733.0,-0.0008
3732.0,-0.0008
3731.0,-0.0008
3730.0,-0.0008
3729.0,-0.0009
3728.0,-0.001
3727.0,-0.001
3726.0,-0.0009
3725.0,-0.0008
3724.0,-0.0007
3723.0,-0.0006
3722.0,-0.0006
3721.0,-0.0006
3720.0,-0.0007
3719.0,-0.0008
3718.0,-0.0008
3717.0,-0.0008
3716.0,-0.0007
3715.0,-0.0006
3714.0,-0.0006
3713.0,-0.0005
3712.0,-0.0005
3711.0,-0.0005
3710.0,-0.0006
3709.0,-0.0006
3708.0,-0.0006
3707.0,-0.0006
3706.0,-0.0006
3705.0,-0.0007
3704.0,-0.0007
3703.0,-0.0007
3702.0,-0.0007
3701.0,-0.0008
3700.0,-0.0008
3699.0,-0.0008
3698.0,-0.0008
3697.0,-0.0008
3696.0,-0.0007
3695.0,-0.0007
3694.0,-0.0007
3693.0,-0.0006
3692.0,-0.0006
3691.0,-0.0005
3690.0,-0.0005
3689.0,-0.0005
3688.0,-0.0005
3687.0,-0.0006
3686.0,-0.0006
3685.0,-0.0006
3684.0,-0.0005
3683.0,-0.0005
3682.0,-0.0005
3681.0,-0.0005
3680.0,-0.0005
3679.0,-0.0006
3678.0,-0.0006
3677.0,-0.0006
3676.0,-0.0005
3675.0,-0.0003
3674.0,-0.0003
3673.0,-0.0003
3672.0,-0.0003
3671.0,-0.0004
3670.0,-0.0005
3669.0,-0.0006
3668.0,-0.0005
3667.0,-0.0005
3666.0,-0.0004
3665.0,-0.0004
3664.0,-0.0004
3663.0,-0.0003
3662.0,-0.0004
3661.0,-0.0004
3660.0,-0.0004
3659.0,-0.0004
3658.0,-0.0004
3657.0,-0.0004
3656.0,-0.0004
3655.0,-0.0004
3654.0,-0.0005
3653.0,-0.0005
3652.0,-0.0006
3651.0,-0.0007
3650.0,-0.0005
3649.0,-0.0003
3648.0,-0.0002
3647.0,-0.0002
3646.0,-0.0002
3645.0,-0.0002
3644.0,-0.0003
3643.0,-0.0002
3642.0,-0.0002
3641.0,-0.0002
3640.0,-0.0003
3639.0,-0.0004
3638.0,-0.0004
3637.0,-0.0004
3636.0,-0.0004
3635.0,-0.0005
3634.0,-0.0005
3633.0,-0.0006
3632.0,-0.0006
3631.0,-0.0006
3630.0,-0.0005
3629.0,-0.0005
3628.0,-0.0006
3627.0,-0.0006
3626.0,-0.0006
3625.0,-0.0006
3624.0,-0.0005
3623.0,-0.0004
3622.0,-0.0004
3621.0,-0.0004
3620.0,-0.0004
3619.0,-0.0005
3618.0,-0.0005
3617.0,-0.0005
3616.0,-0.0004
3615.0,-0.0003
3614.0,-0.0002
3613.0,-0.0001
3612.0,-0.0001
3611.0,-0.0001
3610.0,-0.0002
3609.0,-0.0003
3608.0,-0.0003
3607.0,-0.0004
3606.0,-0.0004
3605.0,-0.0004
3604.0,-0.0004
3603.0,-0.0004
3602.0,-0.0004
3601.0,-0.0004
3600.0,-0.0004
3599.0,-0.0004
3598.0,-0.0005
3597.0,-0.0005
3596.0,-0.0005
3595.0,-0.0005
3594.0,-0.0005
3593.0,-0.0004
3592.0,-0.0003
3591.0,-0.0003
3590.0,-0.0003
3589.0,-0.0004
3588.0,-0.0005
3587.0,-0.0005
3586.0,-0.0004
3585.0,-0.0004
3584.0,-0.0003
3583.0,-0.0003
3582.0,-0.0002
3581.0,-0.0002
3580.0,-0.0001
3579.0,-0.0001
3578.0,-0.0001
3577.0,-0.0002
3576.0,-0.0002
3575.0,-0.0002
3574.0,-0.0002
3573.0,-0.0002
3572.0,-0.0003
3571.0,-0.0003
3570.0,-0.0003
3569.0,-0.0003
3568.0,-0.0003
3567.0,-0.0003
3566.0,-0.0003
3565.0,-0.0002
3564.0,-0.0001
3563.0,0.0001
3562.0,0.0001
3561.0,0.0001
3560.0,0.0001
3559.0,0.0
3558.0,-0.0001
3557.0,-0.0001
3556.0,-0.0002
3555.0,-0.0003
3554.0,-0.0003
3553.0,-0.0003
3552.0,-0.0002
3551.0,-0.0001
3550.0,0.0
3549.0,0.0
3548.0,0.0
3547.0,-0.0
3546.0,-0.0001
3545.0,-0.0001
3544.0,-0.0
3543.0,0.0001
3542.0,0.0001
3541.0,0.0001
3540.0,-0.0001
3539.0,-0.0002
3538.0,-0.0002
3537.0,-0.0001
3536.0,-0.0001
3535.0,-0.0001
3534.0,-0.0001
3533.0,-0.0001
3532.0,-0.0001
3531.0,-0.0001
3530.0,-0.0
3529.0,0.0001
3528.0,0.0002
3527.0,0.0002
3526.0,0.0002
3525.0,0.0002
3524.0,0.0
3523.0,-0.0001
3522.0,-0.0002
3521.0,-0.0002
3520.0,-0.0002
3519.0,-0.0002
3518.0,-0.0001
3517.0,-0.0001
3516.0,-0.0
3515.0,0.0
3514.0,0.0
3513.0,-0.0
3512.0,-0.0
3511.0,-0.0
3510.0,-0.0
3509.0,-0.0
3508.0,-0.0
3507.0,-0.0
3506.0,-0.0
3505.0,0.0
3504.0,0.0001
3503.0,0.0001
3502.0,0.0001
3501.0,0.0001
3500.0,0.0001
3499.0,0.0002
3498.0,0.0002
3497.0,0.0002
3496.0,0.0002
3495.0,0.0002
3494.0,0.0002
3493.0,0.0002
3492.0,0.0003
3491.0,0.0003
3490.0,0.0003
3489.0,0.0002
3488.0,0.0001
3487.0,0.0
3486.0,-0.0
3485.0,-0.0
3484.0,0.0
3483.0,0.0001
3482.0,0.0002
3481.0,0.0003
3480.0,0.0003
3479.0,0.0003
3478.0,0.0003
3477.0,0.0002
3476.0,0.0001
3475.0,-0.0
3474.0,-0.0
3473.0,0.0
3472.0,0.0001
3471.0,0.0001
3470.0,0.0002
3469.0,0.0002
3468.0,0.0002
3467.0,0.0002
3466.0,0.0002
3465.0,0.0001
3464.0,0.0001
3463.0,-0.0
3462.0,-0.0001
3461.0,-0.0002
3460.0,-0.0002
3459.0,-0.0002
3458.0,-0.0001
3457.0,-0.0001
3456.0,-0.0
3455.0,-0.0001
3454.0,-0.0001
3453.0,-0.0
3452.0,0.0001
3451.0,0.0002
3450.0,0.0003
3449.0,0.0003
3448.0,0.0002
3447.0,0.0002
3446.0,0.0001
3445.0,0.0001
3444.0,0.0001
3443.0,0.0
3442.0,-0.0
3441.0,-0.0001
3440.0,-0.0001
3439.0,-0.0
3438.0,0.0001
3437.0,0.0002
3436.0,0.0002
3435.0,0.0002
3434.0,0.0002
3433.0,0.0002
3432.0,0.0002
3431.0,0.0002
3430.0,0.0002
3429.0,0.0002
3428.0,0.0002
3427.0,0.0002
3426.0,0.0002
3425.0,0.0002
3424.0,0.0003
3423.0,0.0003
3422.0,0.0003
3421.0,0.0004
3420.0,0.0004
3419.0,0.0004
3418.0,0.0003
3417.0,0.0003
3416.0,0.0003
3415.0,0.0002
3414.0,0.0001
3413.0,0.0001
3412.0,0.0001
3411.0,0.0001
3410.0,0.0002
3409.0,0.0003
3408.0,0.0004
3407.0,0.0004
3406.0,0.0004
3405.0,0.0003
3404.0,0.0002
3403.0,0.0001
3402.0,0.0001
3401.0,0.0001
3400.0,0.0001
3399.0,0.0001
3398.0,0.0001
3397.0,0.0001
3396.0,0.0001
3395.0,0.0001
3394.0,0.0001
3393.0,0.0001
3392.0,0.0
3391.0,-0.0
3390.0,-0.0
3389.0,0.0
3388.0,0.0001
3387.0,0.0001
3386.0,0.0001
3385.0,0.0001
3384.0,0.0001
3383.0,0.0002
3382.0,0.0002
3381.0,0.0002
3380.0,0.0002
3379.0,0.0001
3378.0,0.0001
3377.0,0.0001
3376.0,0.0001
3375.0,0.0002
3374.0,0.0002
3373.0,0.0001
3372.0,0.0001
3371.0,0.0001
3370.0,0.0001
3369.0,0.0001
3368.0,0.0001
3367.0,0.0002
3366.0,0.0002
3365.0,0.0003
3364.0,0.0003
3363.0,0.0004
3362.0,0.0003
3361.0,0.0002
3360.0,0.0001
3359.0,0.0
3358.0,-0.0
3357.0,0.0001
3356.0,0.0002
3355.0,0.0003
3354.0,0.0004
3353.0,0.0004
3352.0,0.0004
3351.0,0.0003
3350.0,0.0003
3349.0,0.0002
3348.0,0.0002
3347.0,0.0002
3346.0,0.0002
3345.0,0.0002
3344.0,0.0003
3343.0,0.0003
3342.0,0.0003
3341.0,0.0002
3340.0,0.0002
3339.0,0.0002
3338.0,0.0001
3337.0,0.0001
3336.0,0.0001
3335.0,0.0001
3334.0,0.0001
3333.0,0.0001
3332.0,0.0001
3331.0,0.0001
3330.0,0.0001
3329.0,0.0001
3328.0,0.0001
3327.0,0.0001
3326.0,0.0001
3325.0,0.0001
3324.0,0.0001
3323.0,0.0001
3322.0,0.0001
3321.0,0.0002
3320.0,0.0002
3319.0,0.0002
3318.0,0.0002
3317.0,0.0002
3316.0,0.0002
3315.0,0.0002
3314.0,0.0002
3313.0,0.0002
3312.0,0.0002
3311.0,0.0002
3310.0,0.0002
3309.0,0.0002
3308.0,0.0002
3307.0,0.0003
3306.0,0.0003
3305.0,0.0003
3304.0,0.0002
3303.0,0.0002
3302.0,0.0001
3301.0,0.0002
3300.0,0.0003
3299.0,0.0003
3298.0,0.0003
3297.0,0.0003
3296.0,0.0003
3295.0,0.0003
3294.0,0.0003
3293.0,0.0004
3292.0,0.0004
3291.0,0.0004
3290.0,0.0003
3289.0,0.0002
3288.0,0.0002
3287.0,0.0002
3286.0,0.0003
3285.0,0.0003
3284.0,0.0002
3283.0,0.0002
3282.0,0.0001
3281.0,0.0001
3280.0,0.0001
3279.0,0.0002
3278.0,0.0002
3277.0,0.0002
3276.0,0.0002
3275.0,0.0002
3274.0,0.0002
3273.0,0.0003
3272.0,0.0003
3271.0,0.0003
3270.0,0.0003
3269.0,0.0003
3268.0,0.0003
3267.0,0.0003
3266.0,0.0002
3265.0,0.0001
3264.0,0.0001
3263.0,0.0001
3262.0,0.0001
3261.0,0.0001
3260.0,0.0001
3259.0,0.0001
3258.0,0.0
3257.0,0.0
3256.0,0.0001
3255.0,0.0001
3254.0,0.0001
3253.0,0.0001
3252.0,0.0001
3251.0,0.0001
3250.0,0.0001
3249.0,0.0001
3248.0,0.0002
3247.0,0.0003
3246.0,0.0003
3245.0,0.0003
3244.0,0.0003
3243.0,0.0003
3242.0,0.0002
3241.0,0.0002
3240.0,0.0003
3239.0,0.0003
3238.0,0.0004
3237.0,0.0004
3236.0,0.0004
3235.0,0.0004
3234.0,0.0004
3233.0,0.0003
3232.0,0.0003
3231.0,0.0003
3230.0,0.0003
3229.0,0.0003
3228.0,0.0003
3227.0,0.0003
3226.0,0.0003
3225.0,0.0003
3224.0,0.0003
3223.0,0.0003
3222.0,0.0004
3221.0,0.0004
3220.0,0.0004
3219.0,0.0003
3218.0,0.0003
3217.0,0.0002
3216.0,0.0002
3215.0,0.0002
3214.0,0.0001
3213.0,0.0001
3212.0,-0.0
3211.0,-0.0
3210.0,-0.0
3209.0,0.0
3208.0,0.0001
3207.0,0.0002
3206.0,0.0002
3205.0,0.0002
3204.0,0.0002
3203.0,0.0001
3202.0,0.0002
3201.0,0.0002
3200.0,0.0003
3199.0,0.0003
3198.0,0.0003
3197.0,0.0004
3196.0,0.0004
3195.0,0.0003
3194.0,0.0002
3193.0,0.0001
3192.0,0.0001
3191.0,0.0002
3190.0,0.0002
3189.0,0.0002
3188.0,0.0002
3187.0,0.0002
3186.0,0.0001
3185.0,0.0001
3184.0,0.0001
3183.0,0.0002
3182.0,0.0002
3181.0,0.0002
3180.0,0.0003
3179.0,0.0004
3178.0,0.0004
3177.0,0.0005
3176.0,0.0005
3175.0,0.0004
3174.0,0.0003
3173.0,0.0002
3172.0,0.0001
3171.0,0.0002
3170.0,0.0002
3169.0,0.0003
3168.0,0.0004
3167.0,0.0004
3166.0,0.0004
3165.0,0.0004
3164.0,0.0004
3163.0,0.0003
3162.0,0.0002
3161.0,0.0002
3160.0,0.0002
3159.0,0.0002
3158.0,0.0002
3157.0,0.0003
3156.0,0.0002
3155.0,0.0002
3154.0,0.0002
3153.0,0.0002
3152.0,0.0002
3151.0,0.0003
3150.0,0.0003
3149.0,0.0003
3148.0,0.0003
3147.0,0.0004
3146.0,0.0005
3145.0,0.0005
3144.0,0.0005
3143.0,0.0004
3142.0,0.0003
3141.0,0.0002
3140.0,0.0002
3139.0,0.0002
3138.0,0.0002
3137.0,0.0003
3136.0,0.0003
3135.0,0.0003
3134.0,0.0002
3133.0,0.0002
3132.0,0.0001
3131.0,0.0001
3130.0,0.0002
3129.0,0.0002
3128.0,0.0002
3127.0,0.0002
3126.0,0.0002
3125.0,0.0002
3124.0,0.0002
3123.0,0.0002
3122.0,0.0002
3121.0,0.0002
3120.0,0.0002
3119.0,0.0001
3118.0,0.0001
3117.0,0.0001
3116.0,0.0002
3115.0,0.0003
3114.0,0.0003
3113.0,0.0004
3112.0,0.0005
3111.0,0.0004
3110.0,0.0004
3109.0,0.0003
3108.0,0.0003
3107.0,0.0002
3106.0,0.0002
3105.0,0.0001
3104.0,0.0001
3103.0,0.0
3102.0,0.0001
3101.0,0.0002
3100.0,0.0002
3099.0,0.0003
3098.0,0.0004
3097.0,0.0004
3096.0,0.0004
3095.0,0.0004
3094.0,0.0003
3093.0,0.0002
3092.0,0.0002
3091.0,0.0002
3090.0,0.0002
3089.0,0.0003
3088.0,0.0003
3087.0,0.0003
3086.0,0.0004
3085.0,0.0005
3084.0,0.0005
3083.0,0.0005
3082.0,0.0004
3081.0,0.0003
3080.0,0.0003
3079.0,0.0002
3078.0,0.0002
3077.0,0.0002
3076.0,0.0002
3075.0,0.0003
3074.0,0.0003
3073.0,0.0003
3072.0,0.0003
3071.0,0.0003
3070.0,0.0003
3069.0,0.0002
3068.0,0.0002
3067.0,0.0002
3066.0,0.0002
3065.0,0.0003
3064.0,0.0004
3063.0,0.0004
3062.0,0.0003
3061.0,0.0003
3060.0,0.0003
3059.0,0.0003
3058.0,0.0003
3057.0,0.0004
3056.0,0.0003
3055.0,0.0003
3054.0,0.0002
3053.0,0.0003
3052.0,0.0003
3051.0,0.0004
3050.0,0.0004
3049.0,0.0004
3048.0,0.0003
3047.0,0.0003
3046.0,0.0003
3045.0,0.0003
3044.0,0.0003
3043.0,0.0003
3042.0,0.0003
3041.0,0.0003
3040.0,0.0003
3039.0,0.0003
3038.0,0.0003
3037.0,0.0003
3036.0,0.0002
3035.0,0.0002
3034.0,0.0002
3033.0,0.0003
3032.0,0.0003
3031.0,0.0004
3030.0,0.0003
3029.0,0.0003
3028.0,0.0002
3027.0,0.0002
3026.0,0.0002
3025.0,0.0003
3024.0,0.0003
3023.0,0.0004
3022.0,0.0004
3021.0,0.0004
3020.0,0.0003
3019.0,0.0002
3018.0,0.0001
3017.0,0.0001
3016.0,0.0001
3015.0,0.0002
3014.0,0.0002
3013.0,0.0003
3012.0,0.0004
3011.0,0.0004
3010.0,0.0004
3009.0,0.0003
3008.0,0.0003
3007.0,0.0002
3006.0,0.0001
3005.0,0.0001
3004.0,0.0001
3003.0,0.0002
3002.0,0.0003
3001.0,0.0004
3000.0,0.0004
2999.0,0.0004
2998.0,0.0003
2997.0,0.0003
2996.0,0.0003
2995.0,0.0003
2994.0,0.0003
2993.0,0.0003
2992.0,0.0003
2991.0,0.0003
2990.0,0.0003
2989.0,0.0003
2988.0,0.0004
2987.0,0.0004
2986.0,0.0005
2985.0,0.0005
2984.0,0.0005
2983.0,0.0005
2982.0,0.0005
2981.0,0.0005
2980.0,0.0005
2979.0,0.0005
2978.0,0.0004
2977.0,0.0004
2976.0,0.0003
2975.0,0.0003
2974.0,0.0003
2973.0,0.0004
2972.0,0.0005
2971.0,0.0006
2970.0,0.0006
2969.0,0.0006
2968.0,0.0006
2967.0,0.0006
2966.0,0.0007
2965.0,0.0007
2964.0,0.0007
2963.0,0.0007
2962.0,0.0007
2961.0,0.0006
2960.0,0.0006
2959.0,0.0005
2958.0,0.0005
2957.0,0.0006
2956.0,0.0006
2955.0,0.0007
2954.0,0.0007
2953.0,0.0006
2952.0,0.0006
2951.0,0.0006
2950.0,0.0006
2949.0,0.0006
2948.0,0.0007
2947.0,0.0007
2946.0,0.0007
2945.0,0.0007
2944.0,0.0007
2943.0,0.0007
2942.0,0.0007
2941.0,0.0006
2940.0,0.0005
2939.0,0.0005
2938.0,0.0005
2937.0,0.0005
2936.0,0.0005
2935.0,0.0005
2934.0,0.0005
2933.0,0.0006
2932.0,0.0006
2931.0,0.0006
2930.0,0.0006
2929.0,0.0005
2928.0,0.0005
2927.0,0.0004
2926.0,0.0004
2925.0,0.0004
2924.0,0.0005
2923.0,0.0006
2922.0,0.0006
2921.0,0.0007
2920.0,0.0007
2919.0,0.0006
2918.0,0.0006
2917.0,0.0006
2916.0,0.0006
2915.0,0.0007
2914.0,0.0007
2913.0,0.0007
2912.0,0.0006
2911.0,0.0006
2910.0,0.0006
2909.0,0.0005
2908.0,0.0005
2907.0,0.0005
2906.0,0.0005
2905.0,0.0005
2904.0,0.0005
2903.0,0.0004
2902.0,0.0004
2901.0,0.0004
2900.0,0.0004
2899.0,0.0004
2898.0,0.0004
2897.0,0.0004
2896.0,0.0005
2895.0,0.0006
2894.0,0.0007
2893.0,0.0007
2892.0,0.0007
2891.0,0.0007
2890.0,0.0007
2889.0,0.0006
2888.0,0.0006
2887.0,0.0005
2886.0,0.0005
2885.0,0.0005
2884.0,0.0005
2883.0,0.0005
2882.0,0.0005
2881.0,0.0005
2880.0,0.0006
2879.0,0.0007
2878.0,0.0007
2877.0,0.0007
2876.0,0.0007
2875.0,0.0006
2874.0,0.0005
2873.0,0.0005
2872.0,0.0005
2871.0,0.0005
2870.0,0.0005
2869.0,0.0005
2868.0,0.0005
2867.0,0.0005
2866.0,0.0005
2865.0,0.0005
2864.0,0.0005
2863.0,0.0005
2862.0,0.0006
2861.0,0.0007
2860.0,0.0007
2859.0,0.0008
2858.0,0.0008
2857.0,0.0007
2856.0,0.0007
2855.0,0.0006
2854.0,0.0005
2853.0,0.0005
2852.0,0.0005
2851.0,0.0005
2850.0,0.0005
2849.0,0.0004
2848.0,0.0004
2847.0,0.0004
2846.0,0.0004
2845.0,0.0004
2844.0,0.0005
2843.0,0.0006
2842.0,0.0006
2841.0,0.0006
2840.0,0.0006
2839.0,0.0006
2838.0,0.0006
2837.0,0.0006
2836.0,0.0006
2835.0,0.0006
2834.0,0.0006
2833.0,0.0006
2832.0,0.0005
2831.0,0.0005
2830.0,0.0004
2829.0,0.0004
2828.0,0.0004
2827.0,0.0004
2826.0,0.0004
2825.0,0.0005
2824.0,0.0005
2823.0,0.0005
2822.0,0.0005
2821.0,0.0006
2820.0,0.0006
2819.0,0.0006
2818.0,0.0006
2817.0,0.0007
2816.0,0.0007
2815.0,0.0007
2814.0,0.0006
2813.0,0.0006
2812.0,0.0006
2811.0,0.0005
2810.0,0.0005
2809.0,0.0005
2808.0,0.0005
2807.0,0.0005
2806.0,0.0005
2805.0,0.0005
2804.0,0.0005
2803.0,0.0004
2802.0,0.0004
2801.0,0.0004
2800.0,0.0004
2799.0,0.0005
2798.0,0.0005
2797.0,0.0006
2796.0,0.0006
2795.0,0.0007
2794.0,0.0006
2793.0,0.0006
2792.0,0.0006
2791.0,0.0006
2790.0,0.0006
2789.0,0.0006
2788.0,0.0005
2787.0,0.0005
2786.0,0.0005
2785.0,0.0006
2784.0,0.0007
2783.0,0.0007
2782.0,0.0007
2781.0,0.0006
2780.0,0.0006
2779.0,0.0006
2778.0,0.0007
2777.0,0.0007
2776.0,0.0007
2775.0,0.0006
2774.0,0.0006
2773.0,0.0006
2772.0,0.0006
2771.0,0.0006
2770.0,0.0006
2769.0,0.0006
2768.0,0.0005
2767.0,0.0005
2766.0,0.0006
2765.0,0.0006
2764.0,0.0007
2763.0,0.0007
2762.0,0.0007
2761.0,0.0007
2760.0,0.0007
2759.0,0.0006
2758.0,0.0006
2757.0,0.0005
2756.0,0.0005
2755.0,0.0005
2754.0,0.0006
2753.0,0.0006
2752.0,0.0006
2751.0,0.0006
2750.0,0.0006
2749.0,0.0006
2748.0,0.0006
2747.0,0.0006
2746.0,0.0006
2745.0,0.0006
2744.0,0.0005
2743.0,0.0006
2742.0,0.0006
2741.0,0.0006
2740.0,0.0006
2739.0,0.0006
2738.0,0.0006
2737.0,0.0006
2736.0,0.0006
2735.0,0.0007
2734.0,0.0007
2733.0,0.0007
2732.0,0.0007
2731.0,0.0007
2730.0,0.0006
2729.0,0.0006
2728.0,0.0006
2727.0,0.0006
2726.0,0.0006
2725.0,0.0005
2724.0,0.0004
2723.0,0.0004
2722.0,0.0004
2721.0,0.0004
2720.0,0.0005
2719.0,0.0005
2718.0,0.0006
2717.0,0.0006
2716.0,0.0007
2715.0,0.0007
2714.0,0.0006
2713.0,0.0006
2712.0,0.0006
2711.0,0.0006
2710.0,0.0006
2709.0,0.0006
2708.0,0.0006
2707.0,0.0007
2706.0,0.0007
2705.0,0.0007
2704.0,0.0007
2703.0,0.0007
2702.0,0.0007
2701.0,0.0007
2700.0,0.0008
2699.0,0.0008
2698.0,0.0009
2697.0,0.0008
2696.0,0.0008
2695.0,0.0008
2694.0,0.0007
2693.0,0.0007
2692.0,0.0007
2691.0,0.0007
2690.0,0.0006
2689.0,0.0006
2688.0,0.0006
2687.0,0.0006
2686.0,0.0007
2685.0,0.0007
2684.0,0.0007
2683.0,0.0007
2682.0,0.0007
2681.0,0.0007
2680.0,0.0007
2679.0,0.0007
2678.0,0.0007
2677.0,0.0007
2676.0,0.0006
2675.0,0.0006
2674.0,0.0006
2673.0,0.0006
2672.0,0.0007
2671.0,0.0007
2670.0,0.0007
2669.0,0.0007
2668.0,0.0007
2667.0,0.0008
2666.0,0.0008
2665.0,0.0008
2664.0,0.0007
2663.0,0.0007
2662.0,0.0006
2661.0,0.0006
2660.0,0.0006
2659.0,0.0006
2658.0,0.0006
2657.0,0.0006
2656.0,0.0006
2655.0,0.0007
2654.0,0.0007
2653.0,0.0008
2652.0,0.0008
2651.0,0.0008
2650.0,0.0007
2649.0,0.0007
2648.0,0.0006
2647.0,0.0006
2646.0,0.0006
2645.0,0.0006
2644.0,0.0006
2643.0,0.0006
2642.0,0.0006
2641.0,0.0006
2640.0,0.0006
2639.0,0.0006
2638.0,0.0007
2637.0,0.0007
2636.0,0.0007
2635.0,0.0007
2634.0,0.0007
2633.0,0.0007
2632.0,0.0007
2631.0,0.0007
2630.0,0.0007
2629.0,0.0007
2628.0,0.0006
2627.0,0.0006
2626.0,0.0006
2625.0,0.0006
2624.0,0.0007
2623.0,0.0008
2622.0,0.0008
2621.0,0.0008
2620.0,0.0007
2619.0,0.0007
2618.0,0.0007
2617.0,0.0007
2616.0,0.0008
2615.0,0.0008
2614.0,0.0008
2613.0,0.0008
2612.0,0.0008
2611.0,0.0008
2610.0,0.0008
2609.0,0.0008
2608.0,0.0008
2607.0,0.0007
2606.0,0.0008
2605.0,0.0008
2604.0,0.0008
2603.0,0.0008
2602.0,0.0008
2601.0,0.0009
2600.0,0.0009
2599.0,0.0009
2598.0,0.0008
2597.0,0.0008
2596.0,0.0009
2595.0,0.0009
2594.0,0.0008
2593.0,0.0008
2592.0,0.0008
2591.0,0.0008
2590.0,0.0008
2589.0,0.0008
2588.0,0.0008
2587.0,0.0009
2586.0,0.0008
2585.0,0.0008
2584.0,0.0008
2583.0,0.0008
2582.0,0.0009
2581.0,0.0009
2580.0,0.0009
2579.0,0.0009
2578.0,0.0008
2577.0,0.0008
2576.0,0.0008
2575.0,0.0008
2574.0,0.0008
2573.0,0.0009
2572.0,0.0009
2571.0,0.0009
2570.0,0.0009
2569.0,0.0008
2568.0,0.0008
2567.0,0.0008
2566.0,0.0008
2565.0,0.0008
2564.0,0.0008
2563.0,0.0008
2562.0,0.0008
2561.0,0.0008
2560.0,0.0008
2559.0,0.0009
2558.0,0.0009
2557.0,0.0009
2556.0,0.0008
2555.0,0.0008
2554.0,0.0008
2553.0,0.0008
2552.0,0.0009
2551.0,0.0009
2550.0,0.0009
2549.0,0.0008
2548.0,0.0008
2547.0,0.0009
2546.0,0.0009
2545.0,0.001
2544.0,0.001
2543.0,0.001
2542.0,0.001
2541.0,0.0009
2540.0,0.0009
2539.0,0.0009
2538.0,0.001
2537.0,0.001
2536.0,0.001
2535.0,0.001
2534.0,0.0009
2533.0,0.0009
2532.0,0.0008
2531.0,0.0008
2530.0,0.0008
2529.0,0.0008
2528.0,0.0008
2527.0,0.0008
2526.0,0.0008
2525.0,0.0008
2524.0,0.0009
2523.0,0.001
2522.0,0.001
2521.0,0.001
2520.0,0.001
2519.0,0.0009
2518.0,0.0009
2517.0,0.0008
2516.0,0.0008
2515.0,0.0008
2514.0,0.0008
2513.0,0.0008
2512.0,0.0008
2511.0,0.0008
2510.0,0.0008
2509.0,0.0008
2508.0,0.0009
2507.0,0.0009
2506.0,0.0009
2505.0,0.001
2504.0,0.001
2503.0,0.001
2502.0,0.001
2501.0,0.001
2500.0,0.001
2499.0,0.001
2498.0,0.001
2497.0,0.001
2496.0,0.0009
2495.0,0.0009
2494.0,0.0009
2493.0,0.0009
2492.0,0.0009
2491.0,0.0008
2490.0,0.0008
2489.0,0.0008
2488.0,0.0008
2487.0,0.0009
2486.0,0.001
2485.0,0.001
2484.0,0.001
2483.0,0.001
2482.0,0.001
2481.0,0.001
2480.0,0.0009
2479.0,0.0009
2478.0,0.0009
2477.0,0.0009
2476.0,0.0009
2475.0,0.0009
2474.0,0.0009
2473.0,0.0009
2472.0,0.0009
2471.0,0.0009
2470.0,0.001
2469.0,0.0009
2468.0,0.0009
2467.0,0.0009
2466.0,0.0009
2465.0,0.001
2464.0,0.001
2463.0,0.001
2462.0,0.0009
2461.0,0.0009
2460.0,0.0009
2459.0,0.0009
2458.0,0.0009
2457.0,0.0009
2456.0,0.0009
2455.0,0.0009
2454.0,0.0009
2453.0,0.0009
2452.0,0.0009
2451.0,0.0009
2450.0,0.0009
2449.0,0.0009
2448.0,0.0009
2447.0,0.0009
2446.0,0.0009
2445.0,0.001
2444.0,0.001
2443.0,0.001
2442.0,0.0011
2441.0,0.0011
2440.0,0.0011
2439.0,0.0011
2438.0,0.0011
2437.0,0.0011
2436.0,0.0011
2435.0,0.001
2434.0,0.001
2433.0,0.001
2432.0,0.001
2431.0,0.001
2430.0,0.001
2429.0,0.0011
2428.0,0.0011
2427.0,0.0011
2426.0,0.001
2425.0,0.001
2424.0,0.001
2423.0,0.001
2422.0,0.001
2421.0,0.001
2420.0,0.001
2419.0,0.001
2418.0,0.0011
2417.0,0.0011
2416.0,0.0012
2415.0,0.0012
2414.0,0.0012
2413.0,0.0011
2412.0,0.0011
2411.0,0.001
2410.0,0.0011
2409.0,0.0011
2408.0,0.0011
2407.0,0.0011
2406.0,0.001
2405.0,0.001
2404.0,0.001
2403.0,0.001
2402.0,0.001
2401.0,0.001
2400.0,0.001
2399.0,0.0011
2398.0,0.0011
2397.0,0.0012
2396.0,0.0011
2395.0,0.001
2394.0,0.001
2393.0,0.001
2392.0,0.001
2391.0,0.001
2390.0,0.0011
2389.0,0.0011
2388.0,0.0011
2387.0,0.0011
2386.0,0.001
2385.0,0.001
2384.0,0.001
2383.0,0.0009
2382.0,0.0008
2381.0,0.0007
2380.0,0.0006
2379.0,0.0004
2378.0,0.0003
2377.0,0.0001
2376.0,-0.0
2375.0,-0.0001
2374.0,-0.0002
2373.0,-0.0001
2372.0,0.0
2371.0,0.0002
2370.0,0.0002
2369.0,-0.0
2368.0,-0.0005
2367.0,-0.0008
2366.0,-0.0007
2365.0,-0.0001
2364.0,0.0006
2363.0,0.0008
2362.0,0.0006
2361.0,0.0006
2360.0,0.001
2359.0,0.0015
2358.0,0.0014
2357.0,0.0007
2356.0,-0.0005
2355.0,-0.0015
2354.0,-0.0022
2353.0,-0.0023
2352.0,-0.002
2351.0,-0.0016
2350.0,-0.001
2349.0,-0.0006
2348.0,-0.0004
2347.0,-0.0006
2346.0,-0.0008
2345.0,-0.0008
2344.0,-0.0005
2343.0,-0.0002
2342.0,-0.0
2341.0,-0.0002
2340.0,-0.0004
2339.0,-0.0007
2338.0,-0.0008
2337.0,-0.0009
2336.0,-0.0008
2335.0,-0.0006
2334.0,-0.0005
2333.0,-0.0007
2332.0,-0.0011
2331.0,-0.0014
2330.0,-0.0014
2329.0,-0.0012
2328.0,-0.001
2327.0,-0.001
2326.0,-0.001
2325.0,-0.0009
2324.0,-0.0007
2323.0,-0.0004
2322.0,-0.0002
2321.0,-0.0002
2320.0,-0.0003
2319.0,-0.0002
2318.0,-0.0001
2317.0,0.0001
2316.0,0.0003
2315.0,0.0003
2314.0,0.0003
2313.0,0.0001
2312.0,0.0001
2311.0,0.0001
2310.0,0.0002
2309.0,0.0003
2308.0,0.0005
2307.0,0.0007
2306.0,0.0008
2305.0,0.0008
2304.0,0.0008
2303.0,0.0007
2302.0,0.0006
2301.0,0.0006
2300.0,0.0006
2299.0,0.0006
2298.0,0.0007
2297.0,0.0007
2296.0,0.0007
2295.0,0.0007
2294.0,0.0007
2293.0,0.0008
2292.0,0.0009
2291.0,0.0009
2290.0,0.001
2289.0,0.001
2288.0,0.001
2287.0,0.001
2286.0,0.001
2285.0,0.001
2284.0,0.001
2283.0,0.001
2282.0,0.001
2281.0,0.001
2280.0,0.001
2279.0,0.001
2278.0,0.001
2277.0,0.001
2276.0,0.001
2275.0,0.001
2274.0,0.001
2273.0,0.0011
2272.0,0.0011
2271.0,0.0011
2270.0,0.001
2269.0,0.001
2268.0,0.001
2267.0,0.0009
2266.0,0.0009
2265.0,0.0009
2264.0,0.0009
2263.0,0.0009
2262.0,0.0009
2261.0,0.001
2260.0,0.001
2259.0,0.001
2258.0,0.001
2257.0,0.001
2256.0,0.001
2255.0,0.0011
2254.0,0.0011
2253.0,0.0011
2252.0,0.0011
2251.0,0.0011
2250.0,0.0011
2249.0,0.0012
2248.0,0.0012
2247.0,0.0012
2246.0,0.0011
2245.0,0.0011
2244.0,0.0011
2243.0,0.0011
2242.0,0.0012
2241.0,0.0013
2240.0,0.0013
2239.0,0.0012
2238.0,0.0012
2237.0,0.0012
2236.0,0.0012
2235.0,0.0012
2234.0,0.0013
2233.0,0.0013
2232.0,0.0013
2231.0,0.0013
2230.0,0.0012
2229.0,0.0012
2228.0,0.0012
2227.0,0.0012
2226.0,0.0012
2225.0,0.0012
2224.0,0.0011
2223.0,0.0011
2222.0,0.0011
2221.0,0.0011
2220.0,0.0011
2219.0,0.0011
2218.0,0.0011
2217.0,0.0012
2216.0,0.0012
2215.0,0.0011
2214.0,0.0011
2213.0,0.0011
2212.0,0.0011
2211.0,0.0011
2210.0,0.0011
2209.0,0.0012
2208.0,0.0012
2207.0,0.0012
2206.0,0.0012
2205.0,0.0012
2204.0,0.0011
2203.0,0.0011
2202.0,0.0011
2201.0,0.0011
2200.0,0.0011
2199.0,0.0012
2198.0,0.0012
2197.0,0.0012
2196.0,0.0012
2195.0,0.0011
2194.0,0.0011
2193.0,0.0011
2192.0,0.0012
2191.0,0.0013
2190.0,0.0013
2189.0,0.0013
2188.0,0.0013
2187.0,0.0012
2186.0,0.0012
2185.0,0.0012
2184.0,0.0012
2183.0,0.0012
2182.0,0.0012
2181.0,0.0012
2180.0,0.0012
2179.0,0.0012
2178.0,0.0012
2177.0,0.0012
2176.0,0.0013
2175.0,0.0013
2174.0,0.0013
2173.0,0.0012
2172.0,0.0012
2171.0,0.0012
2170.0,0.0011
2169.0,0.0011
2168.0,0.0011
2167.0,0.0011
2166.0,0.0012
2165.0,0.0012
2164.0,0.0012
2163.0,0.0013
2162.0,0.0013
2161.0,0.0013
2160.0,0.0012
2159.0,0.0012
2158.0,0.0012
2157.0,0.0012
2156.0,0.0012
2155.0,0.0011
2154.0,0.0011
2153.0,0.0011
2152.0,0.0011
2151.0,0.0011
2150.0,0.0011
2149.0,0.0012
2148.0,0.0012
2147.0,0.0013
2146.0,0.0013
2145.0,0.0013
2144.0,0.0013
2143.0,0.0012
2142.0,0.0012
2141.0,0.0012
2140.0,0.0012
2139.0,0.0012
2138.0,0.0012
2137.0,0.0013
2136.0,0.0013
2135.0,0.0013
2134.0,0.0013
2133.0,0.0013
2132.0,0.0013
2131.0,0.0013
2130.0,0.0013
2129.0,0.0013
2128.0,0.0013
2127.0,0.0013
2126.0,0.0013
2125.0,0.0013
2124.0,0.0013
2123.0,0.0012
2122.0,0.0012
2121.0,0.0011
2120.0,0.0011
2119.0,0.0011
2118.0,0.0011
2117.0,0.0011
2116.0,0.0012
2115.0,0.0012
2114.0,0.0012
2113.0,0.0012
2112.0,0.0012
2111.0,0.0012
2110.0,0.0013
2109.0,0.0013
2108.0,0.0013
2107.0,0.0013
2106.0,0.0013
2105.0,0.0013
2104.0,0.0012
2103.0,0.0012
2102.0,0.0012
2101.0,0.0012
2100.0,0.0012
2099.0,0.0012
2098.0,0.0012
2097.0,0.0013
2096.0,0.0013
2095.0,0.0013
2094.0,0.0012
2093.0,0.0012
2092.0,0.0012
2091.0,0.0011
2090.0,0.0011
2089.0,0.0011
2088.0,0.0012
2087.0,0.0012
2086.0,0.0012
2085.0,0.0012
2084.0,0.0012
2083.0,0.0012
2082.0,0.0013
2081.0,0.0013
2080.0,0.0013
2079.0,0.0013
2078.0,0.0013
2077.0,0.0012
2076.0,0.0011
2075.0,0.0011
2074.0,0.0011
2073.0,0.0011
2072.0,0.0011
2071.0,0.0011
2070.0,0.0011
2069.0,0.0011
2068.0,0.0011
2067.0,0.0011
2066.0,0.0011
2065.0,0.0012
2064.0,0.0012
2063.0,0.0012
2062.0,0.0012
2061.0,0.0012
2060.0,0.0011
2059.0,0.0011
2058.0,0.0011
2057.0,0.0011
2056.0,0.0011
2055.0,0.0012
2054.0,0.0012
2053.0,0.0012
2052.0,0.0011
2051.0,0.0011
2050.0,0.0011
2049.0,0.0011
2048.0,0.0011
2047.0,0.0011
2046.0,0.0011
2045.0,0.0011
2044.0,0.0011
2043.0,0.0011
2042.0,0.0011
2041.0,0.0011
2040.0,0.001
2039.0,0.001
2038.0,0.001
2037.0,0.001
2036.0,0.001
2035.0,0.001
2034.0,0.001
2033.0,0.001
2032.0,0.001
2031.0,0.001
2030.0,0.001
2029.0,0.001
2028.0,0.0011
2027.0,0.0011
2026.0,0.001
2025.0,0.001
2024.0,0.0011
2023.0,0.0011
2022.0,0.0012
2021.0,0.0012
2020.0,0.0012
2019.0,0.0012
2018.0,0.0012
2017.0,0.0012
2016.0,0.0012
2015.0,0.0012
2014.0,0.0011
2013.0,0.0011
2012.0,0.0011
2011.0,0.0011
2010.0,0.0011
2009.0,0.0011
2008.0,0.0011
2007.0,0.0011
2006.0,0.0011
2005.0,0.0011
2004.0,0.0011
2003.0,0.0011
2002.0,0.001
2001.0,0.0011
2000.0,0.0011
1999.0,0.001
1998.0,0.001
1997.0,0.001
1996.0,0.001
1995.0,0.001
1994.0,0.001
1993.0,0.0011
1992.0,0.0011
1991.0,0.0011
1990.0,0.0011
1989.0,0.001
1988.0,0.001
1987.0,0.001
1986.0,0.001
1985.0,0.001
1984.0,0.001
1983.0,0.001
1982.0,0.001
1981.0,0.001
1980.0,0.001
1979.0,0.001
1978.0,0.001
1977.0,0.001
1976.0,0.001
1975.0,0.001
1974.0,0.001
1973.0,0.001
1972.0,0.001
1971.0,0.001
1970.0,0.001
1969.0,0.001
1968.0,0.001
1967.0,0.0011
1966.0,0.0012
1965.0,0.0012
1964.0,0.0012
1963.0,0.0011
1962.0,0.001
1961.0,0.001
1960.0,0.001
1959.0,0.001
1958.0,0.0011
1957.0,0.0011
1956.0,0.0012
1955.0,0.0012
1954.0,0.0012
1953.0,0.0012
1952.0,0.0012
1951.0,0.0011
1950.0,0.0011
1949.0,0.001
1948.0,0.001
1947.0,0.001
1946.0,0.0011
1945.0,0.0011
1944.0,0.0011
1943.0,0.0011
1942.0,0.0011
1941.0,0.0012
1940.0,0.0012
1939.0,0.0012
1938.0,0.0012
1937.0,0.0012
1936.0,0.0012
1935.0,0.0012
1934.0,0.0012
1933.0,0.0011
1932.0,0.0011
1931.0,0.001
1930.0,0.001
1929.0,0.0009
1928.0,0.0009
1927.0,0.0009
1926.0,0.0009
1925.0,0.0009
1924.0,0.001
1923.0,0.001
1922.0,0.001
1921.0,0.001
1920.0,0.001
1919.0,0.001
1918.0,0.001
1917.0,0.0009
1916.0,0.0009
1915.0,0.0009
1914.0,0.0009
1913.0,0.0009
1912.0,0.0009
1911.0,0.0009
1910.0,0.0009
1909.0,0.0008
1908.0,0.0008
1907.0,0.0008
1906.0,0.0008
1905.0,0.0008
1904.0,0.0008
1903.0,0.0008
1902.0,0.0008
1901.0,0.0009
1900.0,0.0008
1899.0,0.0008
1898.0,0.0008
1897.0,0.0008
1896.0,0.0008
1895.0,0.0008
1894.0,0.0008
1893.0,0.0008
1892.0,0.0007
1891.0,0.0007
1890.0,0.0007
1889.0,0.0007
1888.0,0.0007
1887.0,0.0007
1886.0,0.0007
1885.0,0.0007
1884.0,0.0007
1883.0,0.0007
1882.0,0.0007
1881.0,0.0007
1880.0,0.0006
1879.0,0.0006
1878.0,0.0005
1877.0,0.0005
1876.0,0.0005
1875.0,0.0005
1874.0,0.0005
1873.0,0.0005
1872.0,0.0005
1871.0,0.0005
1870.0,0.0005
1869.0,0.0005
1868.0,0.0005
1867.0,0.0006
1866.0,0.0006
1865.0,0.0005
1864.0,0.0005
1863.0,0.0004
1862.0,0.0004
1861.0,0.0004
1860.0,0.0004
1859.0,0.0003
1858.0,0.0003
1857.0,0.0003
1856.0,0.0003
1855.0,0.0003
1854.0,0.0003
1853.0,0.0002
1852.0,0.0002
1851.0,0.0003
1850.0,0.0002
1849.0,0.0002
1848.0,0.0002
1847.0,0.0002
1846.0,0.0002
1845.0,0.0002
1844.0,0.0002
1843.0,0.0002
1842.0,0.0002
1841.0,0.0002
1840.0,0.0002
1839.0,0.0002
1838.0,0.0002
1837.0,0.0002
1836.0,0.0001
1835.0,0.0001
1834.0,0.0001
1833.0,0.0002
1832.0,0.0002
1831.0,0.0002
1830.0,0.0001
1829.0,0.0001
1828.0,0.0001
1827.0,0.0
1826.0,0.0
1825.0,0.0
1824.0,0.0
1823.0,0.0
1822.0,-0.0
1821.0,-0.0001
1820.0,-0.0001
1819.0,-0.0001
1818.0,-0.0001
1817.0,-0.0001
1816.0,-0.0001
1815.0,-0.0001
1814.0,-0.0001
1813.0,-0.0001
1812.0,-0.0002
1811.0,-0.0002
1810.0,-0.0002
1809.0,-0.0003
1808.0,-0.0003
1807.0,-0.0003
1806.0,-0.0003
1805.0,-0.0003
1804.0,-0.0003
1803.0,-0.0004
1802.0,-0.0004
1801.0,-0.0004
1800.0,-0.0004
1799.0,-0.0004
1798.0,-0.0004
1797.0,-0.0005
1796.0,-0.0005
1795.0,-0.0005
1794.0,-0.0006
1793.0,-0.0006
1792.0,-0.0006
1791.0,-0.0007
1790.0,-0.0007
1789.0,-0.0007
1788.0,-0.0007
1787.0,-0.0008
1786.0,-0.0008
1785.0,-0.0008
1784.0,-0.0008
1783.0,-0.0008
1782.0,-0.0008
1781.0,-0.0008
1780.0,-0.0009
1779.0,-0.0009
1778.0,-0.0009
1777.0,-0.001
1776.0,-0.001
1775.0,-0.001
1774.0,-0.001
1773.0,-0.001
1772.0,-0.001
1771.0,-0.0011
1770.0,-0.0011
1769.0,-0.0011
1768.0,-0.0011
1767.0,-0.0011
1766.0,-0.001
1765.0,-0.001
1764.0,-0.001
1763.0,-0.001
1762.0,-0.0009
1761.0,-0.0008
1760.0,-0.0007
1759.0,-0.0006
1758.0,-0.0005
1757.0,-0.0005
1756.0,-0.0004
1755.0,-0.0003
1754.0,-0.0002
1753.0,-0.0
1752.0,0.0002
1751.0,0.0004
1750.0,0.0008
1749.0,0.0011
1748.0,0.0014
1747.0,0.0018
1746.0,0.0023
1745.0,0.0028
1744.0,0.0036
1743.0,0.0044
1742.0,0.0053
1741.0,0.0063
1740.0,0.0074
1739.0,0.0086
1738.0,0.0096
1737.0,0.0104
1736.0,0.0113
1735.0,0.0126
1734.0,0.0142
1733.0,0.0154
1732.0,0.0163
1731.0,0.0171
1730.0,0.018
1729.0,0.0189
1728.0,0.0198
1727.0,0.0205
1726.0,0.0212
1725.0,0.0218
1724.0,0.0225
1723.0,0.0231
1722.0,0.0236
1721.0,0.0241
1720.0,0.0245
1719.0,0.025
1718.0,0.0255
1717.0,0.0259
1716.0,0.0262
1715.0,0.0264
1714.0,0.0265
1713.0,0.0265
1712.0,0.0264
1711.0,0.0261
1710.0,0.0257
1709.0,0.0251
1708.0,0.0245
1707.0,0.0236
1706.0,0.0226
1705.0,0.0215
1704.0,0.0208
1703.0,0.0202
1702.0,0.0196
1701.0,0.0186
1700.0,0.0175
1699.0,0.0168
1698.0,0.0164
1697.0,0.0159
1696.0,0.0151
1695.0,0.0145
1694.0,0.0141
1693.0,0.0139
1692.0,0.0137
1691.0,0.0134
1690.0,0.0131
1689.0,0.0128
1688.0,0.0126
1687.0,0.0124
1686.0,0.0122
1685.0,0.0119
1684.0,0.0115
1683.0,0.0113
1682.0,0.0112
1681.0,0.0111
1680.0,0.011
1679.0,0.0108
1678.0,0.0107
1677.0,0.0106
1676.0,0.0104
1675.0,0.0102
1674.0,0.01
1673.0,0.0098
1672.0,0.0097
1671.0,0.0096
1670.0,0.0094
1669.0,0.0092
1668.0,0.0091
1667.0,0.009
1666.0,0.0088
1665.0,0.0087
1664.0,0.0086
1663.0,0.0084
1662.0,0.0082
1661.0,0.0082
1660.0,0.0081
1659.0,0.008
1658.0,0.0079
1657.0,0.0078
1656.0,0.0077
1655.0,0.0075
1654.0,0.0073
1653.0,0.0072
1652.0,0.0072
1651.0,0.0072
1650.0,0.0071
1649.0,0.007
1648.0,0.0069
1647.0,0.0067
1646.0,0.0067
1645.0,0.0067
1644.0,0.0067
1643.0,0.0066
1642.0,0.0065
1641.0,0.0065
1640.0,0.0064
1639.0,0.0063
1638.0,0.0063
1637.0,0.0062
1636.0,0.0062
1635.0,0.0062
1634.0,0.0061
1633.0,0.0061
1632.0,0.0061
1631.0,0.0061
1630.0,0.006
1629.0,0.006
1628.0,0.006
1627.0,0.0059
1626.0,0.0059
1625.0,0.0058
1624.0,0.0057
1623.0,0.0057
1622.0,0.0056
1621.0,0.0056
1620.0,0.0056
1619.0,0.0056
1618.0,0.0055
1617.0,0.0055
1616.0,0.0056
1615.0,0.0057
1614.0,0.0057
1613.0,0.0058
1612.0,0.0058
1611.0,0.0058
1610.0,0.0057
1609.0,0.0056
1608.0,0.0056
1607.0,0.0055
1606.0,0.0054
1605.0,0.0054
1604.0,0.0053
1603.0,0.0052
1602.0,0.0051
1601.0,0.005
1600.0,0.005
1599.0,0.0049
1598.0,0.0048
1597.0,0.0048
1596.0,0.0047
1595.0,0.0046
1594.0,0.0045
1593.0,0.0045
1592.0,0.0044
1591.0,0.0044
1590.0,0.0044
1589.0,0.0044
1588.0,0.0044
1587.0,0.0044
1586.0,0.0044
1585.0,0.0045
1584.0,0.0046
1583.0,0.0047
1582.0,0.0049
1581.0,0.0052
1580.0,0.0054
1579.0,0.0055
1578.0,0.0056
1577.0,0.0057
1576.0,0.0056
1575.0,0.0055
1574.0,0.0054
1573.0,0.0053
1572.0,0.0052
1571.0,0.0051
1570.0,0.005
1569.0,0.0049
1568.0,0.0048
1567.0,0.0047
1566.0,0.0046
1565.0,0.0045
1564.0,0.0044
1563.0,0.0043
1562.0,0.0043
1561.0,0.0043
1560.0,0.0044
1559.0,0.0044
1558.0,0.0042
1557.0,0.004
1556.0,0.004
1555.0,0.0039
1554.0,0.0038
1553.0,0.0038
1552.0,0.0038
1551.0,0.0038
1550.0,0.0038
1549.0,0.0038
1548.0,0.0038
1547.0,0.0038
1546.0,0.0037
1545.0,0.0037
1544.0,0.0036
1543.0,0.0036
1542.0,0.0036
1541.0,0.0036
1540.0,0.0035
1539.0,0.0034
1538.0,0.0034
1537.0,0.0034
1536.0,0.0034
1535.0,0.0034
1534.0,0.0034
1533.0,0.0034
1532.0,0.0033
1531.0,0.0033
1530.0,0.0034
1529.0,0.0034
1528.0,0.0035
1527.0,0.0035
1526.0,0.0035
1525.0,0.0034
1524.0,0.0034
1523.0,0.0033
1522.0,0.0032
1521.0,0.003
1520.0,0.003
1519.0,0.003
1518.0,0.0029
1517.0,0.0029
1516.0,0.0028
1515.0,0.0027
1514.0,0.0027
1513.0,0.0027
1512.0,0.0027
1511.0,0.0028
1510.0,0.003
1509.0,0.0033
1508.0,0.0039
1507.0,0.0048
1506.0,0.0052
1505.0,0.0053
1504.0,0.0052
1503.0,0.005
1502.0,0.0048
1501.0,0.0045
1500.0,0.0042
1499.0,0.0039
1498.0,0.0036
1497.0,0.0034
1496.0,0.0031
1495.0,0.0029
1494.0,0.0027
1493.0,0.0026
1492.0,0.0025
1491.0,0.0024
1490.0,0.0023
1489.0,0.0023
1488.0,0.0023
1487.0,0.0023
1486.0,0.0022
1485.0,0.0022
1484.0,0.0022
1483.0,0.0022
1482.0,0.0022
1481.0,0.0022
1480.0,0.0021
1479.0,0.0021
1478.0,0.0021
1477.0,0.0021
1476.0,0.0021
1475.0,0.0021
1474.0,0.002
1473.0,0.002
1472.0,0.0021
1471.0,0.0022
1470.0,0.0022
1469.0,0.0023
1468.0,0.0024
1467.0,0.0024
1466.0,0.0026
1465.0,0.0027
1464.0,0.0029
1463.0,0.0031
1462.0,0.0033
1461.0,0.0035
1460.0,0.0037
1459.0,0.0039
1458.0,0.0042
1457.0,0.0045
1456.0,0.0048
1455.0,0.0049
1454.0,0.0051
1453.0,0.0052
1452.0,0.0053
1451.0,0.0054
1450.0,0.0054
1449.0,0.0054
1448.0,0.0053
1447.0,0.0053
1446.0,0.0052
1445.0,0.0052
1444.0,0.0052
1443.0,0.0052
1442.0,0.0052
1441.0,0.0052
1440.0,0.0052
1439.0,0.0051
1438.0,0.005
1437.0,0.0048
1436.0,0.0045
1435.0,0.0043
1434.0,0.0041
1433.0,0.0038
1432.0,0.0035
1431.0,0.0032
1430.0,0.0029
1429.0,0.0027
1428.0,0.0024
1427.0,0.0022
1426.0,0.0021
1425.0,0.0019
1424.0,0.0017
1423.0,0.0016
1422.0,0.0016
1421.0,0.0016
1420.0,0.0017
1419.0,0.002
1418.0,0.0024
1417.0,0.003
1416.0,0.0038
1415.0,0.0049
1414.0,0.0061
1413.0,0.0076
1412.0,0.0092
1411.0,0.0108
1410.0,0.0119
1409.0,0.0126
1408.0,0.0128
1407.0,0.0125
1406.0,0.0118
1405.0,0.0109
1404.0,0.01
1403.0,0.0094
1402.0,0.0088
1401.0,0.0084
1400.0,0.0079
1399.0,0.0074
1398.0,0.007
1397.0,0.0067
1396.0,0.0064
1395.0,0.0061
1394.0,0.0057
1393.0,0.0053
1392.0,0.005
1391.0,0.0048
1390.0,0.0046
1389.0,0.0044
1388.0,0.0042
1387.0,0.004
1386.0,0.0038
1385.0,0.0037
1384.0,0.0037
1383.0,0.0038
1382.0,0.0038
1381.0,0.0039
1380.0,0.0041
1379.0,0.0042
1378.0,0.0045
1377.0,0.0047
1376.0,0.005
1375.0,0.0054
1374.0,0.0058
1373.0,0.006
1372.0,0.0062
1371.0,0.0063
1370.0,0.0063
1369.0,0.0063
1368.0,0.0061
1367.0,0.0058
1366.0,0.0055
1365.0,0.005
1364.0,0.0044
1363.0,0.0038
1362.0,0.0032
1361.0,0.0027
1360.0,0.0024
1359.0,0.0021
1358.0,0.0019
1357.0,0.0017
1356.0,0.0016
1355.0,0.0015
1354.0,0.0014
1353.0,0.0014
1352.0,0.0014
1351.0,0.0014
1350.0,0.0015
1349.0,0.0016
1348.0,0.0017
1347.0,0.0019
1346.0,0.0021
1345.0,0.0023
1344.0,0.0026
1343.0,0.0028
1342.0,0.003
1341.0,0.0032
1340.0,0.0033
1339.0,0.0033
1338.0,0.0031
1337.0,0.0029
1336.0,0.0026
1335.0,0.0022
1334.0,0.0019
1333.0,0.0017
1332.0,0.0015
1331.0,0.0015
1330.0,0.0014
1329.0,0.0015
1328.0,0.0016
1327.0,0.0017
1326.0,0.0019
1325.0,0.0021
1324.0,0.0024
1323.0,0.0027
1322.0,0.003
1321.0,0.0032
1320.0,0.0035
1319.0,0.0038
1318.0,0.0041
1317.0,0.0044
1316.0,0.0047
1315.0,0.005
1314.0,0.0053
1313.0,0.0056
1312.0,0.006
1311.0,0.0064
1310.0,0.0068
1309.0,0.0073
1308.0,0.0078
1307.0,0.0083
1306.0,0.0088
1305.0,0.0093
1304.0,0.0098
1303.0,0.0105
1302.0,0.0112
1301.0,0.012
1300.0,0.0129
1299.0,0.014
1298.0,0.0151
1297.0,0.0162
1296.0,0.0174
1295.0,0.0186
1294.0,0.0196
1293.0,0.0207
1292.0,0.0217
1291.0,0.0226
1290.0,0.0234
1289.0,0.0241
1288.0,0.0248
1287.0,0.0254
1286.0,0.0259
1285.0,0.0264
1284.0,0.0268
1283.0,0.0272
1282.0,0.0275
1281.0,0.0278
1280.0,0.028
1279.0,0.0282
1278.0,0.0284
1277.0,0.0287
1276.0,0.0291
1275.0,0.0296
1274.0,0.0302
1273.0,0.031
1272.0,0.0319
1271.0,0.0329
1270.0,0.034
1269.0,0.0351
1268.0,0.0362
1267.0,0.0372
1266.0,0.0382
1265.0,0.039
1264.0,0.0398
1263.0,0.0405
1262.0,0.041
1261.0,0.0415
1260.0,0.0418
1259.0,0.0421
1258.0,0.0421
1257.0,0.0421
1256.0,0.0422
1255.0,0.0422
1254.0,0.0423
1253.0,0.0426
1252.0,0.0429
1251.0,0.0434
1250.0,0.0438
1249.0,0.0444
1248.0,0.045
1247.0,0.0456
1246.0,0.0463
1245.0,0.047
1244.0,0.0478
1243.0,0.0485
1242.0,0.0493
1241.0,0.05
1240.0,0.0506
1239.0,0.0511
1238.0,0.0513
1237.0,0.0514
1236.0,0.0513
1235.0,0.0509
1234.0,0.0503
1233.0,0.0495
1232.0,0.0487
1231.0,0.0477
1230.0,0.0467
1229.0,0.0456
1228.0,0.0446
1227.0,0.0435
1226.0,0.0424
1225.0,0.0414
1224.0,0.0403
1223.0,0.0393
1222.0,0.0382
1221.0,0.0373
1220.0,0.0363
1219.0,0.0354
1218.0,0.0345
1217.0,0.0336
1216.0,0.0328
1215.0,0.0319
1214.0,0.0311
1213.0,0.0304
1212.0,0.0297
1211.0,0.0291
1210.0,0.0284
1209.0,0.0278
1208.0,0.0272
1207.0,0.0266
1206.0,0.0261
1205.0,0.0256
1204.0,0.0251
1203.0,0.0246
1202.0,0.0241
1201.0,0.0236
1200.0,0.0231
1199.0,0.0227
1198.0,0.0223
1197.0,0.0219
1196.0,0.0215
1195.0,0.0211
1194.0,0.0208
1193.0,0.0204
1192.0,0.0201
1191.0,0.0197
1190.0,0.0193
1189.0,0.0189
1188.0,0.0186
1187.0,0.0182
1186.0,0.0179
1185.0,0.0177
1184.0,0.0174
1183.0,0.0173
1182.0,0.0172
1181.0,0.0171
1180.0,0.0171
1179.0,0.0172
1178.0,0.0173
1177.0,0.0174
1176.0,0.0175
1175.0,0.0176
1174.0,0.0176
1173.0,0.0175
1172.0,0.0173
1171.0,0.0171
1170.0,0.0167
1169.0,0.0162
1168.0,0.0157
1167.0,0.0151
1166.0,0.0146
1165.0,0.0141
1164.0,0.0137
1163.0,0.0132
1162.0,0.0127
1161.0,0.0124
1160.0,0.0121
1159.0,0.0118
1158.0,0.0116
1157.0,0.0114
1156.0,0.0113
1155.0,0.0111
1154.0,0.0111
1153.0,0.0112
1152.0,0.0115
1151.0,0.0118
1150.0,0.0122
1149.0,0.0128
1148.0,0.0135
1147.0,0.0142
1146.0,0.015
1145.0,0.0159
1144.0,0.0168
1143.0,0.0178
1142.0,0.0187
1141.0,0.0195
1140.0,0.0204
1139.0,0.0212
1138.0,0.0219
1137.0,0.0226
1136.0,0.0232
1135.0,0.0238
1134.0,0.0244
1133.0,0.025
1132.0,0.0256
1131.0,0.0262
1130.0,0.0269
1129.0,0.0277
1128.0,0.0286
1127.0,0.0297
1126.0,0.0308
1125.0,0.0321
1124.0,0.0334
1123.0,0.0347
1122.0,0.0359
1121.0,0.0371
1120.0,0.0381
1119.0,0.0388
1118.0,0.0392
1117.0,0.0394
1116.0,0.0393
1115.0,0.0389
1114.0,0.0384
1113.0,0.0379
1112.0,0.0375
1111.0,0.0373
1110.0,0.0375
1109.0,0.0381
1108.0,0.0391
1107.0,0.0405
1106.0,0.0421
1105.0,0.0438
1104.0,0.0456
1103.0,0.0475
1102.0,0.0493
1101.0,0.0511
1100.0,0.0529
1099.0,0.0546
1098.0,0.0561
1097.0,0.0575
1096.0,0.0587
1095.0,0.0597
1094.0,0.0605
1093.0,0.0611
1092.0,0.0616
1091.0,0.0618
1090.0,0.0618
1089.0,0.0616
1088.0,0.0614
1087.0,0.061
1086.0,0.0605
1085.0,0.06
1084.0,0.0594
1083.0,0.0588
1082.0,0.058
1081.0,0.057
1080.0,0.0559
1079.0,0.0548
1078.0,0.0536
1077.0,0.0524
1076.0,0.0511
1075.0,0.0498
1074.0,0.0484
1073.0,0.0471
1072.0,0.0458
1071.0,0.0445
1070.0,0.0433
1069.0,0.0421
1068.0,0.041
1067.0,0.04
1066.0,0.0389
1065.0,0.0379
1064.0,0.037
1063.0,0.0362
1062.0,0.0353
1061.0,0.0345
1060.0,0.0337
1059.0,0.033
1058.0,0.0324
1057.0,0.0319
1056.0,0.0315
1055.0,0.0313
1054.0,0.0312
1053.0,0.0312
1052.0,0.0314
1051.0,0.0316
1050.0,0.0318
1049.0,0.0321
1048.0,0.0325
1047.0,0.0331
1046.0,0.0336
1045.0,0.034
1044.0,0.0344
1043.0,0.0347
1042.0,0.035
1041.0,0.0352
1040.0,0.0352
1039.0,0.0352
1038.0,0.035
1037.0,0.0348
1036.0,0.0346
1035.0,0.0343
1034.0,0.0341
1033.0,0.0337
1032.0,0.0334
1031.0,0.033
1030.0,0.0325
1029.0,0.0321
1028.0,0.0316
1027.0,0.0312
1026.0,0.0308
1025.0,0.0306
1024.0,0.0306
1023.0,0.0312
1022.0,0.0326
1021.0,0.0348
1020.0,0.0379
1019.0,0.0414
1018.0,0.0449
1017.0,0.0477
1016.0,0.0494
1015.0,0.0497
1014.0,0.0488
1013.0,0.0471
1012.0,0.0451
1011.0,0.0431
1010.0,0.0413
1009.0,0.0398
1008.0,0.0384
1007.0,0.0373
1006.0,0.0362
1005.0,0.0354
1004.0,0.0346
1003.0,0.034
1002.0,0.0335
1001.0,0.033
1000.0,0.0326
999.0,0.0322
998.0,0.0318
997.0,0.0314
996.0,0.031
995.0,0.0307
994.0,0.0304
993.0,0.0301
992.0,0.0299
991.0,0.0296
990.0,0.0294
989.0,0.0291
988.0,0.0289
987.0,0.0288
986.0,0.0287
985.0,0.0286
984.0,0.0285
983.0,0.0285
982.0,0.0284
981.0,0.0283
980.0,0.0282
979.0,0.0282
978.0,0.0282
977.0,0.0281
976.0,0.0281
975.0,0.028
974.0,0.0279
973.0,0.0279
972.0,0.0279
971.0,0.0279
970.0,0.0279
969.0,0.0279
968.0,0.0277
967.0,0.0276
966.0,0.0273
965.0,0.0271
964.0,0.0269
963.0,0.0267
962.0,0.0265
961.0,0.0263
960.0,0.0262
959.0,0.026
958.0,0.0258
957.0,0.0256
956.0,0.0254
955.0,0.0252
954.0,0.0251
953.0,0.0249
952.0,0.0248
951.0,0.0246
950.0,0.0245
949.0,0.0244
948.0,0.0244
947.0,0.0244
946.0,0.0244
945.0,0.0243
944.0,0.0242
943.0,0.0241
942.0,0.0239
941.0,0.0238
940.0,0.0236
939.0,0.0235
938.0,0.0233
937.0,0.0232
936.0,0.0232
935.0,0.0232
934.0,0.0231
933.0,0.0231
932.0,0.023
931.0,0.0229
930.0,0.0229
929.0,0.0228
928.0,0.0227
927.0,0.0226
926.0,0.0224
925.0,0.0223
924.0,0.0222
923.0,0.0221
922.0,0.0221
921.0,0.022
920.0,0.022
919.0,0.0218
918.0,0.0216
917.0,0.0214
916.0,0.0212
915.0,0.0211
914.0,0.021
913.0,0.0209
912.0,0.021
911.0,0.0211
910.0,0.0213
909.0,0.0215
908.0,0.0219
907.0,0.0222
906.0,0.0226
905.0,0.0231
904.0,0.0236
903.0,0.0242
902.0,0.0247
901.0,0.0252
900.0,0.0257
899.0,0.026
898.0,0.0264
897.0,0.0266
896.0,0.0268
895.0,0.0269
894.0,0.027
893.0,0.027
892.0,0.0271
891.0,0.0272
890.0,0.0272
889.0,0.0272
888.0,0.0273
887.0,0.0275
886.0,0.0278
885.0,0.0282
884.0,0.0286
883.0,0.029
882.0,0.0295
881.0,0.0301
880.0,0.0309
879.0,0.032
878.0,0.0332
877.0,0.0346
876.0,0.036
875.0,0.0373
874.0,0.0385
873.0,0.0393
872.0,0.0397
871.0,0.0397
870.0,0.0392
869.0,0.0384
868.0,0.0375
867.0,0.0364
866.0,0.0353
865.0,0.0342
864.0,0.0332
863.0,0.0322
862.0,0.0314
861.0,0.0308
860.0,0.0305
859.0,0.0303
858.0,0.0301
857.0,0.03
856.0,0.0298
855.0,0.0297
854.0,0.0296
853.0,0.0295
852.0,0.0294
851.0,0.0293
850.0,0.0292
849.0,0.0292
848.0,0.0293
847.0,0.0293
846.0,0.0293
845.0,0.0294
844.0,0.0294
843.0,0.0295
842.0,0.0295
841.0,0.0296
840.0,0.0296
839.0,0.0294
838.0,0.0292
837.0,0.0291
836.0,0.0292
835.0,0.0293
834.0,0.0292
833.0,0.029
832.0,0.0288
831.0,0.0286
830.0,0.0283
829.0,0.0281
828.0,0.0279
827.0,0.0278
826.0,0.0275
825.0,0.0273
824.0,0.027
823.0,0.0268
822.0,0.0267
821.0,0.0266
820.0,0.0265
819.0,0.0265
818.0,0.0265
817.0,0.0264
816.0,0.0264
815.0,0.0264
814.0,0.0264
813.0,0.0265
812.0,0.0266
811.0,0.0267
810.0,0.0266
809.0,0.0265
808.0,0.0264
807.0,0.0263
806.0,0.0262
805.0,0.026
804.0,0.0259
803.0,0.0258
802.0,0.0257
801.0,0.0256
800.0,0.0254
799.0,0.0254
798.0,0.0255
797.0,0.0262
796.0,0.0271
795.0,0.028
794.0,0.0287
793.0,0.0291
792.0,0.0292
791.0,0.029
790.0,0.0285
789.0,0.0279
788.0,0.0272
787.0,0.0266
786.0,0.026
785.0,0.0255
784.0,0.025
783.0,0.0245
782.0,0.0241
781.0,0.0237
780.0,0.0234
779.0,0.023
778.0,0.0226
777.0,0.0222
776.0,0.0218
775.0,0.0215
774.0,0.0213
773.0,0.0211
772.0,0.0208
771.0,0.0205
770.0,0.0201
769.0,0.0196
768.0,0.0192
767.0,0.0187
766.0,0.0184
765.0,0.018
764.0,0.0176
763.0,0.0173
762.0,0.0169
761.0,0.0166
760.0,0.0163
759.0,0.0159
758.0,0.0154
757.0,0.0149
756.0,0.0143
755.0,0.0138
754.0,0.0132
753.0,0.0126
752.0,0.012
751.0,0.0113
750.0,0.0107
749.0,0.0102
748.0,0.0099
747.0,0.0097
746.0,0.0097
745.0,0.01
744.0,0.0109
743.0,0.0123
742.0,0.0144
741.0,0.0173
740.0,0.0211
739.0,0.0258
738.0,0.0314
737.0,0.0377
736.0,0.0444
735.0,0.0512
734.0,0.0579
733.0,0.0647
732.0,0.0717
731.0,0.079
730.0,0.0865
729.0,0.0941
728.0,0.1017
727.0,0.1089
726.0,0.1151
725.0,0.1198
724.0,0.1223
723.0,0.1218
722.0,0.1181
721.0,0.1117
720.0,0.1039
719.0,0.0964
718.0,0.0899
717.0,0.0844
716.0,0.0796
715.0,0.0754
714.0,0.0718
713.0,0.0688
712.0,0.0665
711.0,0.0647
710.0,0.0632
709.0,0.0618
708.0,0.0606
707.0,0.0593
706.0,0.0581
705.0,0.0569
704.0,0.0559
703.0,0.0552
702.0,0.0546
701.0,0.054
700.0,0.0533
699.0,0.0521
698.0,0.0507
697.0,0.0495
696.0,0.049
695.0,0.049
694.0,0.0488
693.0,0.0483
692.0,0.0474
691.0,0.0465
690.0,0.0456
689.0,0.0447
688.0,0.0435
687.0,0.0423
686.0,0.0414
685.0,0.0411
684.0,0.0412
683.0,0.041
682.0,0.0405
681.0,0.0399
680.0,0.0396
679.0,0.0396
678.0,0.0396
677.0,0.0394
676.0,0.0391
675.0,0.039
674.0,0.0394
673.0,0.0398
672.0,0.0397
671.0,0.0391
670.0,0.0384
669.0,0.0382
668.0,0.0387
667.0,0.0389
666.0,0.0388
665.0,0.0386
664.0,0.0386
663.0,0.0387
662.0,0.0383
661.0,0.0372
660.0,0.0359
659.0,0.0348
658.0,0.0344
657.0,0.0347
656.0,0.0356
655.0,0.0362
654.0,0.0362
653.0,0.0357
652.0,0.0354
651.0,0.0355
650.0,0.0357
649.0,0.0358
648.0,0.0357
647.0,0.0352
646.0,0.0345
645.0,0.0337
644.0,0.0331
643.0,0.0325
642.0,0.032
641.0,0.0318
640.0,0.032
639.0,0.0324
638.0,0.0328
637.0,0.0331
636.0,0.0336
635.0,0.0344
634.0,0.0353
633.0,0.036
632.0,0.0362
631.0,0.0358
630.0,0.0353
629.0,0.0347
628.0,0.0344
627.0,0.0343
626.0,0.0345
625.0,0.0348
624.0,0.0352
623.0,0.0353
622.0,0.0352
621.0,0.0349
620.0,0.0345
619.0,0.0342
618.0,0.0341
617.0,0.0342
616.0,0.0345
615.0,0.0346
614.0,0.0345
613.0,0.0343
612.0,0.0341
611.0,0.034
610.0,0.034
609.0,0.0342
608.0,0.0345
607.0,0.0347
606.0,0.0348
605.0,0.0351
604.0,0.0354
603.0,0.0351
602.0,0.0341
601.0,0.0332
600.0,0.0329
