cm-1,A
4000.0,0.0087
3999.0,0.0087
3998.0,0.0088
3997.0,0.0088
3996.0,0.0089
3995.0,0.0089
3994.0,0.0089
3993.0,0.0089
3992.0,0.0088
3991.0,0.0087
3990.0,0.0087
3989.0,0.0087
3988.0,0.0087
3987.0,0.0087
3986.0,0.0086
3985.0,0.0086
3984.0,0.0085
3983.0,0.0085
3982.0,0.0085
3981.0,0.0085
3980.0,0.0085
3979.0,0.0086
3978.0,0.0086
3977.0,0.0087
3976.0,0.0087
3975.0,0.0087
3974.0,0.0086
3973.0,0.0086
3972.0,0.0086
3971.0,0.0087
3970.0,0.0088
3969.0,0.0089
3968.0,0.0089
3967.0,0.009
3966.0,0.0089
3965.0,0.0088
3964.0,0.0087
3963.0,0.0085
3962.0,0.0085
3961.0,0.0085
3960.0,0.0087
3959.0,0.0087
3958.0,0.0087
3957.0,0.0087
3956.0,0.0086
3955.0,0.0086
3954.0,0.0086
3953.0,0.0086
3952.0,0.0087
3951.0,0.0087
3950.0,0.0088
3949.0,0.0088
3948.0,0.0087
3947.0,0.0086
3946.0,0.0086
3945.0,0.0086
3944.0,0.0086
3943.0,0.0087
3942.0,0.0087
3941.0,0.0087
3940.0,0.0087
3939.0,0.0086
3938.0,0.0086
3937.0,0.0086
3936.0,0.0086
3935.0,0.0087
3934.0,0.0088
3933.0,0.0088
3932.0,0.0088
3931.0,0.0088
3930.0,0.0087
3929.0,0.0087
3928.0,0.0088
3927.0,0.0088
3926.0,0.0088
3925.0,0.0088
3924.0,0.0087
3923.0,0.0087
3922.0,0.0087
3921.0,0.0087
3920.0,0.0088
3919.0,0.0088
3918.0,0.0088
3917.0,0.0089
3916.0,0.0089
3915.0,0.009
3914.0,0.0091
3913.0,0.0092
3912.0,0.0092
3911.0,0.0091
3910.0,0.009
3909.0,0.0089
3908.0,0.0088
3907.0,0.0087
3906.0,0.0086
3905.0,0.0085
3904.0,0.0084
3903.0,0.0083
3902.0,0.0083
3901.0,0.0083
3900.0,0.0084
3899.0,0.0084
3898.0,0.0085
3897.0,0.0085
3896.0,0.0085
3895.0,0.0085
3894.0,0.0084
3893.0,0.0085
3892.0,0.0086
3891.0,0.0086
3890.0,0.0085
3889.0,0.0085
3888.0,0.0085
3887.0,0.0086
3886.0,0.0086
3885.0,0.0086
3884.0,0.0085
3883.0,0.0086
3882.0,0.0087
3881.0,0.0087
3880.0,0.0087
3879.0,0.0087
3878.0,0.0087
3877.0,0.0088
3876.0,0.0089
3875.0,0.0089
3874.0,0.0088
3873.0,0.0087
3872.0,0.0087
3871.0,0.0088
3870.0,0.0088
3869.0,0.0087
3868.0,0.0087
3867.0,0.0087
3866.0,0.0088
3865.0,0.0089
3864.0,0.0089
3863.0,0.009
3862.0,0.009
3861.0,0.009
3860.0,0.009
3859.0,0.009
3858.0,0.0088
3857.0,0.0087
3856.0,0.0085
3855.0,0.0086
3854.0,0.0087
3853.0,0.0084
3852.0,0.0082
3851.0,0.0084
3850.0,0.0088
3849.0,0.009
3848.0,0.009
3847.0,0.0089
3846.0,0.0088
3845.0,0.0087
3844.0,0.0086
3843.0,0.0086
3842.0,0.0086
3841.0,0.0086
3840.0,0.0085
3839.0,0.0085
3838.0,0.0084
3837.0,0.0084
3836.0,0.0086
3835.0,0.0088
3834.0,0.0091
3833.0,0.0092
3832.0,0.0093
3831.0,0.0092
3830.0,0.0091
3829.0,0.0091
3828.0,0.0091
3827.0,0.0091
3826.0,0.0091
3825.0,0.0091
3824.0,0.0091
3823.0,0.0091
3822.0,0.0091
3821.0,0.0089
3820.0,0.0087
3819.0,0.0087
3818.0,0.0089
3817.0,0.0091
3816.0,0.0091
3815.0,0.0091
3814.0,0.0092
3813.0,0.0094
3812.0,0.0094
3811.0,0.0094
3810.0,0.0093
3809.0,0.0092
3808.0,0.0091
3807.0,0.0089
3806.0,0.0087
3805.0,0.0086
3804.0,0.0087
3803.0,0.0088
3802.0,0.009
3801.0,0.0089
3800.0,0.0088
3799.0,0.0089
3798.0,0.0091
3797.0,0.0092
3796.0,0.0093
3795.0,0.0093
3794.0,0.0094
3793.0,0.0095
3792.0,0.0095
3791.0,0.0094
3790.0,0.0094
3789.0,0.0093
3788.0,0.0093
3787.0,0.0093
3786.0,0.0093
3785.0,0.0094
3784.0,0.0094
3783.0,0.0094
3782.0,0.0094
3781.0,0.0094
3780.0,0.0095
3779.0,0.0095
3778.0,0.0095
3777.0,0.0095
3776.0,0.0095
3775.0,0.0095
3774.0,0.0094
3773.0,0.0093
3772.0,0.0093
3771.0,0.0094
3770.0,0.0095
3769.0,0.0094
3768.0,0.0094
3767.0,0.0093
3766.0,0.0093
3765.0,0.0093
3764.0,0.0093
3763.0,0.0094
3762.0,0.0094
3761.0,0.0094
3760.0,0.0095
3759.0,0.0094
3758.0,0.0093
3757.0,0.0092
3756.0,0.0091
3755.0,0.0089
3754.0,0.0088
3753.0,0.0086
3752.0,0.0086
3751.0,0.0087
3750.0,0.0086
3749.0,0.0086
3748.0,0.0087
3747.0,0.0089
3746.0,0.0091
3745.0,0.0092
3744.0,0.0091
3743.0,0.009
3742.0,0.0091
3741.0,0.0092
3740.0,0.009
3739.0,0.0088
3738.0,0.0087
3737.0,0.0087
3736.0,0.0088
3735.0,0.0088
3734.0,0.0087
3733.0,0.0087
3732.0,0.0087
3731.0,0.0088
3730.0,0.0089
3729.0,0.009
3728.0,0.0091
3727.0,0.009
3726.0,0.009
3725.0,0.0089
3724.0,0.0088
3723.0,0.0089
3722.0,0.0089
3721.0,0.009
3720.0,0.0091
3719.0,0.0092
3718.0,0.0092
3717.0,0.0092
3716.0,0.0091
3715.0,0.009
3714.0,0.009
3713.0,0.009
3712.0,0.0092
3711.0,0.0093
3710.0,0.0092
3709.0,0.0092
3708.0,0.0092
3707.0,0.0092
3706.0,0.0092
3705.0,0.0091
3704.0,0.0091
3703.0,0.0091
3702.0,0.0091
3701.0,0.0092
3700.0,0.0092
3699.0,0.0093
3698.0,0.0094
3697.0,0.0093
3696.0,0.0093
3695.0,0.0092
3694.0,0.0092
3693.0,0.0091
3692.0,0.0091
3691.0,0.0091
3690.0,0.0092
3689.0,0.0093
3688.0,0.0093
3687.0,0.0093
3686.0,0.0094
3685.0,0.0095
3684.0,0.0095
3683.0,0.0095
3682.0,0.0095
3681.0,0.0095
3680.0,0.0094
3679.0,0.0094
3678.0,0.0095
3677.0,0.0098
3676.0,0.01
3675.0,0.0098
3674.0,0.0095
3673.0,0.0095
3672.0,0.0095
3671.0,0.0095
3670.0,0.0095
3669.0,0.0095
3668.0,0.0095
3667.0,0.0096
3666.0,0.0097
3665.0,0.0098
3664.0,0.0098
3663.0,0.0098
3662.0,0.0098
3661.0,0.0098
3660.0,0.0098
3659.0,0.0097
3658.0,0.0097
3657.0,0.0097
3656.0,0.0096
3655.0,0.0094
3654.0,0.0092
3653.0,0.0091
3652.0,0.0089
3651.0,0.0088
3650.0,0.009
3649.0,0.0091
3648.0,0.0092
3647.0,0.0093
3646.0,0.0095
3645.0,0.0097
3644.0,0.0098
3643.0,0.0099
3642.0,0.0099
3641.0,0.0098
3640.0,0.0098
3639.0,0.0097
3638.0,0.0097
3637.0,0.0097
3636.0,0.0097
3635.0,0.0097
3634.0,0.0096
3633.0,0.0093
3632.0,0.0091
3631.0,0.009
3630.0,0.0091
3629.0,0.0093
3628.0,0.0093
3627.0,0.0093
3626.0,0.0094
3625.0,0.0095
3624.0,0.0095
3623.0,0.0095
3622.0,0.0095
3621.0,0.0095
3620.0,0.0095
3619.0,0.0094
3618.0,0.0094
3617.0,0.0094
3616.0,0.0095
3615.0,0.0096
3614.0,0.0097
3613.0,0.0097
3612.0,0.0097
3611.0,0.0097
3610.0,0.0098
3609.0,0.0099
3608.0,0.01
3607.0,0.01
3606.0,0.0099
3605.0,0.0099
3604.0,0.0098
3603.0,0.0097
3602.0,0.0096
3601.0,0.0096
3600.0,0.0097
3599.0,0.0098
3598.0,0.0098
3597.0,0.0098
3596.0,0.0097
3595.0,0.0096
3594.0,0.0097
3593.0,0.0098
3592.0,0.0099
3591.0,0.0099
3590.0,0.0098
3589.0,0.0098
3588.0,0.0098
3587.0,0.0098
3586.0,0.0098
3585.0,0.0099
3584.0,0.0101
3583.0,0.0103
3582.0,0.0104
3581.0,0.0105
3580.0,0.0105
3579.0,0.0105
3578.0,0.0105
3577.0,0.0104
3576.0,0.0104
3575.0,0.0105
3574.0,0.0105
3573.0,0.0106
3572.0,0.0105
3571.0,0.0103
3570.0,0.0101
3569.0,0.01
3568.0,0.0099
3567.0,0.0099
3566.0,0.01
3565.0,0.0101
3564.0,0.0103
3563.0,0.0105
3562.0,0.0105
3561.0,0.0105
3560.0,0.0105
3559.0,0.0105
3558.0,0.0106
3557.0,0.0107
3556.0,0.0108
3555.0,0.0108
3554.0,0.0108
3553.0,0.0108
3552.0,0.0108
3551.0,0.0108
3550.0,0.0107
3549.0,0.0107
3548.0,0.0106
3547.0,0.0105
3546.0,0.0104
3545.0,0.0104
3544.0,0.0105
3543.0,0.0106
3542.0,0.0107
3541.0,0.0108
3540.0,0.0108
3539.0,0.0108
3538.0,0.0108
3537.0,0.0108
3536.0,0.0108
3535.0,0.0108
3534.0,0.0109
3533.0,0.0109
3532.0,0.0109
3531.0,0.0109
3530.0,0.0108
3529.0,0.0107
3528.0,0.0106
3527.0,0.0106
3526.0,0.0106
3525.0,0.0107
3524.0,0.0108
3523.0,0.0109
3522.0,0.0109
3521.0,0.0109
3520.0,0.0109
3519.0,0.0109
3518.0,0.0109
3517.0,0.0109
3516.0,0.0109
3515.0,0.0109
3514.0,0.0109
3513.0,0.0108
3512.0,0.0108
3511.0,0.0108
3510.0,0.0109
3509.0,0.0109
3508.0,0.0109
3507.0,0.0109
3506.0,0.0109
3505.0,0.011
3504.0,0.0111
3503.0,0.0112
3502.0,0.0112
3501.0,0.0112
3500.0,0.0112
3499.0,0.0113
3498.0,0.0114
3497.0,0.0114
3496.0,0.0114
3495.0,0.0113
3494.0,0.0113
3493.0,0.0113
3492.0,0.0112
3491.0,0.0111
3490.0,0.0111
3489.0,0.0111
3488.0,0.011
3487.0,0.011
3486.0,0.0111
3485.0,0.0112
3484.0,0.0113
3483.0,0.0114
3482.0,0.0114
3481.0,0.0114
3480.0,0.0113
3479.0,0.0113
3478.0,0.0113
3477.0,0.0113
3476.0,0.0113
3475.0,0.0113
3474.0,0.0112
3473.0,0.0111
3472.0,0.0112
3471.0,0.0112
3470.0,0.0112
3469.0,0.0112
3468.0,0.0112
3467.0,0.0112
3466.0,0.0112
3465.0,0.0112
3464.0,0.0112
3463.0,0.0112
3462.0,0.0112
3461.0,0.0113
3460.0,0.0114
3459.0,0.0114
3458.0,0.0114
3457.0,0.0113
3456.0,0.0112
3455.0,0.0111
3454.0,0.0111
3453.0,0.0112
3452.0,0.0112
3451.0,0.0113
3450.0,0.0113
3449.0,0.0113
3448.0,0.0112
3447.0,0.0111
3446.0,0.0111
3445.0,0.0111
3444.0,0.0112
3443.0,0.0113
3442.0,0.0113
3441.0,0.0113
3440.0,0.0112
3439.0,0.0112
3438.0,0.0112
3437.0,0.0112
3436.0,0.0112
3435.0,0.0113
3434.0,0.0113
3433.0,0.0114
3432.0,0.0114
3431.0,0.0115
3430.0,0.0115
3429.0,0.0115
3428.0,0.0116
3427.0,0.0116
3426.0,0.0115
3425.0,0.0114
3424.0,0.0113
3423.0,0.0113
3422.0,0.0113
3421.0,0.0113
3420.0,0.0115
3419.0,0.0116
3418.0,0.0116
3417.0,0.0116
3416.0,0.0116
3415.0,0.0115
3414.0,0.0114
3413.0,0.0114
3412.0,0.0114
3411.0,0.0114
3410.0,0.0113
3409.0,0.0113
3408.0,0.0112
3407.0,0.0112
3406.0,0.0112
3405.0,0.0113
3404.0,0.0113
3403.0,0.0113
3402.0,0.0113
3401.0,0.0114
3400.0,0.0114
3399.0,0.0114
3398.0,0.0113
3397.0,0.0113
3396.0,0.0113
3395.0,0.0113
3394.0,0.0114
3393.0,0.0114
3392.0,0.0114
3391.0,0.0114
3390.0,0.0114
3389.0,0.0114
3388.0,0.0114
3387.0,0.0115
3386.0,0.0115
3385.0,0.0115
3384.0,0.0114
3383.0,0.0114
3382.0,0.0113
3381.0,0.0113
3380.0,0.0113
3379.0,0.0113
3378.0,0.0113
3377.0,0.0114
3376.0,0.0113
3375.0,0.0113
3374.0,0.0113
3373.0,0.0113
3372.0,0.0113
3371.0,0.0112
3370.0,0.0112
3369.0,0.0112
3368.0,0.0112
3367.0,0.0112
3366.0,0.0112
3365.0,0.0112
3364.0,0.0112
3363.0,0.0111
3362.0,0.0111
3361.0,0.0112
3360.0,0.0112
3359.0,0.0112
3358.0,0.0112
3357.0,0.0111
3356.0,0.0111
3355.0,0.0112
3354.0,0.0113
3353.0,0.0113
3352.0,0.0113
3351.0,0.0112
3350.0,0.0111
3349.0,0.011
3348.0,0.011
3347.0,0.0111
3346.0,0.0112
3345.0,0.0112
3344.0,0.0112
3343.0,0.0111
3342.0,0.011
3341.0,0.011
3340.0,0.011
3339.0,0.011
3338.0,0.011
3337.0,0.011
3336.0,0.0111
3335.0,0.0111
3334.0,0.0111
3333.0,0.0111
3332.0,0.011
3331.0,0.011
3330.0,0.011
3329.0,0.011
3328.0,0.0109
3327.0,0.0109
3326.0,0.0108
3325.0,0.0108
3324.0,0.0109
3323.0,0.011
3322.0,0.011
3321.0,0.011
3320.0,0.011
3319.0,0.0109
3318.0,0.0109
3317.0,0.0108
3316.0,0.0109
3315.0,0.0109
3314.0,0.0109
3313.0,0.0109
3312.0,0.0108
3311.0,0.0107
3310.0,0.0106
3309.0,0.0107
3308.0,0.0107
3307.0,0.0108
3306.0,0.0107
3305.0,0.0106
3304.0,0.0106
3303.0,0.0105
3302.0,0.0105
3301.0,0.0105
3300.0,0.0106
3299.0,0.0106
3298.0,0.0107
3297.0,0.0108
3296.0,0.0108
3295.0,0.0108
3294.0,0.0108
3293.0,0.0108
3292.0,0.0108
3291.0,0.0108
3290.0,0.0107
3289.0,0.0107
3288.0,0.0107
3287.0,0.0107
3286.0,0.0108
3285.0,0.0108
3284.0,0.0107
3283.0,0.0107
3282.0,0.0107
3281.0,0.0106
3280.0,0.0106
3279.0,0.0106
3278.0,0.0105
3277.0,0.0105
3276.0,0.0105
3275.0,0.0104
3274.0,0.0104
3273.0,0.0104
3272.0,0.0104
3271.0,0.0104
3270.0,0.0104
3269.0,0.0105
3268.0,0.0105
3267.0,0.0105
3266.0,0.0104
3265.0,0.0103
3264.0,0.0103
3263.0,0.0103
3262.0,0.0103
3261.0,0.0104
3260.0,0.0104
3259.0,0.0104
3258.0,0.0103
3257.0,0.0102
3256.0,0.0101
3255.0,0.01
3254.0,0.01
3253.0,0.0101
3252.0,0.0101
3251.0,0.0101
3250.0,0.0101
3249.0,0.0101
3248.0,0.0101
3247.0,0.01
3246.0,0.01
3245.0,0.01
3244.0,0.01
3243.0,0.0099
3242.0,0.0099
3241.0,0.0099
3240.0,0.0099
3239.0,0.0099
3238.0,0.0098
3237.0,0.0098
3236.0,0.0099
3235.0,0.01
3234.0,0.01
3233.0,0.01
3232.0,0.01
3231.0,0.01
3230.0,0.01
3229.0,0.0099
3228.0,0.0099
3227.0,0.0099
3226.0,0.0099
3225.0,0.01
3224.0,0.01
3223.0,0.01
3222.0,0.01
3221.0,0.0101
3220.0,0.0102
3219.0,0.0102
3218.0,0.0101
3217.0,0.01
3216.0,0.0099
3215.0,0.0098
3214.0,0.0098
3213.0,0.0099
3212.0,0.01
3211.0,0.0101
3210.0,0.0101
3209.0,0.0101
3208.0,0.0101
3207.0,0.01
3206.0,0.01
3205.0,0.01
3204.0,0.0101
3203.0,0.0101
3202.0,0.0101
3201.0,0.0101
3200.0,0.0101
3199.0,0.0101
3198.0,0.0102
3197.0,0.0101
3196.0,0.01
3195.0,0.0099
3194.0,0.0098
3193.0,0.0098
3192.0,0.0098
3191.0,0.0099
3190.0,0.01
3189.0,0.0101
3188.0,0.0101
3187.0,0.0101
3186.0,0.01
3185.0,0.0099
3184.0,0.0099
3183.0,0.0099
3182.0,0.0099
3181.0,0.0098
3180.0,0.0097
3179.0,0.0096
3178.0,0.0095
3177.0,0.0094
3176.0,0.0094
3175.0,0.0094
3174.0,0.0094
3173.0,0.0095
3172.0,0.0095
3171.0,0.0095
3170.0,0.0095
3169.0,0.0095
3168.0,0.0095
3167.0,0.0095
3166.0,0.0095
3165.0,0.0096
3164.0,0.0096
3163.0,0.0096
3162.0,0.0096
3161.0,0.0095
3160.0,0.0095
3159.0,0.0094
3158.0,0.0093
3157.0,0.0093
3156.0,0.0093
3155.0,0.0093
3154.0,0.0092
3153.0,0.0092
3152.0,0.0092
3151.0,0.0092
3150.0,0.0092
3149.0,0.0092
3148.0,0.0092
3147.0,0.0091
3146.0,0.0091
3145.0,0.0091
3144.0,0.0091
3143.0,0.0091
3142.0,0.0091
3141.0,0.009
3140.0,0.009
3139.0,0.0089
3138.0,0.0088
3137.0,0.0088
3136.0,0.0088
3135.0,0.0088
3134.0,0.0088
3133.0,0.0087
3132.0,0.0086
3131.0,0.0085
3130.0,0.0085
3129.0,0.0086
3128.0,0.0086
3127.0,0.0087
3126.0,0.0086
3125.0,0.0085
3124.0,0.0084
3123.0,0.0084
3122.0,0.0083
3121.0,0.0082
3120.0,0.0082
3119.0,0.0081
3118.0,0.0081
3117.0,0.008
3116.0,0.008
3115.0,0.0081
3114.0,0.0082
3113.0,0.0082
3112.0,0.0082
3111.0,0.0082
3110.0,0.0081
3109.0,0.008
3108.0,0.0079
3107.0,0.0078
3106.0,0.0078
3105.0,0.0078
3104.0,0.0079
3103.0,0.0079
3102.0,0.0078
3101.0,0.0078
3100.0,0.0078
3099.0,0.0077
3098.0,0.0077
3097.0,0.0076
3096.0,0.0076
3095.0,0.0075
3094.0,0.0075
3093.0,0.0075
3092.0,0.0075
3091.0,0.0075
3090.0,0.0076
3089.0,0.0076
3088.0,0.0076
3087.0,0.0075
3086.0,0.0075
3085.0,0.0074
3084.0,0.0073
3083.0,0.0072
3082.0,0.0072
3081.0,0.0072
3080.0,0.0071
3079.0,0.0071
3078.0,0.0071
3077.0,0.007
3076.0,0.0069
3075.0,0.0069
3074.0,0.0068
3073.0,0.0068
3072.0,0.0068
3071.0,0.0069
3070.0,0.0069
3069.0,0.007
3068.0,0.007
3067.0,0.0069
3066.0,0.0069
3065.0,0.0068
3064.0,0.0067
3063.0,0.0067
3062.0,0.0067
3061.0,0.0067
3060.0,0.0066
3059.0,0.0065
3058.0,0.0065
3057.0,0.0065
3056.0,0.0065
3055.0,0.0065
3054.0,0.0064
3053.0,0.0064
3052.0,0.0063
3051.0,0.0062
3050.0,0.0061
3049.0,0.006
3048.0,0.0058
3047.0,0.0057
3046.0,0.0057
3045.0,0.0057
3044.0,0.0057
3043.0,0.0057
3042.0,0.0057
3041.0,0.0056
3040.0,0.0056
3039.0,0.0055
3038.0,0.0055
3037.0,0.0055
3036.0,0.0055
3035.0,0.0055
3034.0,0.0054
3033.0,0.0054
3032.0,0.0054
3031.0,0.0055
3030.0,0.0055
3029.0,0.0056
3028.0,0.0056
3027.0,0.0055
3026.0,0.0055
3025.0,0.0054
3024.0,0.0054
3023.0,0.0053
3022.0,0.0051
3021.0,0.005
3020.0,0.005
3019.0,0.0049
3018.0,0.0048
3017.0,0.0048
3016.0,0.0047
3015.0,0.0047
3014.0,0.0046
3013.0,0.0046
3012.0,0.0046
3011.0,0.0045
3010.0,0.0045
3009.0,0.0045
3008.0,0.0045
3007.0,0.0044
3006.0,0.0044
3005.0,0.0043
3004.0,0.0042
3003.0,0.0042
3002.0,0.0043
3001.0,0.0044
3000.0,0.0045
2999.0,0.0046
2998.0,0.0047
2997.0,0.0048
2996.0,0.0048
2995.0,0.0049
2994.0,0.005
2993.0,0.0051
2992.0,0.0053
2991.0,0.0056
2990.0,0.0059
2989.0,0.0064
2988.0,0.0068
2987.0,0.0073
2986.0,0.0079
2985.0,0.0086
2984.0,0.0093
2983.0,0.0102
2982.0,0.0112
2981.0,0.0124
2980.0,0.0137
2979.0,0.0152
2978.0,0.0171
2977.0,0.0192
2976.0,0.0217
2975.0,0.0246
2974.0,0.0278
2973.0,0.0314
2972.0,0.0355
2971.0,0.04
2970.0,0.0449
2969.0,0.0502
2968.0,0.0558
2967.0,0.0617
2966.0,0.0678
2965.0,0.0738
2964.0,0.0793
2963.0,0.084
2962.0,0.0876
2961.0,0.0902
2960.0,0.0919
2959.0,0.0934
2958.0,0.0952
2957.0,0.0979
2956.0,0.1021
2955.0,0.1076
2954.0,0.1142
2953.0,0.1211
2952.0,0.1272
2951.0,0.1314
2950.0,0.1327
2949.0,0.1309
2948.0,0.126
2947.0,0.1189
2946.0,0.1104
2945.0,0.1016
2944.0,0.0933
2943.0,0.086
2942.0,0.0801
2941.0,0.0759
2940.0,0.0732
2939.0,0.0719
2938.0,0.0718
2937.0,0.073
2936.0,0.0752
2935.0,0.0785
2934.0,0.0829
2933.0,0.0882
2932.0,0.0944
2931.0,0.1013
2930.0,0.1088
2929.0,0.1165
2928.0,0.1245
2927.0,0.1324
2926.0,0.1401
2925.0,0.1478
2924.0,0.1555
2923.0,0.1634
2922.0,0.1715
2921.0,0.1794
2920.0,0.1866
2919.0,0.192
2918.0,0.1947
2917.0,0.1943
2916.0,0.1908
2915.0,0.1851
2914.0,0.1781
2913.0,0.1708
2912.0,0.164
2911.0,0.158
2910.0,0.1529
2909.0,0.1483
2908.0,0.1441
2907.0,0.1402
2906.0,0.1362
2905.0,0.1322
2904.0,0.1281
2903.0,0.1241
2902.0,0.12
2901.0,0.1161
2900.0,0.1124
2899.0,0.1089
2898.0,0.1056
2897.0,0.1025
2896.0,0.0996
2895.0,0.097
2894.0,0.0948
2893.0,0.093
2892.0,0.0916
2891.0,0.0907
2890.0,0.0901
2889.0,0.0897
2888.0,0.0895
2887.0,0.0895
2886.0,0.0896
2885.0,0.09
2884.0,0.0906
2883.0,0.0915
2882.0,0.0925
2881.0,0.0936
2880.0,0.0946
2879.0,0.0952
2878.0,0.0952
2877.0,0.0948
2876.0,0.094
2875.0,0.0934
2874.0,0.093
2873.0,0.0933
2872.0,0.0941
2871.0,0.0954
2870.0,0.097
2869.0,0.0985
2868.0,0.0994
2867.0,0.0994
2866.0,0.098
2865.0,0.095
2864.0,0.0907
2863.0,0.0856
2862.0,0.0806
2861.0,0.076
2860.0,0.0724
2859.0,0.0699
2858.0,0.0684
2857.0,0.0679
2856.0,0.0683
2855.0,0.0696
2854.0,0.0717
2853.0,0.0745
2852.0,0.0775
2851.0,0.0804
2850.0,0.0825
2849.0,0.0835
2848.0,0.0838
2847.0,0.0841
2846.0,0.085
2845.0,0.0867
2844.0,0.0893
2843.0,0.0924
2842.0,0.0956
2841.0,0.0985
2840.0,0.1005
2839.0,0.1013
2838.0,0.1005
2837.0,0.0981
2836.0,0.094
2835.0,0.0888
2834.0,0.083
2833.0,0.077
2832.0,0.0713
2831.0,0.0664
2830.0,0.0621
2829.0,0.0586
2828.0,0.0556
2827.0,0.0531
2826.0,0.051
2825.0,0.0491
2824.0,0.0476
2823.0,0.0462
2822.0,0.045
2821.0,0.044
2820.0,0.043
2819.0,0.042
2818.0,0.0412
2817.0,0.0405
2816.0,0.0399
2815.0,0.0393
2814.0,0.0387
2813.0,0.0381
2812.0,0.0376
2811.0,0.0372
2810.0,0.0367
2809.0,0.0363
2808.0,0.0357
2807.0,0.0352
2806.0,0.0346
2805.0,0.034
2804.0,0.0335
2803.0,0.033
2802.0,0.0325
2801.0,0.032
2800.0,0.0316
2799.0,0.0313
2798.0,0.0311
2797.0,0.0308
2796.0,0.0306
2795.0,0.0303
2794.0,0.03
2793.0,0.0296
2792.0,0.0292
2791.0,0.0289
2790.0,0.0286
2789.0,0.0283
2788.0,0.0281
2787.0,0.0277
2786.0,0.0274
2785.0,0.027
2784.0,0.0268
2783.0,0.0266
2782.0,0.0264
2781.0,0.0263
2780.0,0.026
2779.0,0.0258
2778.0,0.0256
2777.0,0.0254
2776.0,0.0253
2775.0,0.0252
2774.0,0.025
2773.0,0.0249
2772.0,0.0247
2771.0,0.0245
2770.0,0.0244
2769.0,0.0242
2768.0,0.0241
2767.0,0.024
2766.0,0.0239
2765.0,0.0238
2764.0,0.0238
2763.0,0.0237
2762.0,0.0235
2761.0,0.0233
2760.0,0.0232
2759.0,0.0231
2758.0,0.0231
2757.0,0.023
2756.0,0.023
2755.0,0.023
2754.0,0.0229
2753.0,0.0228
2752.0,0.0228
2751.0,0.0227
2750.0,0.0227
2749.0,0.0226
2748.0,0.0226
2747.0,0.0225
2746.0,0.0224
2745.0,0.0224
2744.0,0.0224
2743.0,0.0225
2742.0,0.0225
2741.0,0.0225
2740.0,0.0225
2739.0,0.0226
2738.0,0.0227
2737.0,0.0228
2736.0,0.0229
2735.0,0.0229
2734.0,0.023
2733.0,0.023
2732.0,0.023
2731.0,0.0231
2730.0,0.0232
2729.0,0.0234
2728.0,0.0236
2727.0,0.0238
2726.0,0.024
2725.0,0.0242
2724.0,0.0244
2723.0,0.0244
2722.0,0.0244
2721.0,0.0243
2720.0,0.0241
2719.0,0.024
2718.0,0.0237
2717.0,0.0235
2716.0,0.0232
2715.0,0.023
2714.0,0.0227
2713.0,0.0226
2712.0,0.0224
2711.0,0.0223
2710.0,0.0221
2709.0,0.022
2708.0,0.0218
2707.0,0.0217
2706.0,0.0215
2705.0,0.0214
2704.0,0.0213
2703.0,0.0213
2702.0,0.0212
2701.0,0.0211
2700.0,0.021
2699.0,0.021
2698.0,0.0209
2697.0,0.0209
2696.0,0.0208
2695.0,0.0207
2694.0,0.0206
2693.0,0.0204
2692.0,0.0202
2691.0,0.0202
2690.0,0.0202
2689.0,0.0203
2688.0,0.0204
2687.0,0.0204
2686.0,0.0204
2685.0,0.0203
2684.0,0.0203
2683.0,0.0203
2682.0,0.0203
2681.0,0.0204
2680.0,0.0204
2679.0,0.0204
2678.0,0.0204
2677.0,0.0204
2676.0,0.0203
2675.0,0.0203
2674.0,0.0203
2673.0,0.0203
2672.0,0.0203
2671.0,0.0201
2670.0,0.02
2669.0,0.0199
2668.0,0.0198
2667.0,0.0198
2666.0,0.0198
2665.0,0.0198
2664.0,0.0198
2663.0,0.0198
2662.0,0.0198
2661.0,0.0198
2660.0,0.0198
2659.0,0.0198
2658.0,0.0198
2657.0,0.0198
2656.0,0.0197
2655.0,0.0196
2654.0,0.0196
2653.0,0.0195
2652.0,0.0195
2651.0,0.0194
2650.0,0.0193
2649.0,0.0193
2648.0,0.0192
2647.0,0.0192
2646.0,0.0192
2645.0,0.0192
2644.0,0.0192
2643.0,0.0191
2642.0,0.019
2641.0,0.019
2640.0,0.0189
2639.0,0.0188
2638.0,0.0187
2637.0,0.0187
2636.0,0.0187
2635.0,0.0187
2634.0,0.0186
2633.0,0.0187
2632.0,0.0187
2631.0,0.0187
2630.0,0.0187
2629.0,0.0187
2628.0,0.0187
2627.0,0.0187
2626.0,0.0187
2625.0,0.0187
2624.0,0.0187
2623.0,0.0187
2622.0,0.0187
2621.0,0.0187
2620.0,0.0187
2619.0,0.0187
2618.0,0.0187
2617.0,0.0187
2616.0,0.0186
2615.0,0.0186
2614.0,0.0186
2613.0,0.0186
2612.0,0.0186
2611.0,0.0185
2610.0,0.0185
2609.0,0.0184
2608.0,0.0183
2607.0,0.0182
2606.0,0.0182
2605.0,0.0182
2604.0,0.0182
2603.0,0.0181
2602.0,0.018
2601.0,0.0179
2600.0,0.0179
2599.0,0.0179
2598.0,0.0179
2597.0,0.018
2596.0,0.018
2595.0,0.018
2594.0,0.0179
2593.0,0.0179
2592.0,0.0179
2591.0,0.0179
2590.0,0.018
2589.0,0.0181
2588.0,0.0182
2587.0,0.0183
2586.0,0.0183
2585.0,0.0184
2584.0,0.0185
2583.0,0.0185
2582.0,0.0186
2581.0,0.0186
2580.0,0.0185
2579.0,0.0184
2578.0,0.0183
2577.0,0.0182
2576.0,0.0181
2575.0,0.0181
2574.0,0.018
2573.0,0.0178
2572.0,0.0178
2571.0,0.0177
2570.0,0.0177
2569.0,0.0176
2568.0,0.0175
2567.0,0.0174
2566.0,0.0173
2565.0,0.0173
2564.0,0.0173
2563.0,0.0173
2562.0,0.0173
2561.0,0.0173
2560.0,0.0173
2559.0,0.0173
2558.0,0.0172
2557.0,0.0172
2556.0,0.0171
2555.0,0.017
2554.0,0.017
2553.0,0.0169
2552.0,0.0169
2551.0,0.0169
2550.0,0.0169
2549.0,0.0169
2548.0,0.0169
2547.0,0.0168
2546.0,0.0168
2545.0,0.0167
2544.0,0.0167
2543.0,0.0167
2542.0,0.0166
2541.0,0.0166
2540.0,0.0166
2539.0,0.0166
2538.0,0.0166
2537.0,0.0166
2536.0,0.0165
2535.0,0.0165
2534.0,0.0164
2533.0,0.0164
2532.0,0.0164
2531.0,0.0164
2530.0,0.0164
2529.0,0.0164
2528.0,0.0163
2527.0,0.0163
2526.0,0.0163
2525.0,0.0163
2524.0,0.0162
2523.0,0.0162
2522.0,0.0162
2521.0,0.0161
2520.0,0.0161
2519.0,0.0161
2518.0,0.0161
2517.0,0.016
2516.0,0.0159
2515.0,0.0159
2514.0,0.0158
2513.0,0.0158
2512.0,0.0158
2511.0,0.0158
2510.0,0.0159
2509.0,0.0159
2508.0,0.0158
2507.0,0.0158
2506.0,0.0158
2505.0,0.0158
2504.0,0.0158
2503.0,0.0157
2502.0,0.0157
2501.0,0.0157
2500.0,0.0157
2499.0,0.0157
2498.0,0.0157
2497.0,0.0157
2496.0,0.0157
2495.0,0.0156
2494.0,0.0156
2493.0,0.0155
2492.0,0.0155
2491.0,0.0155
2490.0,0.0155
2489.0,0.0156
2488.0,0.0157
2487.0,0.0157
2486.0,0.0156
2485.0,0.0156
2484.0,0.0156
2483.0,0.0156
2482.0,0.0156
2481.0,0.0156
2480.0,0.0156
2479.0,0.0156
2478.0,0.0155
2477.0,0.0155
2476.0,0.0155
2475.0,0.0155
2474.0,0.0155
2473.0,0.0155
2472.0,0.0155
2471.0,0.0155
2470.0,0.0154
2469.0,0.0154
2468.0,0.0153
2467.0,0.0153
2466.0,0.0153
2465.0,0.0154
2464.0,0.0154
2463.0,0.0154
2462.0,0.0154
2461.0,0.0154
2460.0,0.0153
2459.0,0.0153
2458.0,0.0153
2457.0,0.0153
2456.0,0.0154
2455.0,0.0154
2454.0,0.0155
2453.0,0.0154
2452.0,0.0153
2451.0,0.0153
2450.0,0.0153
2449.0,0.0153
2448.0,0.0153
2447.0,0.0153
2446.0,0.0153
2445.0,0.0153
2444.0,0.0153
2443.0,0.0153
2442.0,0.0153
2441.0,0.0153
2440.0,0.0153
2439.0,0.0153
2438.0,0.0153
2437.0,0.0152
2436.0,0.0152
2435.0,0.0151
2434.0,0.0151
2433.0,0.0152
2432.0,0.0153
2431.0,0.0154
2430.0,0.0154
2429.0,0.0154
2428.0,0.0153
2427.0,0.0153
2426.0,0.0154
2425.0,0.0154
2424.0,0.0155
2423.0,0.0155
2422.0,0.0155
2421.0,0.0155
2420.0,0.0154
2419.0,0.0153
2418.0,0.0152
2417.0,0.0152
2416.0,0.0152
2415.0,0.0153
2414.0,0.0153
2413.0,0.0153
2412.0,0.0153
2411.0,0.0153
2410.0,0.0152
2409.0,0.0152
2408.0,0.0152
2407.0,0.0152
2406.0,0.0152
2405.0,0.0152
2404.0,0.0152
2403.0,0.0152
2402.0,0.0152
2401.0,0.0152
2400.0,0.0152
2399.0,0.0152
2398.0,0.0152
2397.0,0.0152
2396.0,0.0152
2395.0,0.0151
2394.0,0.0151
2393.0,0.015
2392.0,0.0149
2391.0,0.0148
2390.0,0.0148
2389.0,0.0149
2388.0,0.0149
2387.0,0.0149
2386.0,0.0148
2385.0,0.0147
2384.0,0.0146
2383.0,0.0144
2382.0,0.0142
2381.0,0.0139
2380.0,0.0135
2379.0,0.0131
2378.0,0.0127
2377.0,0.0124
2376.0,0.0124
2375.0,0.0127
2374.0,0.013
2373.0,0.0133
2372.0,0.0136
2371.0,0.0137
2370.0,0.0139
2369.0,0.014
2368.0,0.0139
2367.0,0.0134
2366.0,0.0126
2365.0,0.0126
2364.0,0.0142
2363.0,0.0167
2362.0,0.0184
2361.0,0.0183
2360.0,0.017
2359.0,0.015
2358.0,0.013
2357.0,0.0114
2356.0,0.0106
2355.0,0.0101
2354.0,0.0097
2353.0,0.0094
2352.0,0.0097
2351.0,0.0105
2350.0,0.0114
2349.0,0.0119
2348.0,0.0118
2347.0,0.0113
2346.0,0.0112
2345.0,0.0117
2344.0,0.0124
2343.0,0.0127
2342.0,0.0119
2341.0,0.01
2340.0,0.008
2339.0,0.007
2338.0,0.0074
2337.0,0.0089
2336.0,0.0102
2335.0,0.0109
2334.0,0.011
2333.0,0.0107
2332.0,0.0101
2331.0,0.0094
2330.0,0.009
2329.0,0.0091
2328.0,0.0096
2327.0,0.0101
2326.0,0.0107
2325.0,0.0112
2324.0,0.0115
2323.0,0.0116
2322.0,0.0115
2321.0,0.0115
2320.0,0.0117
2319.0,0.012
2318.0,0.0123
2317.0,0.0126
2316.0,0.0129
2315.0,0.0131
2314.0,0.013
2313.0,0.0129
2312.0,0.0127
2311.0,0.0127
2310.0,0.0127
2309.0,0.0128
2308.0,0.013
2307.0,0.0132
2306.0,0.0133
2305.0,0.0134
2304.0,0.0135
2303.0,0.0136
2302.0,0.0137
2301.0,0.0138
2300.0,0.0138
2299.0,0.0139
2298.0,0.0139
2297.0,0.0139
2296.0,0.0139
2295.0,0.014
2294.0,0.0141
2293.0,0.0142
2292.0,0.0142
2291.0,0.0142
2290.0,0.0141
2289.0,0.0141
2288.0,0.0141
2287.0,0.0141
2286.0,0.0141
2285.0,0.0142
2284.0,0.0142
2283.0,0.0142
2282.0,0.0142
2281.0,0.0142
2280.0,0.0141
2279.0,0.0141
2278.0,0.0141
2277.0,0.014
2276.0,0.014
2275.0,0.014
2274.0,0.014
2273.0,0.014
2272.0,0.0141
2271.0,0.0141
2270.0,0.0141
2269.0,0.0141
2268.0,0.0141
2267.0,0.0141
2266.0,0.0141
2265.0,0.0141
2264.0,0.014
2263.0,0.014
2262.0,0.0141
2261.0,0.0141
2260.0,0.0141
2259.0,0.0142
2258.0,0.0142
2257.0,0.0142
2256.0,0.0143
2255.0,0.0143
2254.0,0.0142
2253.0,0.0142
2252.0,0.0143
2251.0,0.0143
2250.0,0.0144
2249.0,0.0144
2248.0,0.0144
2247.0,0.0143
2246.0,0.0143
2245.0,0.0142
2244.0,0.0142
2243.0,0.0142
2242.0,0.0141
2241.0,0.0141
2240.0,0.0141
2239.0,0.0141
2238.0,0.0141
2237.0,0.0141
2236.0,0.0141
2235.0,0.0141
2234.0,0.0142
2233.0,0.0142
2232.0,0.0143
2231.0,0.0143
2230.0,0.0143
2229.0,0.0143
2228.0,0.0142
2227.0,0.0142
2226.0,0.0142
2225.0,0.0141
2224.0,0.0141
2223.0,0.0141
2222.0,0.0141
2221.0,0.0141
2220.0,0.014
2219.0,0.0141
2218.0,0.0141
2217.0,0.0141
2216.0,0.0141
2215.0,0.0141
2214.0,0.0141
2213.0,0.0141
2212.0,0.014
2211.0,0.014
2210.0,0.0139
2209.0,0.014
2208.0,0.0141
2207.0,0.0142
2206.0,0.0143
2205.0,0.0143
2204.0,0.0143
2203.0,0.0143
2202.0,0.0143
2201.0,0.0143
2200.0,0.0143
2199.0,0.0142
2198.0,0.0142
2197.0,0.0142
2196.0,0.0143
2195.0,0.0143
2194.0,0.0143
2193.0,0.0142
2192.0,0.0142
2191.0,0.0141
2190.0,0.0141
2189.0,0.0141
2188.0,0.0141
2187.0,0.0142
2186.0,0.0142
2185.0,0.0143
2184.0,0.0143
2183.0,0.0142
2182.0,0.0142
2181.0,0.0141
2180.0,0.0141
2179.0,0.0141
2178.0,0.0141
2177.0,0.0142
2176.0,0.0142
2175.0,0.0143
2174.0,0.0143
2173.0,0.0143
2172.0,0.0143
2171.0,0.0143
2170.0,0.0143
2169.0,0.0143
2168.0,0.0143
2167.0,0.0143
2166.0,0.0143
2165.0,0.0143
2164.0,0.0142
2163.0,0.0141
2162.0,0.014
2161.0,0.0141
2160.0,0.0141
2159.0,0.0141
2158.0,0.0141
2157.0,0.0141
2156.0,0.014
2155.0,0.014
2154.0,0.014
2153.0,0.014
2152.0,0.014
2151.0,0.014
2150.0,0.014
2149.0,0.014
2148.0,0.014
2147.0,0.014
2146.0,0.014
2145.0,0.014
2144.0,0.014
2143.0,0.014
2142.0,0.0141
2141.0,0.0141
2140.0,0.0141
2139.0,0.0141
2138.0,0.0141
2137.0,0.0141
2136.0,0.0141
2135.0,0.0141
2134.0,0.0141
2133.0,0.0141
2132.0,0.0142
2131.0,0.0142
2130.0,0.0142
2129.0,0.0142
2128.0,0.0142
2127.0,0.0142
2126.0,0.0141
2125.0,0.0141
2124.0,0.014
2123.0,0.0139
2122.0,0.0139
2121.0,0.014
2120.0,0.014
2119.0,0.014
2118.0,0.014
2117.0,0.014
2116.0,0.014
2115.0,0.014
2114.0,0.0139
2113.0,0.0139
2112.0,0.0139
2111.0,0.0139
2110.0,0.0139
2109.0,0.0139
2108.0,0.0139
2107.0,0.0139
2106.0,0.0139
2105.0,0.0139
2104.0,0.0139
2103.0,0.0139
2102.0,0.0139
2101.0,0.0139
2100.0,0.0139
2099.0,0.0139
2098.0,0.0139
2097.0,0.0139
2096.0,0.0139
2095.0,0.0139
2094.0,0.0139
2093.0,0.0139
2092.0,0.0139
2091.0,0.0139
2090.0,0.0139
2089.0,0.0139
2088.0,0.0139
2087.0,0.014
2086.0,0.014
2085.0,0.014
2084.0,0.014
2083.0,0.014
2082.0,0.0139
2081.0,0.0138
2080.0,0.0138
2079.0,0.0138
2078.0,0.0138
2077.0,0.0138
2076.0,0.0138
2075.0,0.0138
2074.0,0.0139
2073.0,0.0139
2072.0,0.0139
2071.0,0.0139
2070.0,0.0138
2069.0,0.0138
2068.0,0.0138
2067.0,0.0138
2066.0,0.0138
2065.0,0.0139
2064.0,0.0139
2063.0,0.0139
2062.0,0.0139
2061.0,0.0138
2060.0,0.0138
2059.0,0.0138
2058.0,0.0138
2057.0,0.0138
2056.0,0.0138
2055.0,0.0138
2054.0,0.0137
2053.0,0.0137
2052.0,0.0138
2051.0,0.0138
2050.0,0.0138
2049.0,0.0138
2048.0,0.0138
2047.0,0.0138
2046.0,0.0138
2045.0,0.0138
2044.0,0.0138
2043.0,0.0138
2042.0,0.0138
2041.0,0.0138
2040.0,0.0138
2039.0,0.0138
2038.0,0.0138
2037.0,0.0138
2036.0,0.0139
2035.0,0.0139
2034.0,0.0139
2033.0,0.0139
2032.0,0.0139
2031.0,0.0139
2030.0,0.0139
2029.0,0.0139
2028.0,0.0139
2027.0,0.0138
2026.0,0.0138
2025.0,0.0139
2024.0,0.0139
2023.0,0.0139
2022.0,0.014
2021.0,0.014
2020.0,0.0139
2019.0,0.0139
2018.0,0.0139
2017.0,0.0138
2016.0,0.0138
2015.0,0.0138
2014.0,0.0138
2013.0,0.0138
2012.0,0.0139
2011.0,0.0139
2010.0,0.0138
2009.0,0.0138
2008.0,0.0138
2007.0,0.0138
2006.0,0.0139
2005.0,0.0139
2004.0,0.0139
2003.0,0.0139
2002.0,0.0139
2001.0,0.0139
2000.0,0.0139
1999.0,0.0139
1998.0,0.0139
1997.0,0.0139
1996.0,0.0139
1995.0,0.0139
1994.0,0.0139
1993.0,0.0139
1992.0,0.0139
1991.0,0.0139
1990.0,0.0139
1989.0,0.0139
1988.0,0.0138
1987.0,0.0138
1986.0,0.0138
1985.0,0.0138
1984.0,0.0138
1983.0,0.0138
1982.0,0.0139
1981.0,0.0139
1980.0,0.0139
1979.0,0.0138
1978.0,0.0138
1977.0,0.0139
1976.0,0.0139
1975.0,0.0139
1974.0,0.014
1973.0,0.014
1972.0,0.0139
1971.0,0.0139
1970.0,0.0138
1969.0,0.0138
1968.0,0.0137
1967.0,0.0138
1966.0,0.0138
1965.0,0.0138
1964.0,0.0138
1963.0,0.0139
1962.0,0.0139
1961.0,0.0139
1960.0,0.0139
1959.0,0.0139
1958.0,0.0139
1957.0,0.0139
1956.0,0.0139
1955.0,0.0138
1954.0,0.0138
1953.0,0.0138
1952.0,0.0138
1951.0,0.0138
1950.0,0.0139
1949.0,0.0139
1948.0,0.0139
1947.0,0.0139
1946.0,0.0139
1945.0,0.0139
1944.0,0.0139
1943.0,0.0138
1942.0,0.0138
1941.0,0.0138
1940.0,0.0138
1939.0,0.0139
1938.0,0.0139
1937.0,0.0139
1936.0,0.0139
1935.0,0.0139
1934.0,0.0139
1933.0,0.0139
1932.0,0.0139
1931.0,0.0139
1930.0,0.0139
1929.0,0.0138
1928.0,0.0138
1927.0,0.0139
1926.0,0.0139
1925.0,0.0139
1924.0,0.014
1923.0,0.014
1922.0,0.014
1921.0,0.014
1920.0,0.014
1919.0,0.014
1918.0,0.014
1917.0,0.0139
1916.0,0.0139
1915.0,0.014
1914.0,0.014
1913.0,0.0141
1912.0,0.0141
1911.0,0.014
1910.0,0.014
1909.0,0.0141
1908.0,0.0141
1907.0,0.0141
1906.0,0.0141
1905.0,0.0141
1904.0,0.014
1903.0,0.014
1902.0,0.0141
1901.0,0.0141
1900.0,0.0141
1899.0,0.0142
1898.0,0.0142
1897.0,0.0142
1896.0,0.0142
1895.0,0.0142
1894.0,0.0142
1893.0,0.0141
1892.0,0.0141
1891.0,0.0141
1890.0,0.0141
1889.0,0.0141
1888.0,0.0141
1887.0,0.014
1886.0,0.0141
1885.0,0.0141
1884.0,0.0141
1883.0,0.0141
1882.0,0.0141
1881.0,0.0141
1880.0,0.0141
1879.0,0.0141
1878.0,0.0141
1877.0,0.0141
1876.0,0.0141
1875.0,0.0141
1874.0,0.014
1873.0,0.014
1872.0,0.0139
1871.0,0.0138
1870.0,0.0138
1869.0,0.0138
1868.0,0.0138
1867.0,0.0139
1866.0,0.014
1865.0,0.014
1864.0,0.0141
1863.0,0.0141
1862.0,0.0141
1861.0,0.014
1860.0,0.014
1859.0,0.014
1858.0,0.014
1857.0,0.014
1856.0,0.0141
1855.0,0.0141
1854.0,0.0141
1853.0,0.0142
1852.0,0.0141
1851.0,0.0141
1850.0,0.0141
1849.0,0.0141
1848.0,0.0141
1847.0,0.0141
1846.0,0.0141
1845.0,0.0142
1844.0,0.0141
1843.0,0.0141
1842.0,0.014
1841.0,0.014
1840.0,0.0141
1839.0,0.0141
1838.0,0.014
1837.0,0.014
1836.0,0.014
1835.0,0.014
1834.0,0.014
1833.0,0.014
1832.0,0.014
1831.0,0.0139
1830.0,0.0139
1829.0,0.0139
1828.0,0.0139
1827.0,0.0139
1826.0,0.014
1825.0,0.014
1824.0,0.0141
1823.0,0.0142
1822.0,0.0142
1821.0,0.0142
1820.0,0.0141
1819.0,0.0141
1818.0,0.0141
1817.0,0.0141
1816.0,0.0141
1815.0,0.0141
1814.0,0.0141
1813.0,0.0141
1812.0,0.0141
1811.0,0.0141
1810.0,0.0141
1809.0,0.0141
1808.0,0.0141
1807.0,0.0141
1806.0,0.0141
1805.0,0.014
1804.0,0.014
1803.0,0.014
1802.0,0.0139
1801.0,0.014
1800.0,0.014
1799.0,0.014
1798.0,0.014
1797.0,0.0139
1796.0,0.0139
1795.0,0.0139
1794.0,0.014
1793.0,0.014
1792.0,0.0141
1791.0,0.0141
1790.0,0.0141
1789.0,0.0142
1788.0,0.0142
1787.0,0.0142
1786.0,0.0142
1785.0,0.0142
1784.0,0.0141
1783.0,0.0141
1782.0,0.0141
1781.0,0.0141
1780.0,0.0141
1779.0,0.014
1778.0,0.014
1777.0,0.014
1776.0,0.014
1775.0,0.014
1774.0,0.0139
1773.0,0.0139
1772.0,0.014
1771.0,0.014
1770.0,0.014
1769.0,0.0141
1768.0,0.0142
1767.0,0.0143
1766.0,0.0143
1765.0,0.0142
1764.0,0.0142
1763.0,0.0142
1762.0,0.0142
1761.0,0.0143
1760.0,0.0144
1759.0,0.0145
1758.0,0.0145
1757.0,0.0146
1756.0,0.0147
1755.0,0.0148
1754.0,0.0149
1753.0,0.0149
1752.0,0.015
1751.0,0.0152
1750.0,0.0152
1749.0,0.0153
1748.0,0.0154
1747.0,0.0155
1746.0,0.0156
1745.0,0.0156
1744.0,0.0157
1743.0,0.0158
1742.0,0.0158
1741.0,0.0158
1740.0,0.0158
1739.0,0.0158
1738.0,0.0158
1737.0,0.0158
1736.0,0.0158
1735.0,0.0158
1734.0,0.0157
1733.0,0.0155
1732.0,0.0154
1731.0,0.0154
1730.0,0.0154
1729.0,0.0155
1728.0,0.0155
1727.0,0.0155
1726.0,0.0155
1725.0,0.0154
1724.0,0.0154
1723.0,0.0154
1722.0,0.0154
1721.0,0.0154
1720.0,0.0155
1719.0,0.0154
1718.0,0.0154
1717.0,0.0154
1716.0,0.0154
1715.0,0.0153
1714.0,0.0154
1713.0,0.0154
1712.0,0.0154
1711.0,0.0154
1710.0,0.0153
1709.0,0.0153
1708.0,0.0152
1707.0,0.0151
1706.0,0.0151
1705.0,0.0151
1704.0,0.0152
1703.0,0.0153
1702.0,0.0153
1701.0,0.0154
1700.0,0.0155
1699.0,0.0154
1698.0,0.0155
1697.0,0.0158
1696.0,0.0159
1695.0,0.0158
1694.0,0.0156
1693.0,0.0155
1692.0,0.0155
1691.0,0.0155
1690.0,0.0155
1689.0,0.0155
1688.0,0.0155
1687.0,0.0155
1686.0,0.0154
1685.0,0.0155
1684.0,0.0157
1683.0,0.0157
1682.0,0.0157
1681.0,0.0157
1680.0,0.0157
1679.0,0.0156
1678.0,0.0156
1677.0,0.0156
1676.0,0.0157
1675.0,0.0158
1674.0,0.0158
1673.0,0.0158
1672.0,0.0158
1671.0,0.0159
1670.0,0.016
1669.0,0.016
1668.0,0.016
1667.0,0.016
1666.0,0.016
1665.0,0.016
1664.0,0.016
1663.0,0.016
1662.0,0.0161
1661.0,0.0162
1660.0,0.0163
1659.0,0.0163
1658.0,0.0163
1657.0,0.0163
1656.0,0.0163
1655.0,0.0162
1654.0,0.0164
1653.0,0.0166
1652.0,0.0165
1651.0,0.0164
1650.0,0.0164
1649.0,0.0163
1648.0,0.0164
1647.0,0.0166
1646.0,0.0168
1645.0,0.0169
1644.0,0.0169
1643.0,0.0169
1642.0,0.0169
1641.0,0.0169
1640.0,0.0169
1639.0,0.0169
1638.0,0.0169
1637.0,0.017
1636.0,0.017
1635.0,0.0168
1634.0,0.0165
1633.0,0.0165
1632.0,0.0164
1631.0,0.0163
1630.0,0.0162
1629.0,0.0161
1628.0,0.0162
1627.0,0.0162
1626.0,0.0162
1625.0,0.0161
1624.0,0.0161
1623.0,0.016
1622.0,0.016
1621.0,0.016
1620.0,0.016
1619.0,0.016
1618.0,0.0159
1617.0,0.0159
1616.0,0.0159
1615.0,0.0159
1614.0,0.0159
1613.0,0.0159
1612.0,0.0159
1611.0,0.0158
1610.0,0.0157
1609.0,0.0157
1608.0,0.0157
1607.0,0.0158
1606.0,0.0159
1605.0,0.016
1604.0,0.016
1603.0,0.016
1602.0,0.016
1601.0,0.016
1600.0,0.016
1599.0,0.0159
1598.0,0.0158
1597.0,0.0157
1596.0,0.0156
1595.0,0.0156
1594.0,0.0155
1593.0,0.0155
1592.0,0.0154
1591.0,0.0154
1590.0,0.0154
1589.0,0.0154
1588.0,0.0153
1587.0,0.0153
1586.0,0.0153
1585.0,0.0153
1584.0,0.0153
1583.0,0.0153
1582.0,0.0153
1581.0,0.0153
1580.0,0.0153
1579.0,0.0153
1578.0,0.0152
1577.0,0.0152
1576.0,0.0152
1575.0,0.0151
1574.0,0.0151
1573.0,0.0151
1572.0,0.0151
1571.0,0.015
1570.0,0.0149
1569.0,0.015
1568.0,0.0151
1567.0,0.0152
1566.0,0.0152
1565.0,0.0151
1564.0,0.0151
1563.0,0.015
1562.0,0.015
1561.0,0.0148
1560.0,0.015
1559.0,0.0155
1558.0,0.0154
1557.0,0.0153
1556.0,0.0153
1555.0,0.0154
1554.0,0.0154
1553.0,0.0154
1552.0,0.0154
1551.0,0.0153
1550.0,0.0153
1549.0,0.0153
1548.0,0.0154
1547.0,0.0154
1546.0,0.0154
1545.0,0.0154
1544.0,0.0155
1543.0,0.0155
1542.0,0.0153
1541.0,0.0152
1540.0,0.0152
1539.0,0.015
1538.0,0.0149
1537.0,0.0149
1536.0,0.0149
1535.0,0.0148
1534.0,0.0147
1533.0,0.0146
1532.0,0.0146
1531.0,0.0145
1530.0,0.0144
1529.0,0.0144
1528.0,0.0144
1527.0,0.0144
1526.0,0.0144
1525.0,0.0144
1524.0,0.0146
1523.0,0.0147
1522.0,0.0147
1521.0,0.0145
1520.0,0.0143
1519.0,0.0141
1518.0,0.014
1517.0,0.0141
1516.0,0.0141
1515.0,0.0141
1514.0,0.0141
1513.0,0.0141
1512.0,0.0141
1511.0,0.0141
1510.0,0.0139
1509.0,0.0139
1508.0,0.0141
1507.0,0.0142
1506.0,0.014
1505.0,0.014
1504.0,0.0142
1503.0,0.0142
1502.0,0.0142
1501.0,0.0143
1500.0,0.0144
1499.0,0.0145
1498.0,0.0146
1497.0,0.015
1496.0,0.0155
1495.0,0.0158
1494.0,0.0159
1493.0,0.0159
1492.0,0.0158
1491.0,0.0155
1490.0,0.0152
1489.0,0.0151
1488.0,0.0152
1487.0,0.0153
1486.0,0.0154
1485.0,0.0156
1484.0,0.0159
1483.0,0.0162
1482.0,0.0165
1481.0,0.017
1480.0,0.0176
1479.0,0.0182
1478.0,0.0191
1477.0,0.0207
1476.0,0.023
1475.0,0.0258
1474.0,0.0295
1473.0,0.0344
1472.0,0.0393
1471.0,0.0431
1470.0,0.0466
1469.0,0.0506
1468.0,0.0552
1467.0,0.0604
1466.0,0.0672
1465.0,0.0754
1464.0,0.0825
1463.0,0.0869
1462.0,0.0892
1461.0,0.0905
1460.0,0.091
1459.0,0.0911
1458.0,0.092
1457.0,0.0936
1456.0,0.0945
1455.0,0.0945
1454.0,0.0942
1453.0,0.0936
1452.0,0.0924
1451.0,0.0906
1450.0,0.0879
1449.0,0.0838
1448.0,0.0783
1447.0,0.0725
1446.0,0.0673
1445.0,0.0628
1444.0,0.0586
1443.0,0.055
1442.0,0.0522
1441.0,0.0501
1440.0,0.0488
1439.0,0.0481
1438.0,0.0481
1437.0,0.0486
1436.0,0.0484
1435.0,0.0471
1434.0,0.0448
1433.0,0.0419
1432.0,0.0386
1431.0,0.0355
1430.0,0.0331
1429.0,0.0312
1428.0,0.0299
1427.0,0.029
1426.0,0.0283
1425.0,0.0275
1424.0,0.0268
1423.0,0.0263
1422.0,0.0259
1421.0,0.0255
1420.0,0.025
1419.0,0.0247
1418.0,0.0245
1417.0,0.0242
1416.0,0.0238
1415.0,0.0236
1414.0,0.0234
1413.0,0.0231
1412.0,0.0229
1411.0,0.0227
1410.0,0.0226
1409.0,0.0224
1408.0,0.0221
1407.0,0.0219
1406.0,0.0217
1405.0,0.0215
1404.0,0.0213
1403.0,0.0212
1402.0,0.0211
1401.0,0.0209
1400.0,0.0207
1399.0,0.0206
1398.0,0.0205
1397.0,0.0204
1396.0,0.0202
1395.0,0.0203
1394.0,0.0203
1393.0,0.0203
1392.0,0.0202
1391.0,0.0203
1390.0,0.0206
1389.0,0.021
1388.0,0.0219
1387.0,0.0236
1386.0,0.0261
1385.0,0.0294
1384.0,0.0343
1383.0,0.0414
1382.0,0.051
1381.0,0.0634
1380.0,0.0793
1379.0,0.0979
1378.0,0.1164
1377.0,0.1308
1376.0,0.1375
1375.0,0.1341
1374.0,0.1217
1373.0,0.1061
1372.0,0.0917
1371.0,0.0792
1370.0,0.0684
1369.0,0.0597
1368.0,0.0534
1367.0,0.0493
1366.0,0.0469
1365.0,0.0457
1364.0,0.0456
1363.0,0.0464
1362.0,0.0479
1361.0,0.0496
1360.0,0.0507
1359.0,0.051
1358.0,0.0503
1357.0,0.0486
1356.0,0.0461
1355.0,0.0434
1354.0,0.0408
1353.0,0.0385
1352.0,0.0367
1351.0,0.0351
1350.0,0.0338
1349.0,0.0327
1348.0,0.0317
1347.0,0.0309
1346.0,0.0301
1345.0,0.0295
1344.0,0.0289
1343.0,0.0284
1342.0,0.0279
1341.0,0.0275
1340.0,0.0272
1339.0,0.027
1338.0,0.0269
1337.0,0.0269
1336.0,0.0268
1335.0,0.0269
1334.0,0.027
1333.0,0.0273
1332.0,0.0275
1331.0,0.0278
1330.0,0.0279
1329.0,0.0278
1328.0,0.0276
1327.0,0.0273
1326.0,0.0269
1325.0,0.0264
1324.0,0.026
1323.0,0.0256
1322.0,0.0252
1321.0,0.0249
1320.0,0.0247
1319.0,0.0245
1318.0,0.0243
1317.0,0.0242
1316.0,0.0241
1315.0,0.024
1314.0,0.0239
1313.0,0.0239
1312.0,0.0239
1311.0,0.024
1310.0,0.0242
1309.0,0.0245
1308.0,0.025
1307.0,0.0257
1306.0,0.0264
1305.0,0.027
1304.0,0.0272
1303.0,0.027
1302.0,0.0267
1301.0,0.0264
1300.0,0.0262
1299.0,0.0262
1298.0,0.0263
1297.0,0.0264
1296.0,0.0264
1295.0,0.0263
1294.0,0.0261
1293.0,0.0258
1292.0,0.0255
1291.0,0.0252
1290.0,0.0249
1289.0,0.0246
1288.0,0.0244
1287.0,0.0242
1286.0,0.024
1285.0,0.0238
1284.0,0.0237
1283.0,0.0236
1282.0,0.0234
1281.0,0.0233
1280.0,0.0232
1279.0,0.0231
1278.0,0.0231
1277.0,0.023
1276.0,0.023
1275.0,0.023
1274.0,0.0229
1273.0,0.0229
1272.0,0.0229
1271.0,0.0229
1270.0,0.0229
1269.0,0.023
1268.0,0.0231
1267.0,0.0232
1266.0,0.0233
1265.0,0.0234
1264.0,0.0235
1263.0,0.0237
1262.0,0.0239
1261.0,0.0241
1260.0,0.0244
1259.0,0.0249
1258.0,0.0254
1257.0,0.0259
1256.0,0.0262
1255.0,0.0262
1254.0,0.0259
1253.0,0.0254
1252.0,0.0248
1251.0,0.0243
1250.0,0.024
1249.0,0.0238
1248.0,0.0236
1247.0,0.0235
1246.0,0.0233
1245.0,0.0232
1244.0,0.0231
1243.0,0.0231
1242.0,0.023
1241.0,0.0229
1240.0,0.0228
1239.0,0.0228
1238.0,0.0227
1237.0,0.0227
1236.0,0.0226
1235.0,0.0225
1234.0,0.0225
1233.0,0.0224
1232.0,0.0224
1231.0,0.0223
1230.0,0.0223
1229.0,0.0224
1228.0,0.0224
1227.0,0.0225
1226.0,0.0226
1225.0,0.0227
1224.0,0.0229
1223.0,0.0232
1222.0,0.0234
1221.0,0.0236
1220.0,0.0237
1219.0,0.0237
1218.0,0.0237
1217.0,0.0236
1216.0,0.0235
1215.0,0.0233
1214.0,0.0231
1213.0,0.023
1212.0,0.0228
1211.0,0.0227
1210.0,0.0226
1209.0,0.0225
1208.0,0.0224
1207.0,0.0224
1206.0,0.0223
1205.0,0.0221
1204.0,0.0221
1203.0,0.022
1202.0,0.022
1201.0,0.0219
1200.0,0.0219
1199.0,0.022
1198.0,0.022
1197.0,0.0221
1196.0,0.0221
1195.0,0.022
1194.0,0.0219
1193.0,0.0218
1192.0,0.0218
1191.0,0.0217
1190.0,0.0217
1189.0,0.0217
1188.0,0.0218
1187.0,0.0218
1186.0,0.0218
1185.0,0.0219
1184.0,0.0219
1183.0,0.022
1182.0,0.0221
1181.0,0.0222
1180.0,0.0224
1179.0,0.0226
1178.0,0.023
1177.0,0.0235
1176.0,0.0242
1175.0,0.0251
1174.0,0.0264
1173.0,0.028
1172.0,0.0301
1171.0,0.0324
1170.0,0.0346
1169.0,0.0364
1168.0,0.0375
1167.0,0.0377
1166.0,0.0373
1165.0,0.0365
1164.0,0.0355
1163.0,0.0346
1162.0,0.0337
1161.0,0.033
1160.0,0.0324
1159.0,0.0319
1158.0,0.0316
1157.0,0.0314
1156.0,0.0314
1155.0,0.0314
1154.0,0.0313
1153.0,0.0312
1152.0,0.031
1151.0,0.0305
1150.0,0.0299
1149.0,0.0292
1148.0,0.0285
1147.0,0.0279
1146.0,0.0273
1145.0,0.0268
1144.0,0.0263
1143.0,0.0258
1142.0,0.0254
1141.0,0.025
1140.0,0.0246
1139.0,0.0242
1138.0,0.024
1137.0,0.0237
1136.0,0.0235
1135.0,0.0234
1134.0,0.0232
1133.0,0.023
1132.0,0.0229
1131.0,0.0227
1130.0,0.0226
1129.0,0.0226
1128.0,0.0226
1127.0,0.0226
1126.0,0.0226
1125.0,0.0226
1124.0,0.0226
1123.0,0.0227
1122.0,0.0227
1121.0,0.0228
1120.0,0.0228
1119.0,0.0228
1118.0,0.0229
1117.0,0.0229
1116.0,0.023
1115.0,0.0231
1114.0,0.0232
1113.0,0.0233
1112.0,0.0234
1111.0,0.0236
1110.0,0.0238
1109.0,0.0241
1108.0,0.0244
1107.0,0.0247
1106.0,0.0251
1105.0,0.0256
1104.0,0.0261
1103.0,0.0264
1102.0,0.0264
1101.0,0.0263
1100.0,0.026
1099.0,0.0257
1098.0,0.0254
1097.0,0.025
1096.0,0.0247
1095.0,0.0243
1094.0,0.0241
1093.0,0.024
1092.0,0.0239
1091.0,0.0239
1090.0,0.0238
1089.0,0.0237
1088.0,0.0236
1087.0,0.0236
1086.0,0.0236
1085.0,0.0237
1084.0,0.0237
1083.0,0.0238
1082.0,0.0238
1081.0,0.0238
1080.0,0.0237
1079.0,0.0238
1078.0,0.0238
1077.0,0.0239
1076.0,0.024
1075.0,0.0241
1074.0,0.0242
1073.0,0.0242
1072.0,0.0243
1071.0,0.0243
1070.0,0.0244
1069.0,0.0245
1068.0,0.0247
1067.0,0.0248
1066.0,0.025
1065.0,0.0251
1064.0,0.0253
1063.0,0.0254
1062.0,0.0255
1061.0,0.0257
1060.0,0.0259
1059.0,0.0261
1058.0,0.0263
1057.0,0.0264
1056.0,0.0266
1055.0,0.0268
1054.0,0.0271
1053.0,0.0274
1052.0,0.0278
1051.0,0.0283
1050.0,0.0289
1049.0,0.0295
1048.0,0.0301
1047.0,0.0308
1046.0,0.0313
1045.0,0.0318
1044.0,0.0321
1043.0,0.0323
1042.0,0.0326
1041.0,0.0328
1040.0,0.0332
1039.0,0.0336
1038.0,0.0341
1037.0,0.0346
1036.0,0.0351
1035.0,0.0356
1034.0,0.0361
1033.0,0.0365
1032.0,0.0369
1031.0,0.0371
1030.0,0.0373
1029.0,0.0375
1028.0,0.0377
1027.0,0.0379
1026.0,0.038
1025.0,0.0381
1024.0,0.0382
1023.0,0.0382
1022.0,0.0381
1021.0,0.038
1020.0,0.0378
1019.0,0.0377
1018.0,0.0376
1017.0,0.0375
1016.0,0.0375
1015.0,0.0375
1014.0,0.0375
1013.0,0.0376
1012.0,0.0378
1011.0,0.0381
1010.0,0.0386
1009.0,0.0392
1008.0,0.0399
1007.0,0.0408
1006.0,0.0419
1005.0,0.0431
1004.0,0.0446
1003.0,0.0464
1002.0,0.0487
1001.0,0.0514
1000.0,0.0543
999.0,0.0569
998.0,0.0582
997.0,0.0581
996.0,0.0564
995.0,0.0539
994.0,0.0511
993.0,0.0486
992.0,0.0465
991.0,0.0448
990.0,0.0434
989.0,0.0422
988.0,0.0412
987.0,0.0404
986.0,0.0397
985.0,0.039
984.0,0.0386
983.0,0.0383
982.0,0.0383
981.0,0.0388
980.0,0.0397
979.0,0.0412
978.0,0.0432
977.0,0.0459
976.0,0.0489
975.0,0.0518
974.0,0.0539
973.0,0.0547
972.0,0.0539
971.0,0.0515
970.0,0.0483
969.0,0.045
968.0,0.042
967.0,0.0396
966.0,0.0377
965.0,0.0362
964.0,0.0351
963.0,0.0342
962.0,0.0334
961.0,0.0328
960.0,0.0323
959.0,0.0318
958.0,0.0314
957.0,0.031
956.0,0.0306
955.0,0.0302
954.0,0.0299
953.0,0.0296
952.0,0.0293
951.0,0.029
950.0,0.0288
949.0,0.0287
948.0,0.0286
947.0,0.0287
946.0,0.0288
945.0,0.029
944.0,0.0292
943.0,0.0294
942.0,0.0296
941.0,0.0297
940.0,0.0297
939.0,0.0295
938.0,0.0291
937.0,0.0286
936.0,0.0282
935.0,0.0278
934.0,0.0275
933.0,0.0274
932.0,0.0272
931.0,0.0271
930.0,0.0269
929.0,0.0267
928.0,0.0266
927.0,0.0265
926.0,0.0264
925.0,0.0263
924.0,0.0263
923.0,0.0263
922.0,0.0264
921.0,0.0264
920.0,0.0264
919.0,0.0263
918.0,0.0262
917.0,0.0261
916.0,0.0261
915.0,0.0262
914.0,0.0263
913.0,0.0264
912.0,0.0266
911.0,0.0267
910.0,0.0268
909.0,0.0268
908.0,0.027
907.0,0.0272
906.0,0.0276
905.0,0.0283
904.0,0.0293
903.0,0.0306
902.0,0.0322
901.0,0.0338
900.0,0.0351
899.0,0.0357
898.0,0.0354
897.0,0.0344
896.0,0.0331
895.0,0.0316
894.0,0.0304
893.0,0.0295
892.0,0.0288
891.0,0.0284
890.0,0.028
889.0,0.0279
888.0,0.0277
887.0,0.0276
886.0,0.0275
885.0,0.0274
884.0,0.0274
883.0,0.0273
882.0,0.0273
881.0,0.0273
880.0,0.0274
879.0,0.0275
878.0,0.0277
877.0,0.0278
876.0,0.0279
875.0,0.0279
874.0,0.0278
873.0,0.0276
872.0,0.0274
871.0,0.0272
870.0,0.0271
869.0,0.0271
868.0,0.0272
867.0,0.0272
866.0,0.0272
865.0,0.0271
864.0,0.027
863.0,0.0269
862.0,0.027
861.0,0.0271
860.0,0.0272
859.0,0.0273
858.0,0.0274
857.0,0.0274
856.0,0.0274
855.0,0.0274
854.0,0.0274
853.0,0.0275
852.0,0.0276
851.0,0.0278
850.0,0.0281
849.0,0.0285
848.0,0.029
847.0,0.0298
846.0,0.0309
845.0,0.0329
844.0,0.0359
843.0,0.0395
842.0,0.0425
841.0,0.0438
840.0,0.0427
839.0,0.0399
838.0,0.0368
837.0,0.0342
836.0,0.0325
835.0,0.0315
834.0,0.0307
833.0,0.0302
832.0,0.0298
831.0,0.0295
830.0,0.0292
829.0,0.029
828.0,0.0288
827.0,0.0286
826.0,0.0283
825.0,0.0281
824.0,0.028
823.0,0.028
822.0,0.0281
821.0,0.0281
820.0,0.0282
819.0,0.0283
818.0,0.0285
817.0,0.0289
816.0,0.0295
815.0,0.0303
814.0,0.0314
813.0,0.0327
812.0,0.0341
811.0,0.0355
810.0,0.0365
809.0,0.0372
808.0,0.0371
807.0,0.0364
806.0,0.0353
805.0,0.034
804.0,0.0329
803.0,0.032
802.0,0.0313
801.0,0.0308
800.0,0.0304
799.0,0.0302
798.0,0.03
797.0,0.0299
796.0,0.0297
795.0,0.0294
794.0,0.0291
793.0,0.0287
792.0,0.0285
791.0,0.0283
790.0,0.0282
789.0,0.0281
788.0,0.0281
787.0,0.028
786.0,0.0279
785.0,0.0277
784.0,0.0276
783.0,0.0275
782.0,0.0275
781.0,0.0274
780.0,0.0274
779.0,0.0274
778.0,0.0274
777.0,0.0275
776.0,0.0276
775.0,0.0276
774.0,0.0276
773.0,0.0276
772.0,0.0277
771.0,0.0279
770.0,0.028
769.0,0.0282
768.0,0.0284
767.0,0.0285
766.0,0.0285
765.0,0.0286
764.0,0.0287
763.0,0.0288
762.0,0.0289
761.0,0.0291
760.0,0.0293
759.0,0.0296
758.0,0.0298
757.0,0.03
756.0,0.0302
755.0,0.0303
754.0,0.0304
753.0,0.0305
752.0,0.0305
751.0,0.0306
750.0,0.0306
749.0,0.0307
748.0,0.0307
747.0,0.0306
746.0,0.0304
745.0,0.0302
744.0,0.0301
743.0,0.0299
742.0,0.0299
741.0,0.03
740.0,0.0301
739.0,0.0301
738.0,0.0302
737.0,0.0304
736.0,0.0308
735.0,0.0315
734.0,0.0327
733.0,0.0345
732.0,0.0364
731.0,0.038
730.0,0.0385
729.0,0.0381
728.0,0.0371
727.0,0.0362
726.0,0.0356
725.0,0.0355
724.0,0.0356
723.0,0.036
722.0,0.0371
721.0,0.0388
720.0,0.0403
719.0,0.0408
718.0,0.0401
717.0,0.0387
716.0,0.0374
715.0,0.0364
714.0,0.0356
713.0,0.0351
712.0,0.0349
711.0,0.0348
710.0,0.0346
709.0,0.0346
708.0,0.0348
707.0,0.0353
706.0,0.0359
705.0,0.0367
704.0,0.0379
703.0,0.0396
702.0,0.0416
701.0,0.0435
700.0,0.045
699.0,0.0456
698.0,0.0451
697.0,0.0439
696.0,0.0423
695.0,0.041
694.0,0.0404
693.0,0.0407
692.0,0.0414
691.0,0.0415
690.0,0.0402
689.0,0.0382
688.0,0.0364
687.0,0.0356
686.0,0.0355
685.0,0.0354
684.0,0.035
683.0,0.0342
682.0,0.0332
681.0,0.0327
680.0,0.0327
679.0,0.0332
678.0,0.0339
677.0,0.0347
676.0,0.0354
675.0,0.036
674.0,0.0366
673.0,0.0373
672.0,0.038
671.0,0.0383
670.0,0.0376
669.0,0.0363
668.0,0.0364
667.0,0.0381
666.0,0.0397
665.0,0.0399
664.0,0.039
663.0,0.0374
662.0,0.036
661.0,0.0351
660.0,0.0347
659.0,0.0345
658.0,0.0343
657.0,0.0343
656.0,0.0345
655.0,0.0345
654.0,0.0343
653.0,0.0336
652.0,0.0327
651.0,0.032
650.0,0.0318
649.0,0.032
648.0,0.0325
647.0,0.0331
646.0,0.0332
645.0,0.0329
644.0,0.0323
643.0,0.0318
642.0,0.0317
641.0,0.032
640.0,0.0326
639.0,0.0333
638.0,0.0341
637.0,0.0354
636.0,0.0371
635.0,0.0387
634.0,0.0393
633.0,0.0386
632.0,0.0373
631.0,0.036
630.0,0.0349
629.0,0.0344
628.0,0.0342
627.0,0.0345
626.0,0.0348
625.0,0.035
624.0,0.035
623.0,0.0349
622.0,0.0348
621.0,0.035
620.0,0.0352
619.0,0.0353
618.0,0.0351
617.0,0.0353
616.0,0.036
615.0,0.037
614.0,0.0378
613.0,0.0381
612.0,0.0381
611.0,0.0377
610.0,0.0371
609.0,0.0365
608.0,0.0361
607.0,0.0354
606.0,0.0342
605.0,0.0324
604.0,0.0309
603.0,0.0307
602.0,0.0323
601.0,0.0347
600.0,0.0363
