nm,Intensity
526.508,830.2
526.645,830.2
526.782,829.9
526.919,830.9
527.055,829.9
527.192,831.7
527.329,830.6
527.465,830.6
527.602,830.5
527.739,830.3
527.875,829.3
528.012,829.7
528.149,829.1
528.285,830.7
528.422,830.6
528.558,829.9
528.695,829.1
528.832,830.1
528.968,828.7
529.105,831.1
529.241,828.2
529.378,829.7
529.514,831.6
529.651,830.7
529.787,830.6
529.924,829.6
530.061,829.9
530.197,830.8
530.334,829.8
530.47,829.9
530.606,832.0
530.743,829.3
530.879,831.6
531.016,831.2
531.152,830.7
531.289,830.7
531.425,829.7
531.562,830.8
531.698,832.3
531.834,830.2
531.971,834.5
532.107,860.4
532.244,874.6
532.38,841.4
532.516,831.4
532.653,831.3
532.789,831.2
532.925,830.9
533.062,831.0
533.198,830.0
533.334,828.6
533.471,832.3
533.607,837.9
533.743,892.3
533.879,1188.1
534.016,1673.9
534.152,1905.6
534.288,1896.6
534.424,1845.0
534.561,1794.0
534.697,1765.0
534.833,1705.1
534.969,1657.1
535.106,1603.3
535.242,1566.5
535.378,1531.9
535.514,1518.3
535.65,1483.3
535.786,1478.6
535.923,1455.7
536.059,1434.6
536.195,1418.0
536.331,1397.9
536.467,1387.2
536.603,1375.3
536.739,1377.8
536.876,1368.4
537.012,1364.8
537.148,1362.2
537.284,1357.5
537.42,1351.7
537.556,1348.2
537.692,1345.4
537.828,1341.2
537.964,1341.8
538.1,1347.1
538.236,1349.0
538.372,1355.4
538.508,1352.4
538.644,1353.0
538.78,1350.3
538.916,1359.6
539.052,1357.0
539.188,1356.7
539.324,1353.6
539.46,1368.3
539.596,1378.0
539.732,1390.6
539.868,1383.4
540.004,1403.4
540.14,1409.7
540.275,1388.2
540.411,1381.7
540.547,1375.3
540.683,1377.4
540.819,1377.3
540.955,1377.6
541.091,1373.4
541.227,1368.4
541.362,1376.1
541.498,1367.1
541.634,1374.1
541.77,1372.5
541.906,1368.5
542.041,1380.3
542.177,1380.7
542.313,1375.8
542.449,1378.6
542.585,1381.3
542.72,1390.3
542.856,1380.4
542.992,1382.9
543.128,1398.3
543.263,1395.1
543.399,1388.9
543.535,1389.3
543.67,1400.4
543.806,1407.0
543.942,1406.8
544.078,1406.7
544.213,1402.8
544.349,1410.3
544.485,1408.5
544.62,1405.6
544.756,1419.4
544.892,1414.0
545.027,1417.6
545.163,1420.2
545.298,1423.2
545.434,1421.8
545.57,1430.5
545.705,1428.0
545.841,1426.1
545.976,1430.5
546.112,1434.9
546.248,1436.2
546.383,1433.2
546.519,1435.6
546.654,1434.1
546.79,1435.0
546.925,1438.3
547.061,1440.9
547.196,1440.4
547.332,1450.3
547.467,1446.2
547.603,1456.0
547.738,1453.3
547.874,1461.1
548.009,1448.4
548.145,1462.6
548.28,1456.8
548.416,1462.0
548.551,1463.4
548.686,1463.6
548.822,1479.0
548.957,1478.4
549.093,1480.8
549.228,1471.9
549.363,1472.4
549.499,1464.9
549.634,1490.5
549.77,1490.7
549.905,1478.6
550.04,1480.0
550.176,1482.6
550.311,1481.9
550.446,1503.0
550.582,1622.3
550.717,1764.2
550.852,1625.6
550.988,1509.8
551.123,1505.0
551.258,1491.0
551.394,1501.5
551.529,1502.0
551.664,1496.1
551.799,1508.5
551.935,1503.5
552.07,1508.9
552.205,1518.1
552.34,1506.6
552.476,1516.3
552.611,1527.9
552.746,1556.3
552.881,1589.6
553.016,1564.3
553.152,1529.1
553.287,1529.4
553.422,1525.5
553.557,1522.3
553.692,1524.3
553.827,1540.5
553.963,1536.5
554.098,1533.5
554.233,1545.8
554.368,1543.3
554.503,1540.9
554.638,1550.9
554.773,1546.5
554.908,1549.3
555.043,1557.1
555.179,1556.7
555.314,1564.0
555.449,1580.3
555.584,1607.9
555.719,1615.6
555.854,1594.8
555.989,1579.2
556.124,1599.5
556.259,1609.2
556.394,1609.4
556.529,1617.8
556.664,1625.3
556.799,1617.3
556.934,1627.3
557.069,1637.7
557.204,1675.8
557.339,1727.9
557.474,1834.0
557.609,1978.3
557.744,2016.0
557.879,1830.9
558.014,1709.0
558.149,1660.1
558.284,1649.6
558.419,1631.9
558.553,1634.1
558.688,1627.5
558.823,1616.6
558.958,1616.7
559.093,1615.0
559.228,1612.7
559.363,1607.9
559.498,1612.6
559.632,1616.3
559.767,1616.5
559.902,1611.8
560.037,1629.4
560.172,1629.2
560.307,1618.9
560.441,1620.6
560.576,1633.3
560.711,1634.3
560.846,1636.6
560.981,1640.1
561.115,1639.2
561.25,1658.3
561.385,1653.6
561.52,1667.4
561.654,1685.6
561.789,1700.0
561.924,1731.5
562.059,1738.3
562.193,1754.7
562.328,1756.4
562.463,1705.1
562.598,1702.7
562.732,1683.2
562.867,1699.2
563.002,1678.0
563.136,1677.1
563.271,1689.7
563.406,1683.0
563.54,1688.8
563.675,1688.5
563.81,1705.2
563.944,1710.5
564.079,1710.6
564.213,1726.6
564.348,1714.8
564.483,1745.9
564.617,1771.9
564.752,1794.0
564.887,1851.5
565.021,1936.6
565.156,1971.7
565.29,1932.3
565.425,1892.4
565.559,1875.8
565.694,1880.3
565.828,1891.8
565.963,1901.1
566.098,1860.4
566.232,1824.6
566.367,1786.9
566.501,1766.4
566.636,1769.7
566.77,1739.1
566.905,1743.6
567.039,1748.2
567.174,1730.0
567.308,1741.7
567.443,1761.7
567.577,1810.3
567.711,1828.5
567.846,1834.9
567.98,1824.3
568.115,1799.0
568.249,1782.0
568.384,1768.9
568.518,1774.8
568.652,1764.7
568.787,1771.6
568.921,1772.0
569.056,1772.8
569.19,1772.8
569.324,1785.4
569.459,1789.0
569.593,1800.9
569.727,1800.7
569.862,1813.8
569.996,1810.3
570.131,1839.3
570.265,1844.4
570.399,1856.1
570.534,1897.0
570.668,1921.9
570.802,1988.1
570.936,2074.0
571.071,2185.6
571.205,2301.0
571.339,2396.7
571.474,2406.1
571.608,2334.9
571.742,2185.9
571.876,2076.7
572.011,2038.9
572.145,2002.3
572.279,1960.1
572.413,1904.3
572.548,1880.3
572.682,1859.6
572.816,1877.5
572.95,1857.0
573.084,1854.4
573.219,1860.2
573.353,1859.0
573.487,1851.5
573.621,1855.2
573.755,1872.1
573.889,1866.8
574.024,1880.4
574.158,1881.6
574.292,1878.4
574.426,1865.6
574.56,1870.1
574.694,1876.8
574.828,1879.5
574.963,1882.5
575.097,1889.0
575.231,1927.9
575.365,1972.4
575.499,2017.8
575.633,1994.2
575.767,1937.3
575.901,1924.6
576.035,1909.7
576.169,1898.1
576.303,1921.9
576.437,1927.3
576.571,1921.3
576.706,1937.6
576.84,1951.6
576.974,1957.9
577.108,1947.2
577.242,1956.4
577.376,1932.3
577.51,1923.9
577.644,1921.3
577.778,1914.1
577.912,1899.5
578.046,1908.6
578.179,1915.3
578.313,1923.9
578.447,1917.8
578.581,1930.4
578.715,1925.0
578.849,1938.5
578.983,1929.6
579.117,1922.3
579.251,1939.6
579.385,1925.8
579.519,1930.8
579.653,1927.7
579.787,1941.1
579.921,1936.2
580.054,1936.6
580.188,1953.8
580.322,1942.9
580.456,1944.3
580.59,1956.0
580.724,1957.2
580.858,1983.8
580.991,1990.3
581.125,1986.0
581.259,1999.8
581.393,2012.0
581.527,2068.9
581.661,2161.4
581.794,2378.1
581.928,2810.8
582.062,3637.0
582.196,4462.2
582.33,4037.8
582.463,2895.4
582.597,2329.7
582.731,2142.3
582.865,2079.0
582.998,2035.9
583.132,2025.4
583.266,2011.0
583.4,2014.2
583.533,1998.6
583.667,2013.5
583.801,1993.4
583.935,1999.8
584.068,2011.4
584.202,2002.8
584.336,2002.7
584.469,2020.3
584.603,2028.3
584.737,2028.0
584.87,2051.9
585.004,2047.1
585.138,2048.6
585.271,2089.2
585.405,2148.4
585.539,2277.4
585.672,2506.6
585.806,2783.9
585.94,3077.4
586.073,3247.3
586.207,3102.6
586.34,2859.2
586.474,2686.4
586.608,2466.0
586.741,2301.6
586.875,2193.5
587.008,2130.5
587.142,2100.6
587.276,2079.8
587.409,2078.8
587.543,2061.5
587.676,2055.1
587.81,2053.5
587.943,2054.7
588.077,2051.6
588.21,2046.4
588.344,2040.5
588.478,2043.6
588.611,2034.7
588.745,2029.9
588.878,2053.0
589.012,2032.9
589.145,2026.3
589.279,2040.7
589.412,2028.3
589.546,2038.2
589.679,2044.2
589.812,2037.7
589.946,2026.8
590.079,2051.5
590.213,2047.5
590.346,2046.5
590.48,2043.0
590.613,2054.0
590.747,2059.0
590.88,2044.7
591.013,2050.0
591.147,2057.2
591.28,2057.2
591.414,2066.4
591.547,2060.4
591.68,2060.0
591.814,2062.8
591.947,2048.1
592.081,2055.1
592.214,2048.0
592.347,2051.9
592.481,2067.4
592.614,2047.5
592.747,2068.0
592.881,2067.4
593.014,2056.6
593.147,2065.7
593.281,2060.5
593.414,2057.0
593.547,2070.3
593.681,2051.6
593.814,2071.5
593.947,2056.0
594.081,2067.3
594.214,2066.5
594.347,2068.6
594.48,2071.6
594.614,2074.5
594.747,2074.9
594.88,2080.3
595.014,2074.2
595.147,2084.5
595.28,2081.3
595.413,2096.8
595.547,2094.6
595.68,2094.6
595.813,2095.2
595.946,2101.2
596.079,2097.8
596.213,2084.3
596.346,2083.0
596.479,2103.4
596.612,2095.9
596.745,2105.2
596.879,2111.9
597.012,2118.9
597.145,2103.0
597.278,2108.4
597.411,2103.4
597.545,2108.6
597.678,2119.6
597.811,2107.3
597.944,2134.3
598.077,2121.7
598.21,2131.4
598.343,2144.7
598.476,2141.4
598.61,2137.0
598.743,2143.6
598.876,2151.1
599.009,2151.4
599.142,2149.2
599.275,2146.6
599.408,2151.0
599.541,2154.6
599.674,2152.1
599.807,2147.6
599.941,2146.3
600.074,2145.6
600.207,2134.7
600.34,2164.6
600.473,2156.2
600.606,2138.5
600.739,2147.4
600.872,2142.1
601.005,2143.7
601.138,2139.2
601.271,2151.5
601.404,2140.9
601.537,2148.3
601.67,2151.6
601.803,2165.1
601.936,2137.7
602.069,2141.6
602.202,2153.3
602.335,2156.6
602.468,2163.7
602.601,2165.4
602.734,2162.4
602.867,2172.4
603.0,2184.5
603.133,2172.9
603.266,2178.2
603.399,2178.3
603.532,2199.3
603.664,2202.4
603.797,2194.3
603.93,2202.0
604.063,2185.9
604.196,2203.0
604.329,2195.6
604.462,2196.8
604.595,2194.5
604.728,2183.6
604.861,2192.5
604.994,2190.4
605.126,2177.0
605.259,2176.5
605.392,2176.9
605.525,2185.7
605.658,2169.9
605.791,2193.5
605.924,2194.4
606.056,2182.5
606.189,2167.1
606.322,2191.4
606.455,2175.6
606.588,2170.8
606.721,2185.2
606.853,2188.5
606.986,2187.5
607.119,2186.0
607.252,2204.6
607.385,2211.4
607.517,2211.8
607.65,2216.8
607.783,2224.4
607.916,2222.7
608.049,2240.5
608.181,2225.8
608.314,2243.0
608.447,2242.6
608.58,2265.0
608.712,2257.8
608.845,2259.4
608.978,2257.3
609.111,2272.2
609.243,2262.2
609.376,2263.2
609.509,2260.7
609.641,2259.8
609.774,2264.6
609.907,2273.4
610.04,2284.0
610.172,2291.2
610.305,2288.1
610.438,2276.5
610.57,2275.9
610.703,2300.7
610.836,2292.3
610.968,2292.6
611.101,2299.1
611.234,2299.1
611.366,2300.2
611.499,2323.7
611.632,2314.7
611.764,2328.3
611.897,2313.7
612.03,2327.3
612.162,2338.8
612.295,2333.9
612.428,2339.7
612.56,2370.8
612.693,2377.7
612.825,2382.9
612.958,2389.1
613.091,2379.6
613.223,2407.7
613.356,2414.2
613.488,2406.4
613.621,2425.1
613.754,2431.2
613.886,2434.3
614.019,2420.4
614.151,2442.8
614.284,2443.3
614.416,2461.0
614.549,2449.0
614.681,2448.4
614.814,2452.5
614.947,2463.9
615.079,2461.8
615.212,2469.8
615.344,2455.9
615.477,2489.8
615.609,2455.3
615.742,2491.3
615.874,2474.7
616.007,2487.3
616.139,2488.0
616.272,2490.0
616.404,2506.7
616.537,2511.7
616.669,2508.0
616.802,2516.8
616.934,2524.3
617.067,2535.4
617.199,2538.9
617.332,2543.0
617.464,2555.0
617.596,2575.4
617.729,2558.7
617.861,2572.3
617.994,2570.8
618.126,2596.8
618.259,2579.4
618.391,2598.7
618.524,2610.0
618.656,2595.2
618.788,2626.9
618.921,2600.6
619.053,2616.3
619.186,2614.5
619.318,2604.9
619.45,2613.1
619.583,2615.1
619.715,2621.1
619.848,2628.9
619.98,2627.9
620.112,2623.3
620.245,2622.6
620.377,2637.4
620.509,2638.7
620.642,2647.6
620.774,2650.9
620.907,2647.1
621.039,2657.2
621.171,2661.1
621.304,2674.6
621.436,2675.6
621.568,2653.0
621.701,2691.1
621.833,2707.4
621.965,2689.3
622.097,2711.9
622.23,2703.2
622.362,2710.4
622.494,2718.8
622.627,2728.4
622.759,2723.3
622.891,2739.3
623.024,2759.2
623.156,2761.9
623.288,2777.7
623.42,2793.7
623.553,2775.8
623.685,2792.9
623.817,2809.9
623.949,2811.5
624.082,2814.6
624.214,2804.5
624.346,2801.5
624.479,2836.7
624.611,2814.3
624.743,2839.4
624.875,2853.9
625.007,2846.1
625.14,2855.1
625.272,2848.7
625.404,2851.6
625.536,2862.6
625.669,2853.7
625.801,2869.2
625.933,2873.1
626.065,2866.2
626.197,2877.0
626.33,2888.5
626.462,2878.9
626.594,2884.5
626.726,2871.6
626.858,2906.9
626.99,2906.2
627.123,2893.0
627.255,2908.9
627.387,2895.8
627.519,2906.1
627.651,2923.5
627.783,2917.6
627.916,2932.4
628.048,2937.8
628.18,2935.8
628.312,2951.8
628.444,2962.2
628.576,2976.9
628.708,2970.6
628.84,2984.3
628.973,3006.0
629.105,3018.5
629.237,3022.3
629.369,3012.8
629.501,3050.1
629.633,3060.5
629.765,3079.7
629.897,3061.2
630.029,3064.6
630.161,3050.1
630.294,3057.5
630.426,3064.3
630.558,3081.3
630.69,3076.3
630.822,3077.9
630.954,3115.6
631.086,3126.2
631.218,3132.2
631.35,3176.5
631.482,3197.4
631.614,3209.7
631.746,3239.6
631.878,3270.9
632.01,3254.2
632.142,3272.2
632.274,3252.7
632.406,3235.2
632.538,3194.2
632.67,3197.3
632.802,3193.2
632.934,3202.5
633.066,3187.0
633.198,3196.4
633.33,3227.8
633.462,3209.2
633.594,3186.1
633.726,3177.1
633.858,3172.8
633.99,3169.6
634.122,3151.8
634.254,3163.7
634.386,3179.9
634.518,3197.1
634.65,3184.5
634.782,3176.5
634.914,3168.1
635.046,3189.7
635.178,3204.7
635.31,3204.9
635.442,3219.1
635.574,3231.6
635.706,3249.9
635.838,3287.7
635.97,3322.0
636.102,3359.9
636.234,3410.9
636.365,3459.4
636.497,3500.4
636.629,3528.1
636.761,3488.3
636.893,3445.4
637.025,3394.3
637.157,3333.7
637.289,3325.1
637.421,3313.0
637.553,3305.2
637.685,3310.9
637.816,3290.9
637.948,3295.4
638.08,3290.7
638.212,3293.6
638.344,3304.2
638.476,3290.4
638.608,3304.7
638.74,3300.6
638.871,3302.8
639.003,3319.4
639.135,3316.8
639.267,3320.1
639.399,3309.8
639.531,3323.6
639.662,3325.7
639.794,3328.5
639.926,3341.3
640.058,3338.5
640.19,3362.8
640.322,3331.1
640.453,3343.2
640.585,3347.7
640.717,3332.6
640.849,3360.2
640.981,3370.0
641.113,3356.3
641.244,3357.3
641.376,3359.6
641.508,3378.1
641.64,3380.2
641.772,3393.4
641.903,3393.6
642.035,3381.5
642.167,3386.9
642.299,3384.7
642.43,3414.2
642.562,3417.5
642.694,3392.4
642.826,3408.6
642.958,3389.6
643.089,3380.2
643.221,3367.0
643.353,3379.2
643.485,3364.8
643.616,3376.2
643.748,3383.3
643.88,3355.9
644.012,3375.1
644.143,3370.6
644.275,3365.9
644.407,3363.7
644.538,3381.4
644.67,3374.5
644.802,3367.7
644.934,3366.5
645.065,3381.8
645.197,3388.6
645.329,3396.7
645.461,3390.2
645.592,3375.8
645.724,3388.2
645.856,3396.8
645.987,3398.6
646.119,3400.2
646.251,3396.2
646.382,3413.1
646.514,3393.5
646.646,3399.4
646.777,3423.0
646.909,3422.9
647.041,3428.0
647.172,3445.0
647.304,3433.8
647.436,3439.9
647.567,3452.4
647.699,3445.9
647.831,3431.7
647.962,3438.5
648.094,3447.9
648.226,3428.9
648.357,3443.0
648.489,3423.4
648.621,3433.7
648.752,3435.9
648.884,3433.8
649.016,3427.4
649.147,3424.5
649.279,3429.6
649.411,3423.1
649.542,3424.8
649.674,3425.3
649.805,3434.9
649.937,3435.9
650.069,3415.6
650.2,3431.7
650.332,3429.5
650.463,3425.6
650.595,3436.0
650.727,3401.8
650.858,3427.8
650.99,3444.9
651.121,3425.9
651.253,3432.5
651.385,3449.2
651.516,3459.5
651.648,3449.0
651.779,3455.2
651.911,3464.6
652.043,3443.0
652.174,3461.3
652.306,3461.3
652.437,3448.9
652.569,3445.3
652.7,3467.9
652.832,3478.9
652.963,3480.4
653.095,3462.1
653.227,3463.8
653.358,3476.8
653.49,3472.1
653.621,3484.4
653.753,3492.7
653.884,3474.9
654.016,3486.7
654.147,3494.0
654.279,3496.5
654.41,3493.9
654.542,3486.2
654.674,3482.3
654.805,3486.8
654.937,3479.7
655.068,3486.2
655.2,3489.4
655.331,3490.6
655.463,3475.0
655.594,3493.0
655.726,3502.7
655.857,3480.2
655.989,3488.0
656.12,3502.2
656.252,3475.8
656.383,3494.4
656.515,3491.3
656.646,3487.6
656.778,3502.3
656.909,3504.5
657.041,3484.8
657.172,3500.0
657.304,3511.6
657.435,3497.1
657.567,3501.5
657.698,3517.8
657.829,3520.4
657.961,3491.8
658.092,3508.7
658.224,3527.7
658.355,3518.5
658.487,3532.7
658.618,3531.8
658.75,3505.1
658.881,3517.4
659.013,3502.7
659.144,3530.8
659.275,3540.5
659.407,3545.3
659.538,3529.2
659.67,3507.2
659.801,3512.8
659.933,3531.6
660.064,3539.0
660.196,3531.4
660.327,3514.8
660.458,3513.0
660.59,3534.7
660.721,3526.2
660.853,3499.7
660.984,3500.8
661.116,3517.0
661.247,3515.6
661.378,3517.3
661.51,3482.9
661.641,3485.0
661.773,3503.0
661.904,3504.1
662.035,3501.0
662.167,3473.3
662.298,3486.4
662.43,3487.9
662.561,3475.8
662.692,3500.8
662.824,3462.4
662.955,3488.9
663.087,3479.0
