cm-1,A
4000.0,0.006
3999.0,0.006
3998.0,0.006
3997.0,0.006
3996.0,0.006
3995.0,0.006
3994.0,0.0059
3993.0,0.0058
3992.0,0.0058
3991.0,0.0059
3990.0,0.0059
3989.0,0.0059
3988.0,0.0059
3987.0,0.0059
3986.0,0.0059
3985.0,0.0059
3984.0,0.0058
3983.0,0.0058
3982.0,0.0058
3981.0,0.0059
3980.0,0.0059
3979.0,0.0059
3978.0,0.0059
3977.0,0.0059
3976.0,0.0058
3975.0,0.0057
3974.0,0.0057
3973.0,0.0056
3972.0,0.0056
3971.0,0.0056
3970.0,0.0057
3969.0,0.0057
3968.0,0.0056
3967.0,0.0056
3966.0,0.0056
3965.0,0.0056
3964.0,0.0056
3963.0,0.0056
3962.0,0.0056
3961.0,0.0056
3960.0,0.0056
3959.0,0.0057
3958.0,0.0058
3957.0,0.0058
3956.0,0.0058
3955.0,0.0058
3954.0,0.0058
3953.0,0.0058
3952.0,0.0057
3951.0,0.0057
3950.0,0.0057
3949.0,0.0057
3948.0,0.0058
3947.0,0.0059
3946.0,0.006
3945.0,0.006
3944.0,0.006
3943.0,0.006
3942.0,0.006
3941.0,0.006
3940.0,0.006
3939.0,0.0059
3938.0,0.0058
3937.0,0.0058
3936.0,0.0059
3935.0,0.0059
3934.0,0.006
3933.0,0.0059
3932.0,0.0059
3931.0,0.0059
3930.0,0.0059
3929.0,0.0059
3928.0,0.0059
3927.0,0.0059
3926.0,0.0059
3925.0,0.006
3924.0,0.0061
3923.0,0.0063
3922.0,0.0063
3921.0,0.0062
3920.0,0.0062
3919.0,0.0061
3918.0,0.006
3917.0,0.006
3916.0,0.0059
3915.0,0.0059
3914.0,0.006
3913.0,0.006
3912.0,0.0061
3911.0,0.0061
3910.0,0.0061
3909.0,0.0061
3908.0,0.0061
3907.0,0.0061
3906.0,0.0061
3905.0,0.0061
3904.0,0.0061
3903.0,0.0061
3902.0,0.006
3901.0,0.006
3900.0,0.006
3899.0,0.006
3898.0,0.0061
3897.0,0.0062
3896.0,0.0062
3895.0,0.0063
3894.0,0.0063
3893.0,0.0063
3892.0,0.0062
3891.0,0.0062
3890.0,0.0061
3889.0,0.0061
3888.0,0.0062
3887.0,0.0062
3886.0,0.0063
3885.0,0.0063
3884.0,0.0063
3883.0,0.0062
3882.0,0.006
3881.0,0.0059
3880.0,0.0059
3879.0,0.006
3878.0,0.0061
3877.0,0.0062
3876.0,0.0061
3875.0,0.0061
3874.0,0.0062
3873.0,0.0062
3872.0,0.0062
3871.0,0.0062
3870.0,0.0062
3869.0,0.0063
3868.0,0.0064
3867.0,0.0065
3866.0,0.0065
3865.0,0.0065
3864.0,0.0064
3863.0,0.0064
3862.0,0.0063
3861.0,0.0062
3860.0,0.0062
3859.0,0.0062
3858.0,0.0062
3857.0,0.0063
3856.0,0.0063
3855.0,0.0063
3854.0,0.0062
3853.0,0.0061
3852.0,0.0061
3851.0,0.0063
3850.0,0.0064
3849.0,0.0064
3848.0,0.0063
3847.0,0.0062
3846.0,0.0061
3845.0,0.0061
3844.0,0.0062
3843.0,0.0063
3842.0,0.0064
3841.0,0.0065
3840.0,0.0064
3839.0,0.0062
3838.0,0.006
3837.0,0.0059
3836.0,0.0059
3835.0,0.006
3834.0,0.0061
3833.0,0.0062
3832.0,0.0063
3831.0,0.0065
3830.0,0.0066
3829.0,0.0066
3828.0,0.0065
3827.0,0.0064
3826.0,0.0062
3825.0,0.0061
3824.0,0.006
3823.0,0.0059
3822.0,0.006
3821.0,0.0063
3820.0,0.0065
3819.0,0.0066
3818.0,0.0066
3817.0,0.0064
3816.0,0.0063
3815.0,0.0062
3814.0,0.0062
3813.0,0.0062
3812.0,0.0062
3811.0,0.0062
3810.0,0.0062
3809.0,0.0063
3808.0,0.0063
3807.0,0.0064
3806.0,0.0064
3805.0,0.0065
3804.0,0.0065
3803.0,0.0065
3802.0,0.0065
3801.0,0.0064
3800.0,0.0064
3799.0,0.0064
3798.0,0.0063
3797.0,0.0063
3796.0,0.0063
3795.0,0.0064
3794.0,0.0064
3793.0,0.0064
3792.0,0.0064
3791.0,0.0063
3790.0,0.0063
3789.0,0.0063
3788.0,0.0064
3787.0,0.0064
3786.0,0.0065
3785.0,0.0065
3784.0,0.0065
3783.0,0.0065
3782.0,0.0064
3781.0,0.0063
3780.0,0.0063
3779.0,0.0064
3778.0,0.0064
3777.0,0.0065
3776.0,0.0064
3775.0,0.0064
3774.0,0.0063
3773.0,0.0064
3772.0,0.0064
3771.0,0.0065
3770.0,0.0065
3769.0,0.0066
3768.0,0.0066
3767.0,0.0066
3766.0,0.0067
3765.0,0.0068
3764.0,0.0068
3763.0,0.0068
3762.0,0.0068
3761.0,0.0068
3760.0,0.0067
3759.0,0.0067
3758.0,0.0066
3757.0,0.0065
3756.0,0.0065
3755.0,0.0065
3754.0,0.0067
3753.0,0.0069
3752.0,0.0072
3751.0,0.0072
3750.0,0.007
3749.0,0.0069
3748.0,0.0069
3747.0,0.0071
3746.0,0.0072
3745.0,0.0073
3744.0,0.0073
3743.0,0.0073
3742.0,0.0073
3741.0,0.0073
3740.0,0.0072
3739.0,0.0072
3738.0,0.0072
3737.0,0.0072
3736.0,0.0071
3735.0,0.0071
3734.0,0.0071
3733.0,0.0071
3732.0,0.0072
3731.0,0.0073
3730.0,0.0074
3729.0,0.0074
3728.0,0.0075
3727.0,0.0075
3726.0,0.0076
3725.0,0.0076
3724.0,0.0075
3723.0,0.0073
3722.0,0.0072
3721.0,0.007
3720.0,0.0069
3719.0,0.0069
3718.0,0.0068
3717.0,0.0068
3716.0,0.0069
3715.0,0.0068
3714.0,0.0069
3713.0,0.007
3712.0,0.0073
3711.0,0.0075
3710.0,0.0074
3709.0,0.0073
3708.0,0.0073
3707.0,0.0072
3706.0,0.0071
3705.0,0.007
3704.0,0.0068
3703.0,0.0067
3702.0,0.0066
3701.0,0.0065
3700.0,0.0066
3699.0,0.0068
3698.0,0.0069
3697.0,0.0069
3696.0,0.0069
3695.0,0.007
3694.0,0.007
3693.0,0.007
3692.0,0.007
3691.0,0.007
3690.0,0.007
3689.0,0.007
3688.0,0.007
3687.0,0.0071
3686.0,0.0072
3685.0,0.0072
3684.0,0.0072
3683.0,0.0072
3682.0,0.0072
3681.0,0.0071
3680.0,0.0071
3679.0,0.0071
3678.0,0.0071
3677.0,0.0071
3676.0,0.007
3675.0,0.007
3674.0,0.007
3673.0,0.007
3672.0,0.0069
3671.0,0.0069
3670.0,0.0069
3669.0,0.0069
3668.0,0.007
3667.0,0.0071
3666.0,0.0071
3665.0,0.0072
3664.0,0.0072
3663.0,0.0073
3662.0,0.0073
3661.0,0.0072
3660.0,0.0072
3659.0,0.0071
3658.0,0.007
3657.0,0.007
3656.0,0.007
3655.0,0.007
3654.0,0.0071
3653.0,0.007
3652.0,0.0071
3651.0,0.0074
3650.0,0.0079
3649.0,0.008
3648.0,0.0077
3647.0,0.0075
3646.0,0.0074
3645.0,0.0074
3644.0,0.0075
3643.0,0.0075
3642.0,0.0075
3641.0,0.0075
3640.0,0.0076
3639.0,0.0076
3638.0,0.0077
3637.0,0.0077
3636.0,0.0078
3635.0,0.0078
3634.0,0.0079
3633.0,0.008
3632.0,0.008
3631.0,0.008
3630.0,0.008
3629.0,0.0081
3628.0,0.0081
3627.0,0.0081
3626.0,0.008
3625.0,0.0079
3624.0,0.0079
3623.0,0.0079
3622.0,0.0078
3621.0,0.0077
3620.0,0.0077
3619.0,0.0078
3618.0,0.008
3617.0,0.0081
3616.0,0.0082
3615.0,0.0082
3614.0,0.0081
3613.0,0.008
3612.0,0.0081
3611.0,0.0081
3610.0,0.0083
3609.0,0.0086
3608.0,0.0088
3607.0,0.0088
3606.0,0.0087
3605.0,0.0086
3604.0,0.0086
3603.0,0.0086
3602.0,0.0087
3601.0,0.0087
3600.0,0.0087
3599.0,0.0087
3598.0,0.0087
3597.0,0.0088
3596.0,0.009
3595.0,0.0091
3594.0,0.0091
3593.0,0.0091
3592.0,0.0092
3591.0,0.0092
3590.0,0.0093
3589.0,0.0094
3588.0,0.0094
3587.0,0.0094
3586.0,0.0095
3585.0,0.0095
3584.0,0.0095
3583.0,0.0094
3582.0,0.0093
3581.0,0.0093
3580.0,0.0093
3579.0,0.0094
3578.0,0.0096
3577.0,0.0097
3576.0,0.0097
3575.0,0.0097
3574.0,0.0096
3573.0,0.0095
3572.0,0.0094
3571.0,0.0092
3570.0,0.0092
3569.0,0.0092
3568.0,0.0094
3567.0,0.0097
3566.0,0.0098
3565.0,0.0099
3564.0,0.0099
3563.0,0.0099
3562.0,0.01
3561.0,0.01
3560.0,0.01
3559.0,0.01
3558.0,0.01
3557.0,0.01
3556.0,0.0099
3555.0,0.0098
3554.0,0.0097
3553.0,0.0097
3552.0,0.0098
3551.0,0.0099
3550.0,0.01
3549.0,0.01
3548.0,0.01
3547.0,0.01
3546.0,0.0101
3545.0,0.0102
3544.0,0.0104
3543.0,0.0105
3542.0,0.0106
3541.0,0.0107
3540.0,0.0107
3539.0,0.0108
3538.0,0.0107
3537.0,0.0107
3536.0,0.0106
3535.0,0.0107
3534.0,0.0107
3533.0,0.0108
3532.0,0.0108
3531.0,0.0108
3530.0,0.0107
3529.0,0.0106
3528.0,0.0106
3527.0,0.0107
3526.0,0.0108
3525.0,0.0109
3524.0,0.011
3523.0,0.011
3522.0,0.0111
3521.0,0.0112
3520.0,0.0113
3519.0,0.0114
3518.0,0.0114
3517.0,0.0114
3516.0,0.0114
3515.0,0.0113
3514.0,0.0113
3513.0,0.0113
3512.0,0.0114
3511.0,0.0115
3510.0,0.0115
3509.0,0.0116
3508.0,0.0116
3507.0,0.0116
3506.0,0.0116
3505.0,0.0115
3504.0,0.0116
3503.0,0.0116
3502.0,0.0117
3501.0,0.0117
3500.0,0.0118
3499.0,0.0118
3498.0,0.0119
3497.0,0.0119
3496.0,0.0119
3495.0,0.0119
3494.0,0.0118
3493.0,0.0118
3492.0,0.0119
3491.0,0.012
3490.0,0.012
3489.0,0.0121
3488.0,0.0121
3487.0,0.0121
3486.0,0.0122
3485.0,0.0122
3484.0,0.0122
3483.0,0.0121
3482.0,0.0121
3481.0,0.0122
3480.0,0.0122
3479.0,0.0122
3478.0,0.0122
3477.0,0.0122
3476.0,0.0123
3475.0,0.0125
3474.0,0.0126
3473.0,0.0127
3472.0,0.0127
3471.0,0.0126
3470.0,0.0125
3469.0,0.0124
3468.0,0.0124
3467.0,0.0125
3466.0,0.0126
3465.0,0.0127
3464.0,0.0128
3463.0,0.0129
3462.0,0.0129
3461.0,0.0129
3460.0,0.013
3459.0,0.0131
3458.0,0.0131
3457.0,0.0131
3456.0,0.013
3455.0,0.0129
3454.0,0.013
3453.0,0.0132
3452.0,0.0133
3451.0,0.0133
3450.0,0.0132
3449.0,0.0132
3448.0,0.0132
3447.0,0.0132
3446.0,0.0133
3445.0,0.0133
3444.0,0.0133
3443.0,0.0133
3442.0,0.0132
3441.0,0.0131
3440.0,0.0131
3439.0,0.013
3438.0,0.0131
3437.0,0.0131
3436.0,0.0132
3435.0,0.0132
3434.0,0.0133
3433.0,0.0134
3432.0,0.0135
3431.0,0.0135
3430.0,0.0135
3429.0,0.0134
3428.0,0.0134
3427.0,0.0133
3426.0,0.0133
3425.0,0.0133
3424.0,0.0133
3423.0,0.0133
3422.0,0.0134
3421.0,0.0134
3420.0,0.0134
3419.0,0.0134
3418.0,0.0134
3417.0,0.0133
3416.0,0.0132
3415.0,0.0132
3414.0,0.0133
3413.0,0.0134
3412.0,0.0135
3411.0,0.0134
3410.0,0.0134
3409.0,0.0134
3408.0,0.0134
3407.0,0.0135
3406.0,0.0136
3405.0,0.0136
3404.0,0.0136
3403.0,0.0136
3402.0,0.0136
3401.0,0.0136
3400.0,0.0136
3399.0,0.0136
3398.0,0.0136
3397.0,0.0135
3396.0,0.0134
3395.0,0.0133
3394.0,0.0133
3393.0,0.0133
3392.0,0.0134
3391.0,0.0135
3390.0,0.0135
3389.0,0.0135
3388.0,0.0134
3387.0,0.0134
3386.0,0.0134
3385.0,0.0133
3384.0,0.0132
3383.0,0.0132
3382.0,0.0132
3381.0,0.0133
3380.0,0.0133
3379.0,0.0133
3378.0,0.0133
3377.0,0.0132
3376.0,0.0131
3375.0,0.0131
3374.0,0.013
3373.0,0.0129
3372.0,0.0129
3371.0,0.0128
3370.0,0.0128
3369.0,0.0129
3368.0,0.0129
3367.0,0.0129
3366.0,0.0129
3365.0,0.0129
3364.0,0.0128
3363.0,0.0127
3362.0,0.0127
3361.0,0.0127
3360.0,0.0127
3359.0,0.0127
3358.0,0.0127
3357.0,0.0127
3356.0,0.0127
3355.0,0.0127
3354.0,0.0126
3353.0,0.0125
3352.0,0.0125
3351.0,0.0125
3350.0,0.0125
3349.0,0.0125
3348.0,0.0124
3347.0,0.0123
3346.0,0.0122
3345.0,0.0121
3344.0,0.0122
3343.0,0.0122
3342.0,0.0123
3341.0,0.0123
3340.0,0.0123
3339.0,0.0122
3338.0,0.0121
3337.0,0.0119
3336.0,0.0119
3335.0,0.0119
3334.0,0.012
3333.0,0.0121
3332.0,0.012
3331.0,0.0119
3330.0,0.0118
3329.0,0.0117
3328.0,0.0117
3327.0,0.0116
3326.0,0.0116
3325.0,0.0116
3324.0,0.0116
3323.0,0.0116
3322.0,0.0116
3321.0,0.0115
3320.0,0.0115
3319.0,0.0115
3318.0,0.0115
3317.0,0.0115
3316.0,0.0114
3315.0,0.0114
3314.0,0.0114
3313.0,0.0114
3312.0,0.0114
3311.0,0.0113
3310.0,0.0113
3309.0,0.0114
3308.0,0.0114
3307.0,0.0115
3306.0,0.0116
3305.0,0.0116
3304.0,0.0116
3303.0,0.0116
3302.0,0.0116
3301.0,0.0114
3300.0,0.0113
3299.0,0.0111
3298.0,0.0111
3297.0,0.0111
3296.0,0.0112
3295.0,0.0112
3294.0,0.0111
3293.0,0.0111
3292.0,0.011
3291.0,0.011
3290.0,0.011
3289.0,0.011
3288.0,0.0109
3287.0,0.0109
3286.0,0.0109
3285.0,0.0109
3284.0,0.0108
3283.0,0.0108
3282.0,0.0109
3281.0,0.0109
3280.0,0.011
3279.0,0.0111
3278.0,0.011
3277.0,0.011
3276.0,0.0109
3275.0,0.0108
3274.0,0.0108
3273.0,0.0107
3272.0,0.0107
3271.0,0.0107
3270.0,0.0107
3269.0,0.0107
3268.0,0.0107
3267.0,0.0107
3266.0,0.0107
3265.0,0.0107
3264.0,0.0106
3263.0,0.0106
3262.0,0.0106
3261.0,0.0107
3260.0,0.0106
3259.0,0.0105
3258.0,0.0104
3257.0,0.0103
3256.0,0.0102
3255.0,0.0103
3254.0,0.0103
3253.0,0.0103
3252.0,0.0103
3251.0,0.0103
3250.0,0.0102
3249.0,0.0101
3248.0,0.0101
3247.0,0.0102
3246.0,0.0102
3245.0,0.0102
3244.0,0.0102
3243.0,0.0102
3242.0,0.0102
3241.0,0.0101
3240.0,0.0101
3239.0,0.0102
3238.0,0.0102
3237.0,0.0103
3236.0,0.0103
3235.0,0.0102
3234.0,0.0101
3233.0,0.01
3232.0,0.0099
3231.0,0.0099
3230.0,0.0099
3229.0,0.0098
3228.0,0.0098
3227.0,0.0097
3226.0,0.0097
3225.0,0.0097
3224.0,0.0097
3223.0,0.0097
3222.0,0.0097
3221.0,0.0097
3220.0,0.0098
3219.0,0.0098
3218.0,0.0098
3217.0,0.0098
3216.0,0.0097
3215.0,0.0097
3214.0,0.0097
3213.0,0.0098
3212.0,0.0098
3211.0,0.0098
3210.0,0.0099
3209.0,0.0099
3208.0,0.0099
3207.0,0.0099
3206.0,0.0098
3205.0,0.0097
3204.0,0.0097
3203.0,0.0098
3202.0,0.0098
3201.0,0.0098
3200.0,0.0098
3199.0,0.0098
3198.0,0.0097
3197.0,0.0095
3196.0,0.0094
3195.0,0.0093
3194.0,0.0092
3193.0,0.0093
3192.0,0.0094
3191.0,0.0094
3190.0,0.0095
3189.0,0.0095
3188.0,0.0095
3187.0,0.0095
3186.0,0.0094
3185.0,0.0093
3184.0,0.0092
3183.0,0.009
3182.0,0.0089
3181.0,0.0089
3180.0,0.0089
3179.0,0.009
3178.0,0.0091
3177.0,0.009
3176.0,0.0089
3175.0,0.0089
3174.0,0.0088
3173.0,0.0088
3172.0,0.0088
3171.0,0.0088
3170.0,0.0088
3169.0,0.0088
3168.0,0.0088
3167.0,0.0088
3166.0,0.0088
3165.0,0.0087
3164.0,0.0087
3163.0,0.0088
3162.0,0.0088
3161.0,0.0089
3160.0,0.0089
3159.0,0.0089
3158.0,0.0089
3157.0,0.0088
3156.0,0.0086
3155.0,0.0085
3154.0,0.0085
3153.0,0.0086
3152.0,0.0087
3151.0,0.0087
3150.0,0.0087
3149.0,0.0086
3148.0,0.0085
3147.0,0.0084
3146.0,0.0084
3145.0,0.0084
3144.0,0.0084
3143.0,0.0084
3142.0,0.0084
3141.0,0.0084
3140.0,0.0084
3139.0,0.0084
3138.0,0.0084
3137.0,0.0084
3136.0,0.0083
3135.0,0.0082
3134.0,0.0081
3133.0,0.0081
3132.0,0.0081
3131.0,0.0082
3130.0,0.0081
3129.0,0.0081
3128.0,0.0081
3127.0,0.0081
3126.0,0.0081
3125.0,0.0081
3124.0,0.008
3123.0,0.008
3122.0,0.0078
3121.0,0.0077
3120.0,0.0076
3119.0,0.0076
3118.0,0.0076
3117.0,0.0077
3116.0,0.0077
3115.0,0.0077
3114.0,0.0076
3113.0,0.0075
3112.0,0.0075
3111.0,0.0075
3110.0,0.0075
3109.0,0.0075
3108.0,0.0075
3107.0,0.0074
3106.0,0.0074
3105.0,0.0073
3104.0,0.0073
3103.0,0.0073
3102.0,0.0073
3101.0,0.0073
3100.0,0.0073
3099.0,0.0073
3098.0,0.0073
3097.0,0.0073
3096.0,0.0073
3095.0,0.0073
3094.0,0.0072
3093.0,0.0071
3092.0,0.0071
3091.0,0.0071
3090.0,0.0071
3089.0,0.0071
3088.0,0.0071
3087.0,0.007
3086.0,0.0068
3085.0,0.0068
3084.0,0.0068
3083.0,0.0069
3082.0,0.0069
3081.0,0.0069
3080.0,0.0068
3079.0,0.0066
3078.0,0.0065
3077.0,0.0063
3076.0,0.0063
3075.0,0.0063
3074.0,0.0063
3073.0,0.0063
3072.0,0.0063
3071.0,0.0063
3070.0,0.0063
3069.0,0.0064
3068.0,0.0064
3067.0,0.0065
3066.0,0.0065
3065.0,0.0065
3064.0,0.0065
3063.0,0.0065
3062.0,0.0064
3061.0,0.0063
3060.0,0.0063
3059.0,0.0062
3058.0,0.0062
3057.0,0.0061
3056.0,0.0061
3055.0,0.006
3054.0,0.0059
3053.0,0.0059
3052.0,0.0059
3051.0,0.006
3050.0,0.0061
3049.0,0.0061
3048.0,0.006
3047.0,0.0059
3046.0,0.0058
3045.0,0.0057
3044.0,0.0056
3043.0,0.0056
3042.0,0.0056
3041.0,0.0056
3040.0,0.0056
3039.0,0.0056
3038.0,0.0056
3037.0,0.0057
3036.0,0.0057
3035.0,0.0058
3034.0,0.0057
3033.0,0.0057
3032.0,0.0056
3031.0,0.0055
3030.0,0.0055
3029.0,0.0056
3028.0,0.0056
3027.0,0.0056
3026.0,0.0055
3025.0,0.0054
3024.0,0.0053
3023.0,0.0052
3022.0,0.0052
3021.0,0.0052
3020.0,0.0052
3019.0,0.0052
3018.0,0.0051
3017.0,0.005
3016.0,0.0049
3015.0,0.0048
3014.0,0.0048
3013.0,0.0048
3012.0,0.0049
3011.0,0.0049
3010.0,0.005
3009.0,0.005
3008.0,0.0051
3007.0,0.0051
3006.0,0.0051
3005.0,0.0051
3004.0,0.0051
3003.0,0.0052
3002.0,0.0052
3001.0,0.0053
3000.0,0.0053
2999.0,0.0053
2998.0,0.0053
2997.0,0.0053
2996.0,0.0054
2995.0,0.0056
2994.0,0.0057
2993.0,0.0059
2992.0,0.006
2991.0,0.0062
2990.0,0.0065
2989.0,0.0068
2988.0,0.007
2987.0,0.0073
2986.0,0.0077
2985.0,0.0083
2984.0,0.0089
2983.0,0.0097
2982.0,0.0105
2981.0,0.0115
2980.0,0.0126
2979.0,0.0139
2978.0,0.0154
2977.0,0.0172
2976.0,0.0194
2975.0,0.0219
2974.0,0.0247
2973.0,0.0279
2972.0,0.0316
2971.0,0.0358
2970.0,0.0405
2969.0,0.0457
2968.0,0.0513
2967.0,0.0572
2966.0,0.0633
2965.0,0.0694
2964.0,0.0753
2963.0,0.0804
2962.0,0.0844
2961.0,0.087
2960.0,0.0885
2959.0,0.0892
2958.0,0.0898
2957.0,0.091
2956.0,0.093
2955.0,0.0962
2954.0,0.1002
2953.0,0.1045
2952.0,0.1084
2951.0,0.1107
2950.0,0.1108
2949.0,0.1084
2948.0,0.1038
2947.0,0.0976
2946.0,0.0904
2945.0,0.0831
2944.0,0.0762
2943.0,0.0702
2942.0,0.0655
2941.0,0.0621
2940.0,0.0599
2939.0,0.0588
2938.0,0.0588
2937.0,0.0598
2936.0,0.0617
2935.0,0.0645
2934.0,0.0681
2933.0,0.0724
2932.0,0.0773
2931.0,0.0828
2930.0,0.0887
2929.0,0.0949
2928.0,0.101
2927.0,0.1071
2926.0,0.1131
2925.0,0.119
2924.0,0.125
2923.0,0.1309
2922.0,0.1368
2921.0,0.1423
2920.0,0.147
2919.0,0.1501
2918.0,0.1511
2917.0,0.1498
2916.0,0.1464
2915.0,0.1415
2914.0,0.1359
2913.0,0.1303
2912.0,0.1253
2911.0,0.121
2910.0,0.1175
2909.0,0.1145
2908.0,0.1118
2907.0,0.1092
2906.0,0.1063
2905.0,0.1032
2904.0,0.1
2903.0,0.0966
2902.0,0.0933
2901.0,0.09
2900.0,0.0869
2899.0,0.0839
2898.0,0.0812
2897.0,0.0786
2896.0,0.0764
2895.0,0.0744
2894.0,0.0726
2893.0,0.0712
2892.0,0.0701
2891.0,0.0694
2890.0,0.0689
2889.0,0.0686
2888.0,0.0685
2887.0,0.0686
2886.0,0.0688
2885.0,0.0691
2884.0,0.0696
2883.0,0.0702
2882.0,0.071
2881.0,0.0719
2880.0,0.0727
2879.0,0.0731
2878.0,0.0732
2877.0,0.073
2876.0,0.0725
2875.0,0.072
2874.0,0.0718
2873.0,0.0721
2872.0,0.0728
2871.0,0.0738
2870.0,0.075
2869.0,0.0762
2868.0,0.0769
2867.0,0.0769
2866.0,0.0757
2865.0,0.0731
2864.0,0.0695
2863.0,0.0653
2862.0,0.0611
2861.0,0.0574
2860.0,0.0543
2859.0,0.0521
2858.0,0.0506
2857.0,0.0499
2856.0,0.0499
2855.0,0.0505
2854.0,0.0517
2853.0,0.0532
2852.0,0.0548
2851.0,0.0564
2850.0,0.0577
2849.0,0.0588
2848.0,0.0597
2847.0,0.0608
2846.0,0.0624
2845.0,0.0647
2844.0,0.0675
2843.0,0.0708
2842.0,0.074
2841.0,0.0768
2840.0,0.0787
2839.0,0.0795
2838.0,0.0788
2837.0,0.0766
2836.0,0.0732
2835.0,0.0687
2834.0,0.0638
2833.0,0.0589
2832.0,0.0544
2831.0,0.0504
2830.0,0.0471
2829.0,0.0443
2828.0,0.042
2827.0,0.0401
2826.0,0.0384
2825.0,0.037
2824.0,0.0357
2823.0,0.0346
2822.0,0.0337
2821.0,0.0329
2820.0,0.0321
2819.0,0.0315
2818.0,0.0309
2817.0,0.0303
2816.0,0.0298
2815.0,0.0294
2814.0,0.029
2813.0,0.0286
2812.0,0.0283
2811.0,0.0279
2810.0,0.0275
2809.0,0.0271
2808.0,0.0267
2807.0,0.0263
2806.0,0.0259
2805.0,0.0255
2804.0,0.0252
2803.0,0.0248
2802.0,0.0246
2801.0,0.0243
2800.0,0.024
2799.0,0.0238
2798.0,0.0235
2797.0,0.0233
2796.0,0.023
2795.0,0.0228
2794.0,0.0226
2793.0,0.0224
2792.0,0.0222
2791.0,0.022
2790.0,0.0217
2789.0,0.0215
2788.0,0.0212
2787.0,0.0209
2786.0,0.0207
2785.0,0.0206
2784.0,0.0204
2783.0,0.0203
2782.0,0.0202
2781.0,0.02
2780.0,0.0198
2779.0,0.0196
2778.0,0.0194
2777.0,0.0193
2776.0,0.0191
2775.0,0.019
2774.0,0.0189
2773.0,0.0188
2772.0,0.0187
2771.0,0.0186
2770.0,0.0186
2769.0,0.0185
2768.0,0.0185
2767.0,0.0184
2766.0,0.0183
2765.0,0.0182
2764.0,0.0181
2763.0,0.018
2762.0,0.0179
2761.0,0.0178
2760.0,0.0177
2759.0,0.0177
2758.0,0.0177
2757.0,0.0176
2756.0,0.0176
2755.0,0.0175
2754.0,0.0174
2753.0,0.0174
2752.0,0.0173
2751.0,0.0173
2750.0,0.0172
2749.0,0.0171
2748.0,0.0171
2747.0,0.0172
2746.0,0.0173
2745.0,0.0174
2744.0,0.0175
2743.0,0.0175
2742.0,0.0175
2741.0,0.0174
2740.0,0.0174
2739.0,0.0174
2738.0,0.0174
2737.0,0.0175
2736.0,0.0175
2735.0,0.0175
2734.0,0.0175
2733.0,0.0176
2732.0,0.0176
2731.0,0.0177
2730.0,0.0178
2729.0,0.018
2728.0,0.0182
2727.0,0.0184
2726.0,0.0186
2725.0,0.0188
2724.0,0.0189
2723.0,0.0189
2722.0,0.0188
2721.0,0.0187
2720.0,0.0184
2719.0,0.0182
2718.0,0.018
2717.0,0.0179
2716.0,0.0177
2715.0,0.0175
2714.0,0.0174
2713.0,0.0173
2712.0,0.0172
2711.0,0.0171
2710.0,0.017
2709.0,0.0169
2708.0,0.0169
2707.0,0.0168
2706.0,0.0167
2705.0,0.0167
2704.0,0.0166
2703.0,0.0165
2702.0,0.0164
2701.0,0.0163
2700.0,0.0163
2699.0,0.0163
2698.0,0.0163
2697.0,0.0163
2696.0,0.0163
2695.0,0.0163
2694.0,0.0162
2693.0,0.0162
2692.0,0.0162
2691.0,0.0162
2690.0,0.0161
2689.0,0.0161
2688.0,0.016
2687.0,0.0159
2686.0,0.0159
2685.0,0.0159
2684.0,0.0159
2683.0,0.0159
2682.0,0.0159
2681.0,0.0159
2680.0,0.016
2679.0,0.016
2678.0,0.016
2677.0,0.0159
2676.0,0.0158
2675.0,0.0158
2674.0,0.0158
2673.0,0.0158
2672.0,0.0158
2671.0,0.0158
2670.0,0.0158
2669.0,0.0158
2668.0,0.0158
2667.0,0.0158
2666.0,0.0158
2665.0,0.0158
2664.0,0.0157
2663.0,0.0157
2662.0,0.0156
2661.0,0.0156
2660.0,0.0156
2659.0,0.0155
2658.0,0.0154
2657.0,0.0154
2656.0,0.0154
2655.0,0.0154
2654.0,0.0154
2653.0,0.0154
2652.0,0.0153
2651.0,0.0152
2650.0,0.0152
2649.0,0.0151
2648.0,0.0151
2647.0,0.0151
2646.0,0.0151
2645.0,0.0151
2644.0,0.0151
2643.0,0.0151
2642.0,0.0151
2641.0,0.0151
2640.0,0.0151
2639.0,0.015
2638.0,0.015
2637.0,0.0149
2636.0,0.0148
2635.0,0.0148
2634.0,0.0148
2633.0,0.0148
2632.0,0.0149
2631.0,0.0149
2630.0,0.0149
2629.0,0.0148
2628.0,0.0148
2627.0,0.0148
2626.0,0.0148
2625.0,0.0149
2624.0,0.015
2623.0,0.015
2622.0,0.0151
2621.0,0.0151
2620.0,0.0151
2619.0,0.015
2618.0,0.015
2617.0,0.0149
2616.0,0.0149
2615.0,0.0149
2614.0,0.015
2613.0,0.015
2612.0,0.015
2611.0,0.0149
2610.0,0.0147
2609.0,0.0146
2608.0,0.0146
2607.0,0.0146
2606.0,0.0145
2605.0,0.0145
2604.0,0.0145
2603.0,0.0144
2602.0,0.0142
2601.0,0.0142
2600.0,0.0142
2599.0,0.0142
2598.0,0.0143
2597.0,0.0144
2596.0,0.0144
2595.0,0.0144
2594.0,0.0144
2593.0,0.0145
2592.0,0.0145
2591.0,0.0145
2590.0,0.0146
2589.0,0.0146
2588.0,0.0147
2587.0,0.0148
2586.0,0.0149
2585.0,0.0149
2584.0,0.0149
2583.0,0.0148
2582.0,0.0149
2581.0,0.0149
2580.0,0.0149
2579.0,0.0148
2578.0,0.0148
2577.0,0.0147
2576.0,0.0147
2575.0,0.0146
2574.0,0.0145
2573.0,0.0145
2572.0,0.0144
2571.0,0.0143
2570.0,0.0143
2569.0,0.0142
2568.0,0.0142
2567.0,0.0141
2566.0,0.0141
2565.0,0.014
2564.0,0.014
2563.0,0.0139
2562.0,0.0138
2561.0,0.0138
2560.0,0.0139
2559.0,0.0139
2558.0,0.014
2557.0,0.014
2556.0,0.014
2555.0,0.014
2554.0,0.014
2553.0,0.0139
2552.0,0.0139
2551.0,0.0138
2550.0,0.0138
2549.0,0.0137
2548.0,0.0137
2547.0,0.0137
2546.0,0.0137
2545.0,0.0137
2544.0,0.0136
2543.0,0.0136
2542.0,0.0136
2541.0,0.0136
2540.0,0.0136
2539.0,0.0135
2538.0,0.0134
2537.0,0.0133
2536.0,0.0133
2535.0,0.0133
2534.0,0.0134
2533.0,0.0134
2532.0,0.0134
2531.0,0.0134
2530.0,0.0134
2529.0,0.0134
2528.0,0.0134
2527.0,0.0134
2526.0,0.0134
2525.0,0.0134
2524.0,0.0133
2523.0,0.0133
2522.0,0.0133
2521.0,0.0133
2520.0,0.0133
2519.0,0.0132
2518.0,0.0133
2517.0,0.0133
2516.0,0.0134
2515.0,0.0134
2514.0,0.0133
2513.0,0.0132
2512.0,0.0131
2511.0,0.013
2510.0,0.013
2509.0,0.0131
2508.0,0.0131
2507.0,0.0131
2506.0,0.0131
2505.0,0.013
2504.0,0.0129
2503.0,0.0129
2502.0,0.0129
2501.0,0.013
2500.0,0.013
2499.0,0.0131
2498.0,0.0132
2497.0,0.0132
2496.0,0.0132
2495.0,0.0133
2494.0,0.0133
2493.0,0.0132
2492.0,0.0132
2491.0,0.0131
2490.0,0.0131
2489.0,0.013
2488.0,0.013
2487.0,0.0129
2486.0,0.0129
2485.0,0.0129
2484.0,0.0129
2483.0,0.013
2482.0,0.0131
2481.0,0.0131
2480.0,0.0131
2479.0,0.0131
2478.0,0.0131
2477.0,0.0131
2476.0,0.013
2475.0,0.013
2474.0,0.0129
2473.0,0.0129
2472.0,0.0129
2471.0,0.0129
2470.0,0.0129
2469.0,0.0128
2468.0,0.0128
2467.0,0.0128
2466.0,0.0128
2465.0,0.0128
2464.0,0.0128
2463.0,0.0128
2462.0,0.0128
2461.0,0.0128
2460.0,0.0128
2459.0,0.0128
2458.0,0.0128
2457.0,0.0128
2456.0,0.0128
2455.0,0.0128
2454.0,0.0129
2453.0,0.013
2452.0,0.013
2451.0,0.013
2450.0,0.0129
2449.0,0.0129
2448.0,0.0129
2447.0,0.0129
2446.0,0.0129
2445.0,0.0129
2444.0,0.0129
2443.0,0.013
2442.0,0.013
2441.0,0.013
2440.0,0.013
2439.0,0.013
2438.0,0.013
2437.0,0.013
2436.0,0.013
2435.0,0.0131
2434.0,0.0131
2433.0,0.0131
2432.0,0.013
2431.0,0.013
2430.0,0.013
2429.0,0.0131
2428.0,0.0131
2427.0,0.0131
2426.0,0.0131
2425.0,0.0132
2424.0,0.0131
2423.0,0.0131
2422.0,0.0131
2421.0,0.013
2420.0,0.013
2419.0,0.013
2418.0,0.013
2417.0,0.013
2416.0,0.013
2415.0,0.013
2414.0,0.0129
2413.0,0.0129
2412.0,0.013
2411.0,0.0131
2410.0,0.0131
2409.0,0.0131
2408.0,0.0131
2407.0,0.0131
2406.0,0.0131
2405.0,0.0131
2404.0,0.013
2403.0,0.013
2402.0,0.0131
2401.0,0.0131
2400.0,0.0132
2399.0,0.0132
2398.0,0.0132
2397.0,0.0131
2396.0,0.0131
2395.0,0.0131
2394.0,0.013
2393.0,0.013
2392.0,0.013
2391.0,0.013
2390.0,0.0131
2389.0,0.0133
2388.0,0.0135
2387.0,0.0136
2386.0,0.0138
2385.0,0.014
2384.0,0.0141
2383.0,0.014
2382.0,0.0138
2381.0,0.0133
2380.0,0.0127
2379.0,0.0121
2378.0,0.0118
2377.0,0.0119
2376.0,0.0121
2375.0,0.0126
2374.0,0.013
2373.0,0.0134
2372.0,0.0137
2371.0,0.0138
2370.0,0.014
2369.0,0.0139
2368.0,0.0137
2367.0,0.0134
2366.0,0.0131
2365.0,0.0129
2364.0,0.0131
2363.0,0.0136
2362.0,0.0139
2361.0,0.0136
2360.0,0.013
2359.0,0.0126
2358.0,0.0126
2357.0,0.0126
2356.0,0.0127
2355.0,0.0128
2354.0,0.0124
2353.0,0.0116
2352.0,0.0113
2351.0,0.0119
2350.0,0.0128
2349.0,0.013
2348.0,0.0122
2347.0,0.0113
2346.0,0.0113
2345.0,0.0125
2344.0,0.0139
2343.0,0.0144
2342.0,0.0135
2341.0,0.0119
2340.0,0.0107
2339.0,0.0105
2338.0,0.0111
2337.0,0.0119
2336.0,0.0124
2335.0,0.0125
2334.0,0.012
2333.0,0.0113
2332.0,0.0109
2331.0,0.0113
2330.0,0.0124
2329.0,0.0135
2328.0,0.014
2327.0,0.014
2326.0,0.0135
2325.0,0.0128
2324.0,0.0123
2323.0,0.0121
2322.0,0.0123
2321.0,0.0128
2320.0,0.0134
2319.0,0.0141
2318.0,0.0145
2317.0,0.0145
2316.0,0.0143
2315.0,0.0141
2314.0,0.0139
2313.0,0.014
2312.0,0.0142
2311.0,0.0144
2310.0,0.0144
2309.0,0.0143
2308.0,0.014
2307.0,0.0138
2306.0,0.0136
2305.0,0.0137
2304.0,0.0139
2303.0,0.0142
2302.0,0.0144
2301.0,0.0146
2300.0,0.0145
2299.0,0.0144
2298.0,0.0143
2297.0,0.0142
2296.0,0.0142
2295.0,0.0142
2294.0,0.0142
2293.0,0.0141
2292.0,0.014
2291.0,0.0138
2290.0,0.0137
2289.0,0.0135
2288.0,0.0135
2287.0,0.0134
2286.0,0.0133
2285.0,0.0133
2284.0,0.0133
2283.0,0.0133
2282.0,0.0133
2281.0,0.0132
2280.0,0.0132
2279.0,0.0132
2278.0,0.0132
2277.0,0.0133
2276.0,0.0134
2275.0,0.0134
2274.0,0.0134
2273.0,0.0134
2272.0,0.0133
2271.0,0.0133
2270.0,0.0133
2269.0,0.0133
2268.0,0.0133
2267.0,0.0133
2266.0,0.0133
2265.0,0.0132
2264.0,0.0132
2263.0,0.0131
2262.0,0.0132
2261.0,0.0132
2260.0,0.0132
2259.0,0.0132
2258.0,0.0132
2257.0,0.0132
2256.0,0.0132
2255.0,0.0133
2254.0,0.0132
2253.0,0.0132
2252.0,0.0132
2251.0,0.0131
2250.0,0.0131
2249.0,0.0131
2248.0,0.0131
2247.0,0.0132
2246.0,0.0132
2245.0,0.0132
2244.0,0.0131
2243.0,0.0131
2242.0,0.013
2241.0,0.013
2240.0,0.013
2239.0,0.013
2238.0,0.013
2237.0,0.0131
2236.0,0.0131
2235.0,0.0131
2234.0,0.0131
2233.0,0.0131
2232.0,0.0131
2231.0,0.013
2230.0,0.013
2229.0,0.013
2228.0,0.013
2227.0,0.013
2226.0,0.013
2225.0,0.0131
2224.0,0.0132
2223.0,0.0132
2222.0,0.0131
2221.0,0.0131
2220.0,0.0131
2219.0,0.0131
2218.0,0.0131
2217.0,0.013
2216.0,0.013
2215.0,0.013
2214.0,0.013
2213.0,0.013
2212.0,0.0131
2211.0,0.0131
2210.0,0.0131
2209.0,0.0131
2208.0,0.0131
2207.0,0.0131
2206.0,0.013
2205.0,0.0131
2204.0,0.0131
2203.0,0.0131
2202.0,0.0131
2201.0,0.0131
2200.0,0.0131
2199.0,0.0131
2198.0,0.0131
2197.0,0.0131
2196.0,0.0131
2195.0,0.0131
2194.0,0.0131
2193.0,0.0132
2192.0,0.0132
2191.0,0.0132
2190.0,0.0132
2189.0,0.0132
2188.0,0.0132
2187.0,0.0132
2186.0,0.0132
2185.0,0.0132
2184.0,0.0133
2183.0,0.0132
2182.0,0.0132
2181.0,0.0131
2180.0,0.0131
2179.0,0.0131
2178.0,0.0132
2177.0,0.0133
2176.0,0.0133
2175.0,0.0133
2174.0,0.0133
2173.0,0.0132
2172.0,0.0132
2171.0,0.0132
2170.0,0.0132
2169.0,0.0133
2168.0,0.0134
2167.0,0.0134
2166.0,0.0134
2165.0,0.0133
2164.0,0.0133
2163.0,0.0133
2162.0,0.0133
2161.0,0.0133
2160.0,0.0134
2159.0,0.0134
2158.0,0.0134
2157.0,0.0133
2156.0,0.0133
2155.0,0.0133
2154.0,0.0133
2153.0,0.0133
2152.0,0.0133
2151.0,0.0133
2150.0,0.0133
2149.0,0.0133
2148.0,0.0133
2147.0,0.0133
2146.0,0.0133
2145.0,0.0132
2144.0,0.0132
2143.0,0.0132
2142.0,0.0133
2141.0,0.0133
2140.0,0.0133
2139.0,0.0133
2138.0,0.0133
2137.0,0.0133
2136.0,0.0134
2135.0,0.0134
2134.0,0.0134
2133.0,0.0134
2132.0,0.0134
2131.0,0.0134
2130.0,0.0134
2129.0,0.0134
2128.0,0.0134
2127.0,0.0135
2126.0,0.0136
2125.0,0.0136
2124.0,0.0135
2123.0,0.0134
2122.0,0.0133
2121.0,0.0133
2120.0,0.0133
2119.0,0.0134
2118.0,0.0134
2117.0,0.0134
2116.0,0.0134
2115.0,0.0133
2114.0,0.0133
2113.0,0.0133
2112.0,0.0134
2111.0,0.0134
2110.0,0.0134
2109.0,0.0133
2108.0,0.0132
2107.0,0.0132
2106.0,0.0132
2105.0,0.0132
2104.0,0.0133
2103.0,0.0133
2102.0,0.0134
2101.0,0.0134
2100.0,0.0134
2099.0,0.0134
2098.0,0.0133
2097.0,0.0133
2096.0,0.0133
2095.0,0.0134
2094.0,0.0134
2093.0,0.0134
2092.0,0.0134
2091.0,0.0133
2090.0,0.0133
2089.0,0.0133
2088.0,0.0134
2087.0,0.0134
2086.0,0.0134
2085.0,0.0134
2084.0,0.0134
2083.0,0.0134
2082.0,0.0134
2081.0,0.0134
2080.0,0.0133
2079.0,0.0133
2078.0,0.0134
2077.0,0.0134
2076.0,0.0134
2075.0,0.0134
2074.0,0.0134
2073.0,0.0134
2072.0,0.0134
2071.0,0.0134
2070.0,0.0134
2069.0,0.0134
2068.0,0.0134
2067.0,0.0134
2066.0,0.0134
2065.0,0.0134
2064.0,0.0134
2063.0,0.0134
2062.0,0.0134
2061.0,0.0134
2060.0,0.0134
2059.0,0.0135
2058.0,0.0135
2057.0,0.0135
2056.0,0.0135
2055.0,0.0135
2054.0,0.0135
2053.0,0.0136
2052.0,0.0136
2051.0,0.0136
2050.0,0.0136
2049.0,0.0136
2048.0,0.0136
2047.0,0.0136
2046.0,0.0136
2045.0,0.0136
2044.0,0.0135
2043.0,0.0135
2042.0,0.0135
2041.0,0.0136
2040.0,0.0136
2039.0,0.0136
2038.0,0.0136
2037.0,0.0136
2036.0,0.0137
2035.0,0.0137
2034.0,0.0136
2033.0,0.0136
2032.0,0.0135
2031.0,0.0135
2030.0,0.0136
2029.0,0.0136
2028.0,0.0137
2027.0,0.0137
2026.0,0.0137
2025.0,0.0137
2024.0,0.0137
2023.0,0.0137
2022.0,0.0137
2021.0,0.0137
2020.0,0.0137
2019.0,0.0137
2018.0,0.0138
2017.0,0.0139
2016.0,0.0139
2015.0,0.0139
2014.0,0.0139
2013.0,0.0139
2012.0,0.0138
2011.0,0.0138
2010.0,0.0138
2009.0,0.0138
2008.0,0.0138
2007.0,0.0138
2006.0,0.0138
2005.0,0.0138
2004.0,0.0138
2003.0,0.0139
2002.0,0.0139
2001.0,0.0138
2000.0,0.0138
1999.0,0.0138
1998.0,0.0138
1997.0,0.0138
1996.0,0.0138
1995.0,0.0138
1994.0,0.0138
1993.0,0.0138
1992.0,0.0138
1991.0,0.0138
1990.0,0.0138
1989.0,0.0138
1988.0,0.0138
1987.0,0.0138
1986.0,0.0138
1985.0,0.0138
1984.0,0.0139
1983.0,0.0139
1982.0,0.0139
1981.0,0.0138
1980.0,0.0138
1979.0,0.0138
1978.0,0.0138
1977.0,0.0138
1976.0,0.0138
1975.0,0.0138
1974.0,0.0139
1973.0,0.0139
1972.0,0.014
1971.0,0.014
1970.0,0.014
1969.0,0.0139
1968.0,0.0139
1967.0,0.014
1966.0,0.014
1965.0,0.014
1964.0,0.014
1963.0,0.014
1962.0,0.014
1961.0,0.0141
1960.0,0.0141
1959.0,0.0142
1958.0,0.0142
1957.0,0.0141
1956.0,0.0141
1955.0,0.0141
1954.0,0.0141
1953.0,0.0142
1952.0,0.0143
1951.0,0.0143
1950.0,0.0143
1949.0,0.0142
1948.0,0.0142
1947.0,0.0141
1946.0,0.0141
1945.0,0.0141
1944.0,0.0141
1943.0,0.0142
1942.0,0.0142
1941.0,0.0141
1940.0,0.0142
1939.0,0.0142
1938.0,0.0142
1937.0,0.0143
1936.0,0.0143
1935.0,0.0144
1934.0,0.0143
1933.0,0.0143
1932.0,0.0143
1931.0,0.0143
1930.0,0.0143
1929.0,0.0144
1928.0,0.0144
1927.0,0.0144
1926.0,0.0144
1925.0,0.0144
1924.0,0.0144
1923.0,0.0144
1922.0,0.0145
1921.0,0.0145
1920.0,0.0145
1919.0,0.0145
1918.0,0.0145
1917.0,0.0144
1916.0,0.0144
1915.0,0.0144
1914.0,0.0144
1913.0,0.0144
1912.0,0.0144
1911.0,0.0144
1910.0,0.0143
1909.0,0.0143
1908.0,0.0143
1907.0,0.0143
1906.0,0.0144
1905.0,0.0145
1904.0,0.0145
1903.0,0.0145
1902.0,0.0145
1901.0,0.0145
1900.0,0.0145
1899.0,0.0145
1898.0,0.0145
1897.0,0.0145
1896.0,0.0145
1895.0,0.0145
1894.0,0.0145
1893.0,0.0146
1892.0,0.0147
1891.0,0.0147
1890.0,0.0147
1889.0,0.0147
1888.0,0.0146
1887.0,0.0146
1886.0,0.0146
1885.0,0.0146
1884.0,0.0146
1883.0,0.0146
1882.0,0.0146
1881.0,0.0146
1880.0,0.0146
1879.0,0.0146
1878.0,0.0146
1877.0,0.0146
1876.0,0.0147
1875.0,0.0147
1874.0,0.0148
1873.0,0.0148
1872.0,0.0148
1871.0,0.0148
1870.0,0.0148
1869.0,0.0148
1868.0,0.0148
1867.0,0.0148
1866.0,0.0149
1865.0,0.0148
1864.0,0.0148
1863.0,0.0147
1862.0,0.0147
1861.0,0.0147
1860.0,0.0147
1859.0,0.0147
1858.0,0.0147
1857.0,0.0147
1856.0,0.0148
1855.0,0.0147
1854.0,0.0147
1853.0,0.0147
1852.0,0.0147
1851.0,0.0147
1850.0,0.0147
1849.0,0.0147
1848.0,0.0147
1847.0,0.0148
1846.0,0.0148
1845.0,0.0149
1844.0,0.0149
1843.0,0.0149
1842.0,0.0149
1841.0,0.0149
1840.0,0.0149
1839.0,0.0149
1838.0,0.0149
1837.0,0.0149
1836.0,0.0149
1835.0,0.0149
1834.0,0.0149
1833.0,0.0149
1832.0,0.0149
1831.0,0.0149
1830.0,0.0149
1829.0,0.0149
1828.0,0.0149
1827.0,0.0149
1826.0,0.0149
1825.0,0.0149
1824.0,0.015
1823.0,0.0151
1822.0,0.0151
1821.0,0.0151
1820.0,0.015
1819.0,0.015
1818.0,0.015
1817.0,0.015
1816.0,0.015
1815.0,0.015
1814.0,0.015
1813.0,0.015
1812.0,0.015
1811.0,0.015
1810.0,0.0151
1809.0,0.0151
1808.0,0.0151
1807.0,0.0151
1806.0,0.0152
1805.0,0.0152
1804.0,0.0152
1803.0,0.0152
1802.0,0.0152
1801.0,0.0152
1800.0,0.0152
1799.0,0.0152
1798.0,0.0152
1797.0,0.0153
1796.0,0.0153
1795.0,0.0153
1794.0,0.0153
1793.0,0.0153
1792.0,0.0152
1791.0,0.0152
1790.0,0.0152
1789.0,0.0152
1788.0,0.0153
1787.0,0.0154
1786.0,0.0154
1785.0,0.0154
1784.0,0.0153
1783.0,0.0153
1782.0,0.0152
1781.0,0.0152
1780.0,0.0153
1779.0,0.0153
1778.0,0.0153
1777.0,0.0153
1776.0,0.0153
1775.0,0.0154
1774.0,0.0153
1773.0,0.0153
1772.0,0.0153
1771.0,0.0153
1770.0,0.0154
1769.0,0.0155
1768.0,0.0156
1767.0,0.0155
1766.0,0.0155
1765.0,0.0155
1764.0,0.0155
1763.0,0.0155
1762.0,0.0156
1761.0,0.0157
1760.0,0.0158
1759.0,0.0159
1758.0,0.0159
1757.0,0.016
1756.0,0.0162
1755.0,0.0163
1754.0,0.0164
1753.0,0.0165
1752.0,0.0166
1751.0,0.0167
1750.0,0.0169
1749.0,0.017
1748.0,0.0172
1747.0,0.0173
1746.0,0.0174
1745.0,0.0175
1744.0,0.0176
1743.0,0.0176
1742.0,0.0177
1741.0,0.0177
1740.0,0.0177
1739.0,0.0177
1738.0,0.0178
1737.0,0.018
1736.0,0.018
1735.0,0.018
1734.0,0.0179
1733.0,0.0178
1732.0,0.0177
1731.0,0.0176
1730.0,0.0176
1729.0,0.0175
1728.0,0.0175
1727.0,0.0174
1726.0,0.0174
1725.0,0.0174
1724.0,0.0174
1723.0,0.0174
1722.0,0.0174
1721.0,0.0174
1720.0,0.0174
1719.0,0.0173
1718.0,0.0172
1717.0,0.0172
1716.0,0.0172
1715.0,0.0173
1714.0,0.0173
1713.0,0.0174
1712.0,0.0174
1711.0,0.0173
1710.0,0.0172
1709.0,0.0171
1708.0,0.0171
1707.0,0.0171
1706.0,0.0171
1705.0,0.0172
1704.0,0.0172
1703.0,0.0172
1702.0,0.0171
1701.0,0.0171
1700.0,0.0173
1699.0,0.0174
1698.0,0.0175
1697.0,0.0176
1696.0,0.0175
1695.0,0.0175
1694.0,0.0175
1693.0,0.0176
1692.0,0.0176
1691.0,0.0176
1690.0,0.0177
1689.0,0.0178
1688.0,0.018
1687.0,0.0182
1686.0,0.0182
1685.0,0.0182
1684.0,0.0182
1683.0,0.0181
1682.0,0.018
1681.0,0.0181
1680.0,0.0181
1679.0,0.0182
1678.0,0.0183
1677.0,0.0184
1676.0,0.0185
1675.0,0.0185
1674.0,0.0185
1673.0,0.0185
1672.0,0.0184
1671.0,0.0184
1670.0,0.0185
1669.0,0.0186
1668.0,0.0186
1667.0,0.0187
1666.0,0.0188
1665.0,0.0188
1664.0,0.0188
1663.0,0.0188
1662.0,0.0189
1661.0,0.0189
1660.0,0.0189
1659.0,0.0189
1658.0,0.0189
1657.0,0.0189
1656.0,0.0189
1655.0,0.0188
1654.0,0.0188
1653.0,0.0188
1652.0,0.0188
1651.0,0.0189
1650.0,0.019
1649.0,0.019
1648.0,0.0191
1647.0,0.0192
1646.0,0.0193
1645.0,0.0193
1644.0,0.0194
1643.0,0.0194
1642.0,0.0194
1641.0,0.0194
1640.0,0.0194
1639.0,0.0194
1638.0,0.0193
1637.0,0.0193
1636.0,0.0194
1635.0,0.0193
1634.0,0.0192
1633.0,0.0192
1632.0,0.0192
1631.0,0.0191
1630.0,0.019
1629.0,0.0189
1628.0,0.0189
1627.0,0.0188
1626.0,0.0189
1625.0,0.0189
1624.0,0.0189
1623.0,0.0188
1622.0,0.0188
1621.0,0.0188
1620.0,0.0188
1619.0,0.0188
1618.0,0.0188
1617.0,0.0187
1616.0,0.0187
1615.0,0.0186
1614.0,0.0186
1613.0,0.0186
1612.0,0.0186
1611.0,0.0186
1610.0,0.0186
1609.0,0.0186
1608.0,0.0187
1607.0,0.0188
1606.0,0.0188
1605.0,0.0188
1604.0,0.0188
1603.0,0.0188
1602.0,0.0189
1601.0,0.0188
1600.0,0.0188
1599.0,0.0187
1598.0,0.0186
1597.0,0.0186
1596.0,0.0186
1595.0,0.0186
1594.0,0.0187
1593.0,0.0187
1592.0,0.0187
1591.0,0.0187
1590.0,0.0187
1589.0,0.0188
1588.0,0.0188
1587.0,0.0189
1586.0,0.0189
1585.0,0.019
1584.0,0.0191
1583.0,0.0192
1582.0,0.0193
1581.0,0.0192
1580.0,0.0192
1579.0,0.0192
1578.0,0.0191
1577.0,0.0191
1576.0,0.0192
1575.0,0.0192
1574.0,0.0192
1573.0,0.0192
1572.0,0.0192
1571.0,0.0191
1570.0,0.019
1569.0,0.019
1568.0,0.019
1567.0,0.019
1566.0,0.0189
1565.0,0.0188
1564.0,0.0188
1563.0,0.0189
1562.0,0.0189
1561.0,0.0189
1560.0,0.0189
1559.0,0.0191
1558.0,0.0188
1557.0,0.0187
1556.0,0.0187
1555.0,0.0187
1554.0,0.0186
1553.0,0.0186
1552.0,0.0185
1551.0,0.0185
1550.0,0.0186
1549.0,0.0187
1548.0,0.0188
1547.0,0.0189
1546.0,0.0189
1545.0,0.019
1544.0,0.0191
1543.0,0.0192
1542.0,0.0191
1541.0,0.019
1540.0,0.0188
1539.0,0.0184
1538.0,0.0183
1537.0,0.0183
1536.0,0.0184
1535.0,0.0183
1534.0,0.0181
1533.0,0.018
1532.0,0.0179
1531.0,0.0178
1530.0,0.0177
1529.0,0.0177
1528.0,0.0177
1527.0,0.0177
1526.0,0.0176
1525.0,0.0176
1524.0,0.0176
1523.0,0.0176
1522.0,0.0177
1521.0,0.0177
1520.0,0.0177
1519.0,0.0175
1518.0,0.0174
1517.0,0.0173
1516.0,0.0173
1515.0,0.0173
1514.0,0.0173
1513.0,0.0174
1512.0,0.0174
1511.0,0.0174
1510.0,0.0174
1509.0,0.0173
1508.0,0.0175
1507.0,0.0175
1506.0,0.0173
1505.0,0.0172
1504.0,0.0173
1503.0,0.0173
1502.0,0.0173
1501.0,0.0173
1500.0,0.0174
1499.0,0.0176
1498.0,0.0178
1497.0,0.0182
1496.0,0.0186
1495.0,0.0188
1494.0,0.0189
1493.0,0.019
1492.0,0.019
1491.0,0.0189
1490.0,0.0188
1489.0,0.0189
1488.0,0.019
1487.0,0.0191
1486.0,0.0192
1485.0,0.0194
1484.0,0.0196
1483.0,0.0198
1482.0,0.0201
1481.0,0.0207
1480.0,0.0213
1479.0,0.0218
1478.0,0.0225
1477.0,0.0237
1476.0,0.0252
1475.0,0.027
1474.0,0.0294
1473.0,0.0332
1472.0,0.0371
1471.0,0.0403
1470.0,0.0431
1469.0,0.0462
1468.0,0.0497
1467.0,0.0538
1466.0,0.0591
1465.0,0.0654
1464.0,0.0708
1463.0,0.074
1462.0,0.0758
1461.0,0.0768
1460.0,0.0775
1459.0,0.0782
1458.0,0.0799
1457.0,0.0824
1456.0,0.0838
1455.0,0.084
1454.0,0.0839
1453.0,0.0836
1452.0,0.0828
1451.0,0.0815
1450.0,0.0794
1449.0,0.0763
1448.0,0.0719
1447.0,0.0671
1446.0,0.0627
1445.0,0.0588
1444.0,0.0552
1443.0,0.0521
1442.0,0.0496
1441.0,0.0479
1440.0,0.0467
1439.0,0.0461
1438.0,0.0461
1437.0,0.0463
1436.0,0.0461
1435.0,0.0449
1434.0,0.0431
1433.0,0.0408
1432.0,0.0383
1431.0,0.036
1430.0,0.0342
1429.0,0.0328
1428.0,0.0318
1427.0,0.031
1426.0,0.0304
1425.0,0.0299
1424.0,0.0293
1423.0,0.029
1422.0,0.0288
1421.0,0.0284
1420.0,0.0281
1419.0,0.0279
1418.0,0.0277
1417.0,0.0274
1416.0,0.0271
1415.0,0.0268
1414.0,0.0266
1413.0,0.0263
1412.0,0.026
1411.0,0.0258
1410.0,0.0257
1409.0,0.0254
1408.0,0.0251
1407.0,0.025
1406.0,0.0248
1405.0,0.0247
1404.0,0.0245
1403.0,0.0244
1402.0,0.0243
1401.0,0.0242
1400.0,0.024
1399.0,0.0239
1398.0,0.0239
1397.0,0.0238
1396.0,0.0236
1395.0,0.0236
1394.0,0.0237
1393.0,0.0236
1392.0,0.0236
1391.0,0.0237
1390.0,0.024
1389.0,0.0244
1388.0,0.0251
1387.0,0.0265
1386.0,0.0285
1385.0,0.0311
1384.0,0.0349
1383.0,0.0406
1382.0,0.0482
1381.0,0.0582
1380.0,0.071
1379.0,0.0861
1378.0,0.1009
1377.0,0.1121
1376.0,0.1168
1375.0,0.1131
1374.0,0.1025
1373.0,0.0896
1372.0,0.0781
1371.0,0.0684
1370.0,0.0602
1369.0,0.0537
1368.0,0.049
1367.0,0.0459
1366.0,0.0441
1365.0,0.0431
1364.0,0.043
1363.0,0.0436
1362.0,0.0448
1361.0,0.046
1360.0,0.0469
1359.0,0.0471
1358.0,0.0466
1357.0,0.0454
1356.0,0.0436
1355.0,0.0415
1354.0,0.0394
1353.0,0.0377
1352.0,0.0362
1351.0,0.035
1350.0,0.034
1349.0,0.0331
1348.0,0.0324
1347.0,0.0317
1346.0,0.0312
1345.0,0.0307
1344.0,0.0303
1343.0,0.0299
1342.0,0.0295
1341.0,0.0292
1340.0,0.029
1339.0,0.0289
1338.0,0.0289
1337.0,0.0288
1336.0,0.0288
1335.0,0.0288
1334.0,0.0289
1333.0,0.0291
1332.0,0.0293
1331.0,0.0295
1330.0,0.0295
1329.0,0.0295
1328.0,0.0293
1327.0,0.0291
1326.0,0.0288
1325.0,0.0285
1324.0,0.0282
1323.0,0.0279
1322.0,0.0277
1321.0,0.0275
1320.0,0.0273
1319.0,0.0272
1318.0,0.027
1317.0,0.0269
1316.0,0.0268
1315.0,0.0268
1314.0,0.0267
1313.0,0.0267
1312.0,0.0267
1311.0,0.0267
1310.0,0.0268
1309.0,0.0271
1308.0,0.0276
1307.0,0.0283
1306.0,0.029
1305.0,0.0296
1304.0,0.0298
1303.0,0.0296
1302.0,0.0293
1301.0,0.029
1300.0,0.0288
1299.0,0.0287
1298.0,0.0287
1297.0,0.0287
1296.0,0.0287
1295.0,0.0286
1294.0,0.0284
1293.0,0.0282
1292.0,0.0279
1291.0,0.0277
1290.0,0.0274
1289.0,0.0272
1288.0,0.0271
1287.0,0.0269
1286.0,0.0267
1285.0,0.0266
1284.0,0.0265
1283.0,0.0264
1282.0,0.0264
1281.0,0.0263
1280.0,0.0262
1279.0,0.0262
1278.0,0.0262
1277.0,0.0261
1276.0,0.0261
1275.0,0.0261
1274.0,0.0261
1273.0,0.0261
1272.0,0.026
1271.0,0.026
1270.0,0.0261
1269.0,0.0261
1268.0,0.0262
1267.0,0.0263
1266.0,0.0265
1265.0,0.0266
1264.0,0.0268
1263.0,0.0269
1262.0,0.0271
1261.0,0.0274
1260.0,0.0277
1259.0,0.0282
1258.0,0.0287
1257.0,0.0292
1256.0,0.0295
1255.0,0.0294
1254.0,0.0291
1253.0,0.0286
1252.0,0.0281
1251.0,0.0277
1250.0,0.0274
1249.0,0.0271
1248.0,0.027
1247.0,0.0269
1246.0,0.0268
1245.0,0.0268
1244.0,0.0268
1243.0,0.0267
1242.0,0.0265
1241.0,0.0264
1240.0,0.0262
1239.0,0.0262
1238.0,0.0261
1237.0,0.026
1236.0,0.026
1235.0,0.0259
1234.0,0.0259
1233.0,0.0258
1232.0,0.0258
1231.0,0.0258
1230.0,0.0258
1229.0,0.0258
1228.0,0.0259
1227.0,0.0259
1226.0,0.026
1225.0,0.0262
1224.0,0.0263
1223.0,0.0265
1222.0,0.0267
1221.0,0.0269
1220.0,0.027
1219.0,0.027
1218.0,0.0269
1217.0,0.0268
1216.0,0.0267
1215.0,0.0266
1214.0,0.0264
1213.0,0.0263
1212.0,0.0262
1211.0,0.0261
1210.0,0.026
1209.0,0.026
1208.0,0.026
1207.0,0.026
1206.0,0.026
1205.0,0.026
1204.0,0.026
1203.0,0.026
1202.0,0.026
1201.0,0.026
1200.0,0.0261
1199.0,0.0261
1198.0,0.0261
1197.0,0.0261
1196.0,0.0261
1195.0,0.0261
1194.0,0.0261
1193.0,0.026
1192.0,0.0259
1191.0,0.0259
1190.0,0.0259
1189.0,0.026
1188.0,0.0262
1187.0,0.0265
1186.0,0.0267
1185.0,0.0269
1184.0,0.0271
1183.0,0.0273
1182.0,0.0274
1181.0,0.0276
1180.0,0.0277
1179.0,0.0279
1178.0,0.0282
1177.0,0.0286
1176.0,0.0291
1175.0,0.03
1174.0,0.0312
1173.0,0.0327
1172.0,0.0346
1171.0,0.0367
1170.0,0.0388
1169.0,0.0407
1168.0,0.0418
1167.0,0.0421
1166.0,0.0417
1165.0,0.0407
1164.0,0.0396
1163.0,0.0386
1162.0,0.0376
1161.0,0.0367
1160.0,0.036
1159.0,0.0354
1158.0,0.035
1157.0,0.0347
1156.0,0.0345
1155.0,0.0344
1154.0,0.0343
1153.0,0.0341
1152.0,0.0339
1151.0,0.0336
1150.0,0.0332
1149.0,0.0327
1148.0,0.0322
1147.0,0.0317
1146.0,0.0312
1145.0,0.0309
1144.0,0.0305
1143.0,0.0301
1142.0,0.0298
1141.0,0.0294
1140.0,0.0291
1139.0,0.0289
1138.0,0.0287
1137.0,0.0285
1136.0,0.0284
1135.0,0.0282
1134.0,0.028
1133.0,0.0278
1132.0,0.0277
1131.0,0.0275
1130.0,0.0274
1129.0,0.0274
1128.0,0.0274
1127.0,0.0273
1126.0,0.0273
1125.0,0.0274
1124.0,0.0274
1123.0,0.0274
1122.0,0.0275
1121.0,0.0275
1120.0,0.0275
1119.0,0.0276
1118.0,0.0276
1117.0,0.0277
1116.0,0.0277
1115.0,0.0277
1114.0,0.0277
1113.0,0.0277
1112.0,0.0277
1111.0,0.0279
1110.0,0.028
1109.0,0.0282
1108.0,0.0285
1107.0,0.0288
1106.0,0.0291
1105.0,0.0295
1104.0,0.0298
1103.0,0.03
1102.0,0.03
1101.0,0.0299
1100.0,0.0297
1099.0,0.0295
1098.0,0.0292
1097.0,0.0289
1096.0,0.0287
1095.0,0.0285
1094.0,0.0283
1093.0,0.0282
1092.0,0.0281
1091.0,0.0279
1090.0,0.0278
1089.0,0.0277
1088.0,0.0276
1087.0,0.0276
1086.0,0.0276
1085.0,0.0277
1084.0,0.0276
1083.0,0.0276
1082.0,0.0276
1081.0,0.0275
1080.0,0.0275
1079.0,0.0275
1078.0,0.0276
1077.0,0.0276
1076.0,0.0275
1075.0,0.0275
1074.0,0.0275
1073.0,0.0275
1072.0,0.0274
1071.0,0.0274
1070.0,0.0274
1069.0,0.0274
1068.0,0.0274
1067.0,0.0273
1066.0,0.0273
1065.0,0.0273
1064.0,0.0272
1063.0,0.0273
1062.0,0.0273
1061.0,0.0274
1060.0,0.0275
1059.0,0.0276
1058.0,0.0277
1057.0,0.0278
1056.0,0.0279
1055.0,0.028
1054.0,0.028
1053.0,0.028
1052.0,0.0282
1051.0,0.0284
1050.0,0.0286
1049.0,0.0288
1048.0,0.0291
1047.0,0.0293
1046.0,0.0295
1045.0,0.0296
1044.0,0.0295
1043.0,0.0294
1042.0,0.0293
1041.0,0.0292
1040.0,0.0291
1039.0,0.029
1038.0,0.0289
1037.0,0.0288
1036.0,0.0288
1035.0,0.0288
1034.0,0.0287
1033.0,0.0287
1032.0,0.0287
1031.0,0.0287
1030.0,0.0288
1029.0,0.0288
1028.0,0.0289
1027.0,0.0289
1026.0,0.0289
1025.0,0.0289
1024.0,0.0289
1023.0,0.029
1022.0,0.029
1021.0,0.029
1020.0,0.029
1019.0,0.0289
1018.0,0.0288
1017.0,0.0288
1016.0,0.0289
1015.0,0.0289
1014.0,0.029
1013.0,0.029
1012.0,0.0289
1011.0,0.0289
1010.0,0.029
1009.0,0.0291
1008.0,0.0294
1007.0,0.0297
1006.0,0.0303
1005.0,0.031
1004.0,0.032
1003.0,0.0334
1002.0,0.0354
1001.0,0.038
1000.0,0.0408
999.0,0.0433
998.0,0.0448
997.0,0.0448
996.0,0.0434
995.0,0.0411
994.0,0.0387
993.0,0.0366
992.0,0.0348
991.0,0.0335
990.0,0.0326
989.0,0.032
988.0,0.0316
987.0,0.0313
986.0,0.0312
985.0,0.0311
984.0,0.0313
983.0,0.0315
982.0,0.032
981.0,0.0329
980.0,0.0341
979.0,0.0358
978.0,0.0379
977.0,0.0406
976.0,0.0436
975.0,0.0466
974.0,0.0489
973.0,0.0501
972.0,0.0497
971.0,0.0479
970.0,0.0451
969.0,0.0422
968.0,0.0396
967.0,0.0376
966.0,0.0361
965.0,0.035
964.0,0.0343
963.0,0.0337
962.0,0.0334
961.0,0.033
960.0,0.0328
959.0,0.0325
958.0,0.0322
957.0,0.0319
956.0,0.0317
955.0,0.0315
954.0,0.0314
953.0,0.0313
952.0,0.0313
951.0,0.0312
950.0,0.0312
949.0,0.0312
948.0,0.0312
947.0,0.0313
946.0,0.0314
945.0,0.0315
944.0,0.0317
943.0,0.0318
942.0,0.032
941.0,0.032
940.0,0.032
939.0,0.0319
938.0,0.0318
937.0,0.0317
936.0,0.0316
935.0,0.0314
934.0,0.0313
933.0,0.0312
932.0,0.0312
931.0,0.0312
930.0,0.031
929.0,0.0309
928.0,0.0309
927.0,0.031
926.0,0.0311
925.0,0.031
924.0,0.031
923.0,0.031
922.0,0.031
921.0,0.0311
920.0,0.0313
919.0,0.0314
918.0,0.0315
917.0,0.0315
916.0,0.0316
915.0,0.0316
914.0,0.0317
913.0,0.0317
912.0,0.0318
911.0,0.0318
910.0,0.0319
909.0,0.0321
908.0,0.0323
907.0,0.0326
906.0,0.033
905.0,0.0335
904.0,0.0343
903.0,0.0353
902.0,0.0365
901.0,0.0377
900.0,0.0386
899.0,0.039
898.0,0.0389
897.0,0.0383
896.0,0.0376
895.0,0.0367
894.0,0.0359
893.0,0.0352
892.0,0.0347
891.0,0.0345
890.0,0.0344
889.0,0.0344
888.0,0.0344
887.0,0.0343
886.0,0.0343
885.0,0.0342
884.0,0.0342
883.0,0.0343
882.0,0.0343
881.0,0.0344
880.0,0.0345
879.0,0.0346
878.0,0.0348
877.0,0.035
876.0,0.0352
875.0,0.0353
874.0,0.0353
873.0,0.0352
872.0,0.0351
871.0,0.0349
870.0,0.0348
869.0,0.0348
868.0,0.0349
867.0,0.035
866.0,0.0351
865.0,0.0351
864.0,0.0351
863.0,0.0352
862.0,0.0353
861.0,0.0354
860.0,0.0354
859.0,0.0354
858.0,0.0353
857.0,0.0355
856.0,0.0357
855.0,0.0359
854.0,0.036
853.0,0.036
852.0,0.0361
851.0,0.0362
850.0,0.0363
849.0,0.0366
848.0,0.0371
847.0,0.0378
846.0,0.0389
845.0,0.0407
844.0,0.0435
843.0,0.0468
842.0,0.0497
841.0,0.051
840.0,0.0502
839.0,0.048
838.0,0.0453
837.0,0.0431
836.0,0.0414
835.0,0.0403
834.0,0.0396
833.0,0.0393
832.0,0.0391
831.0,0.0391
830.0,0.039
829.0,0.0389
828.0,0.0387
827.0,0.0386
826.0,0.0384
825.0,0.0383
824.0,0.0383
823.0,0.0383
822.0,0.0384
821.0,0.0386
820.0,0.0387
819.0,0.0386
818.0,0.0386
817.0,0.0387
816.0,0.039
815.0,0.0395
814.0,0.0403
813.0,0.0413
812.0,0.0425
811.0,0.0437
810.0,0.0447
809.0,0.0452
808.0,0.0452
807.0,0.0446
806.0,0.0438
805.0,0.0429
804.0,0.0421
803.0,0.0414
802.0,0.041
801.0,0.0406
800.0,0.0403
799.0,0.0401
798.0,0.0401
797.0,0.0401
796.0,0.0402
795.0,0.0402
794.0,0.04
793.0,0.0398
792.0,0.0396
791.0,0.0395
790.0,0.0394
789.0,0.0392
788.0,0.0391
787.0,0.0389
786.0,0.0388
785.0,0.0387
784.0,0.0387
783.0,0.0388
782.0,0.0389
781.0,0.0389
780.0,0.0389
779.0,0.0388
778.0,0.0388
777.0,0.0388
776.0,0.039
775.0,0.0392
774.0,0.0393
773.0,0.0394
772.0,0.0394
771.0,0.0396
770.0,0.0398
769.0,0.0401
768.0,0.0403
767.0,0.0403
766.0,0.0404
765.0,0.0406
764.0,0.041
763.0,0.0413
762.0,0.0414
761.0,0.0414
760.0,0.0413
759.0,0.0413
758.0,0.0414
757.0,0.0415
756.0,0.0417
755.0,0.0418
754.0,0.0418
753.0,0.0418
752.0,0.0417
751.0,0.0416
750.0,0.0418
749.0,0.042
748.0,0.0422
747.0,0.0422
746.0,0.0421
745.0,0.0423
744.0,0.0427
743.0,0.0431
742.0,0.0433
741.0,0.0434
740.0,0.0433
739.0,0.0432
738.0,0.043
737.0,0.0431
736.0,0.0433
735.0,0.0437
734.0,0.0444
733.0,0.0453
732.0,0.0464
731.0,0.0472
730.0,0.0475
729.0,0.0474
728.0,0.047
727.0,0.0467
726.0,0.0465
725.0,0.0464
724.0,0.0465
723.0,0.0468
722.0,0.0476
721.0,0.0488
720.0,0.0498
719.0,0.0501
718.0,0.0495
717.0,0.0487
716.0,0.0479
715.0,0.0475
714.0,0.0472
713.0,0.0472
712.0,0.0473
711.0,0.0475
710.0,0.0478
709.0,0.048
708.0,0.0482
707.0,0.0483
706.0,0.0486
705.0,0.0492
704.0,0.05
703.0,0.0511
702.0,0.0523
701.0,0.0533
700.0,0.0542
699.0,0.0548
698.0,0.0547
697.0,0.0541
696.0,0.0531
695.0,0.052
694.0,0.0508
693.0,0.0499
692.0,0.0493
691.0,0.0488
690.0,0.0482
689.0,0.0476
688.0,0.0468
687.0,0.0461
686.0,0.0455
685.0,0.0454
684.0,0.0458
683.0,0.0462
682.0,0.0463
681.0,0.0462
680.0,0.0463
679.0,0.0465
678.0,0.0466
677.0,0.0465
676.0,0.0466
675.0,0.0468
674.0,0.0472
673.0,0.0473
672.0,0.0466
671.0,0.0446
670.0,0.0413
669.0,0.038
668.0,0.0376
667.0,0.0414
666.0,0.0451
665.0,0.0468
664.0,0.0476
663.0,0.048
662.0,0.0482
661.0,0.0479
660.0,0.0474
659.0,0.0471
658.0,0.0469
657.0,0.0468
656.0,0.0464
655.0,0.0456
654.0,0.0447
653.0,0.0441
652.0,0.0442
651.0,0.0448
650.0,0.0454
649.0,0.0459
648.0,0.0464
647.0,0.0468
646.0,0.0472
645.0,0.0474
644.0,0.0476
643.0,0.0476
642.0,0.0474
641.0,0.0473
640.0,0.0474
639.0,0.0479
638.0,0.0488
637.0,0.0502
636.0,0.0517
635.0,0.0527
634.0,0.0527
633.0,0.052
632.0,0.0514
631.0,0.051
630.0,0.0508
629.0,0.0504
628.0,0.0499
627.0,0.049
626.0,0.0482
625.0,0.0477
624.0,0.0477
623.0,0.0481
622.0,0.0485
621.0,0.0488
620.0,0.0488
619.0,0.0484
618.0,0.0481
617.0,0.0485
616.0,0.0496
615.0,0.0504
614.0,0.0502
613.0,0.0495
612.0,0.0492
611.0,0.0496
610.0,0.0504
609.0,0.0509
608.0,0.0511
607.0,0.0513
606.0,0.0519
605.0,0.0527
604.0,0.0533
603.0,0.053
602.0,0.052
601.0,0.0514
600.0,0.0516
