cm-1,A
4000.0,0.0057
3999.0,0.0057
3998.0,0.0057
3997.0,0.0057
3996.0,0.0056
3995.0,0.0056
3994.0,0.0056
3993.0,0.0056
3992.0,0.0057
3991.0,0.0057
3990.0,0.0056
3989.0,0.0056
3988.0,0.0056
3987.0,0.0056
3986.0,0.0056
3985.0,0.0056
3984.0,0.0055
3983.0,0.0054
3982.0,0.0054
3981.0,0.0055
3980.0,0.0055
3979.0,0.0055
3978.0,0.0055
3977.0,0.0054
3976.0,0.0055
3975.0,0.0055
3974.0,0.0056
3973.0,0.0056
3972.0,0.0055
3971.0,0.0055
3970.0,0.0055
3969.0,0.0056
3968.0,0.0056
3967.0,0.0056
3966.0,0.0056
3965.0,0.0056
3964.0,0.0056
3963.0,0.0055
3962.0,0.0056
3961.0,0.0056
3960.0,0.0057
3959.0,0.0058
3958.0,0.0058
3957.0,0.0057
3956.0,0.0056
3955.0,0.0055
3954.0,0.0055
3953.0,0.0054
3952.0,0.0055
3951.0,0.0056
3950.0,0.0056
3949.0,0.0057
3948.0,0.0057
3947.0,0.0056
3946.0,0.0055
3945.0,0.0055
3944.0,0.0055
3943.0,0.0056
3942.0,0.0056
3941.0,0.0057
3940.0,0.0058
3939.0,0.0058
3938.0,0.0059
3937.0,0.0059
3936.0,0.0058
3935.0,0.0058
3934.0,0.0057
3933.0,0.0057
3932.0,0.0057
3931.0,0.0057
3930.0,0.0057
3929.0,0.0057
3928.0,0.0056
3927.0,0.0056
3926.0,0.0056
3925.0,0.0056
3924.0,0.0057
3923.0,0.0057
3922.0,0.0058
3921.0,0.0058
3920.0,0.0058
3919.0,0.0057
3918.0,0.0057
3917.0,0.0057
3916.0,0.0058
3915.0,0.0059
3914.0,0.0059
3913.0,0.006
3912.0,0.0059
3911.0,0.0059
3910.0,0.0058
3909.0,0.0056
3908.0,0.0055
3907.0,0.0054
3906.0,0.0053
3905.0,0.0053
3904.0,0.0054
3903.0,0.0053
3902.0,0.0051
3901.0,0.0051
3900.0,0.0051
3899.0,0.0053
3898.0,0.0054
3897.0,0.0056
3896.0,0.0056
3895.0,0.0056
3894.0,0.0056
3893.0,0.0056
3892.0,0.0057
3891.0,0.0058
3890.0,0.0058
3889.0,0.0059
3888.0,0.0059
3887.0,0.006
3886.0,0.006
3885.0,0.0059
3884.0,0.0058
3883.0,0.0057
3882.0,0.0057
3881.0,0.0058
3880.0,0.0058
3879.0,0.0058
3878.0,0.0058
3877.0,0.0058
3876.0,0.0058
3875.0,0.0057
3874.0,0.0057
3873.0,0.0055
3872.0,0.0054
3871.0,0.0054
3870.0,0.0054
3869.0,0.0053
3868.0,0.0053
3867.0,0.0052
3866.0,0.0052
3865.0,0.0053
3864.0,0.0054
3863.0,0.0055
3862.0,0.0056
3861.0,0.0057
3860.0,0.0057
3859.0,0.0057
3858.0,0.0054
3857.0,0.005
3856.0,0.0046
3855.0,0.0045
3854.0,0.0048
3853.0,0.0051
3852.0,0.0052
3851.0,0.0053
3850.0,0.0055
3849.0,0.0057
3848.0,0.0058
3847.0,0.0058
3846.0,0.0058
3845.0,0.0058
3844.0,0.0057
3843.0,0.0055
3842.0,0.0053
3841.0,0.0052
3840.0,0.0051
3839.0,0.0051
3838.0,0.005
3837.0,0.0049
3836.0,0.0048
3835.0,0.0049
3834.0,0.005
3833.0,0.0051
3832.0,0.0052
3831.0,0.0053
3830.0,0.0054
3829.0,0.0056
3828.0,0.0057
3827.0,0.0057
3826.0,0.0055
3825.0,0.0053
3824.0,0.0051
3823.0,0.0051
3822.0,0.0052
3821.0,0.0053
3820.0,0.0051
3819.0,0.0049
3818.0,0.005
3817.0,0.0052
3816.0,0.0055
3815.0,0.0056
3814.0,0.0057
3813.0,0.0058
3812.0,0.0059
3811.0,0.006
3810.0,0.0059
3809.0,0.0059
3808.0,0.0058
3807.0,0.0057
3806.0,0.0055
3805.0,0.0053
3804.0,0.0052
3803.0,0.0051
3802.0,0.0052
3801.0,0.0052
3800.0,0.0051
3799.0,0.0051
3798.0,0.0052
3797.0,0.0054
3796.0,0.0057
3795.0,0.0059
3794.0,0.0061
3793.0,0.0062
3792.0,0.0064
3791.0,0.0064
3790.0,0.0063
3789.0,0.0062
3788.0,0.0062
3787.0,0.0061
3786.0,0.0062
3785.0,0.0062
3784.0,0.0062
3783.0,0.0062
3782.0,0.0061
3781.0,0.0061
3780.0,0.006
3779.0,0.0061
3778.0,0.0061
3777.0,0.0061
3776.0,0.0062
3775.0,0.0063
3774.0,0.0063
3773.0,0.0062
3772.0,0.0062
3771.0,0.0061
3770.0,0.0061
3769.0,0.0061
3768.0,0.0061
3767.0,0.0061
3766.0,0.0061
3765.0,0.006
3764.0,0.006
3763.0,0.006
3762.0,0.0061
3761.0,0.0061
3760.0,0.0061
3759.0,0.0061
3758.0,0.006
3757.0,0.0058
3756.0,0.0057
3755.0,0.0056
3754.0,0.0054
3753.0,0.0054
3752.0,0.0053
3751.0,0.0053
3750.0,0.0052
3749.0,0.005
3748.0,0.005
3747.0,0.005
3746.0,0.0051
3745.0,0.0051
3744.0,0.0051
3743.0,0.0051
3742.0,0.0052
3741.0,0.0054
3740.0,0.0055
3739.0,0.0055
3738.0,0.0054
3737.0,0.0054
3736.0,0.0054
3735.0,0.0054
3734.0,0.0053
3733.0,0.0053
3732.0,0.0052
3731.0,0.0053
3730.0,0.0054
3729.0,0.0055
3728.0,0.0055
3727.0,0.0055
3726.0,0.0055
3725.0,0.0055
3724.0,0.0055
3723.0,0.0055
3722.0,0.0057
3721.0,0.0058
3720.0,0.0059
3719.0,0.0061
3718.0,0.0062
3717.0,0.0062
3716.0,0.0062
3715.0,0.0062
3714.0,0.0061
3713.0,0.0059
3712.0,0.0057
3711.0,0.0055
3710.0,0.0053
3709.0,0.0053
3708.0,0.0055
3707.0,0.0057
3706.0,0.0059
3705.0,0.0061
3704.0,0.0063
3703.0,0.0064
3702.0,0.0064
3701.0,0.0064
3700.0,0.0064
3699.0,0.0064
3698.0,0.0065
3697.0,0.0066
3696.0,0.0066
3695.0,0.0065
3694.0,0.0063
3693.0,0.0061
3692.0,0.006
3691.0,0.0061
3690.0,0.0061
3689.0,0.006
3688.0,0.0059
3687.0,0.0061
3686.0,0.0064
3685.0,0.0066
3684.0,0.0068
3683.0,0.0068
3682.0,0.0067
3681.0,0.0067
3680.0,0.0065
3679.0,0.0063
3678.0,0.006
3677.0,0.0059
3676.0,0.0059
3675.0,0.0059
3674.0,0.0058
3673.0,0.0059
3672.0,0.0062
3671.0,0.0066
3670.0,0.0069
3669.0,0.007
3668.0,0.007
3667.0,0.0071
3666.0,0.0073
3665.0,0.0075
3664.0,0.0077
3663.0,0.0078
3662.0,0.0079
3661.0,0.0079
3660.0,0.0079
3659.0,0.0079
3658.0,0.0079
3657.0,0.0079
3656.0,0.0078
3655.0,0.0077
3654.0,0.0075
3653.0,0.0074
3652.0,0.0072
3651.0,0.0071
3650.0,0.0072
3649.0,0.0072
3648.0,0.0071
3647.0,0.0071
3646.0,0.0073
3645.0,0.0076
3644.0,0.0079
3643.0,0.0081
3642.0,0.0083
3641.0,0.0085
3640.0,0.0086
3639.0,0.0087
3638.0,0.0087
3637.0,0.0086
3636.0,0.0086
3635.0,0.0087
3634.0,0.0087
3633.0,0.0086
3632.0,0.0085
3631.0,0.0084
3630.0,0.0085
3629.0,0.0089
3628.0,0.0091
3627.0,0.0091
3626.0,0.0091
3625.0,0.0092
3624.0,0.0093
3623.0,0.0094
3622.0,0.0094
3621.0,0.0096
3620.0,0.0098
3619.0,0.0099
3618.0,0.0099
3617.0,0.0098
3616.0,0.0099
3615.0,0.01
3614.0,0.0103
3613.0,0.0104
3612.0,0.0104
3611.0,0.0105
3610.0,0.0105
3609.0,0.0106
3608.0,0.0108
3607.0,0.011
3606.0,0.0111
3605.0,0.0112
3604.0,0.0112
3603.0,0.0112
3602.0,0.0112
3601.0,0.0113
3600.0,0.0114
3599.0,0.0115
3598.0,0.0116
3597.0,0.0117
3596.0,0.0117
3595.0,0.0118
3594.0,0.0119
3593.0,0.012
3592.0,0.0121
3591.0,0.0121
3590.0,0.0122
3589.0,0.0123
3588.0,0.0125
3587.0,0.0126
3586.0,0.0126
3585.0,0.0126
3584.0,0.0127
3583.0,0.0127
3582.0,0.0129
3581.0,0.013
3580.0,0.0132
3579.0,0.0134
3578.0,0.0135
3577.0,0.0135
3576.0,0.0136
3575.0,0.0136
3574.0,0.0137
3573.0,0.0137
3572.0,0.0138
3571.0,0.0138
3570.0,0.0139
3569.0,0.014
3568.0,0.0143
3567.0,0.0145
3566.0,0.0147
3565.0,0.0148
3564.0,0.0148
3563.0,0.0148
3562.0,0.0148
3561.0,0.0149
3560.0,0.015
3559.0,0.0152
3558.0,0.0153
3557.0,0.0155
3556.0,0.0155
3555.0,0.0156
3554.0,0.0157
3553.0,0.0158
3552.0,0.0159
3551.0,0.0159
3550.0,0.0159
3549.0,0.0159
3548.0,0.016
3547.0,0.0161
3546.0,0.0162
3545.0,0.0162
3544.0,0.0163
3543.0,0.0164
3542.0,0.0165
3541.0,0.0166
3540.0,0.0166
3539.0,0.0167
3538.0,0.0167
3537.0,0.0168
3536.0,0.017
3535.0,0.0172
3534.0,0.0173
3533.0,0.0173
3532.0,0.0174
3531.0,0.0174
3530.0,0.0175
3529.0,0.0176
3528.0,0.0178
3527.0,0.0179
3526.0,0.018
3525.0,0.0181
3524.0,0.0181
3523.0,0.0181
3522.0,0.0181
3521.0,0.0182
3520.0,0.0183
3519.0,0.0184
3518.0,0.0185
3517.0,0.0186
3516.0,0.0187
3515.0,0.0188
3514.0,0.0188
3513.0,0.019
3512.0,0.0191
3511.0,0.0192
3510.0,0.0193
3509.0,0.0194
3508.0,0.0194
3507.0,0.0194
3506.0,0.0195
3505.0,0.0196
3504.0,0.0198
3503.0,0.0198
3502.0,0.0198
3501.0,0.0197
3500.0,0.0197
3499.0,0.0198
3498.0,0.02
3497.0,0.0201
3496.0,0.0203
3495.0,0.0203
3494.0,0.0204
3493.0,0.0205
3492.0,0.0206
3491.0,0.0207
3490.0,0.0208
3489.0,0.0209
3488.0,0.021
3487.0,0.0211
3486.0,0.0211
3485.0,0.0211
3484.0,0.0211
3483.0,0.0212
3482.0,0.0214
3481.0,0.0216
3480.0,0.0218
3479.0,0.0218
3478.0,0.0218
3477.0,0.0219
3476.0,0.022
3475.0,0.0221
3474.0,0.0223
3473.0,0.0224
3472.0,0.0224
3471.0,0.0225
3470.0,0.0226
3469.0,0.0228
3468.0,0.0229
3467.0,0.023
3466.0,0.0229
3465.0,0.0229
3464.0,0.023
3463.0,0.0231
3462.0,0.0232
3461.0,0.0234
3460.0,0.0235
3459.0,0.0236
3458.0,0.0236
3457.0,0.0236
3456.0,0.0236
3455.0,0.0237
3454.0,0.0238
3453.0,0.0239
3452.0,0.024
3451.0,0.024
3450.0,0.0239
3449.0,0.0239
3448.0,0.024
3447.0,0.024
3446.0,0.0241
3445.0,0.0242
3444.0,0.0243
3443.0,0.0245
3442.0,0.0247
3441.0,0.0248
3440.0,0.025
3439.0,0.025
3438.0,0.025
3437.0,0.0249
3436.0,0.0248
3435.0,0.0249
3434.0,0.0249
3433.0,0.0251
3432.0,0.0252
3431.0,0.0252
3430.0,0.0252
3429.0,0.0253
3428.0,0.0254
3427.0,0.0255
3426.0,0.0256
3425.0,0.0257
3424.0,0.0257
3423.0,0.0258
3422.0,0.0259
3421.0,0.026
3420.0,0.026
3419.0,0.026
3418.0,0.026
3417.0,0.026
3416.0,0.0262
3415.0,0.0263
3414.0,0.0264
3413.0,0.0264
3412.0,0.0264
3411.0,0.0263
3410.0,0.0263
3409.0,0.0263
3408.0,0.0264
3407.0,0.0264
3406.0,0.0264
3405.0,0.0264
3404.0,0.0265
3403.0,0.0265
3402.0,0.0266
3401.0,0.0267
3400.0,0.0267
3399.0,0.0267
3398.0,0.0267
3397.0,0.0268
3396.0,0.0269
3395.0,0.0269
3394.0,0.0269
3393.0,0.0269
3392.0,0.0268
3391.0,0.0268
3390.0,0.0268
3389.0,0.0268
3388.0,0.0269
3387.0,0.0268
3386.0,0.0268
3385.0,0.0267
3384.0,0.0267
3383.0,0.0266
3382.0,0.0266
3381.0,0.0266
3380.0,0.0267
3379.0,0.0267
3378.0,0.0266
3377.0,0.0265
3376.0,0.0264
3375.0,0.0264
3374.0,0.0264
3373.0,0.0265
3372.0,0.0264
3371.0,0.0264
3370.0,0.0264
3369.0,0.0264
3368.0,0.0263
3367.0,0.0263
3366.0,0.0263
3365.0,0.0264
3364.0,0.0264
3363.0,0.0264
3362.0,0.0264
3361.0,0.0264
3360.0,0.0264
3359.0,0.0264
3358.0,0.0263
3357.0,0.0262
3356.0,0.0261
3355.0,0.0259
3354.0,0.0258
3353.0,0.0257
3352.0,0.0256
3351.0,0.0256
3350.0,0.0257
3349.0,0.0258
3348.0,0.0259
3347.0,0.0259
3346.0,0.0258
3345.0,0.0257
3344.0,0.0256
3343.0,0.0255
3342.0,0.0254
3341.0,0.0254
3340.0,0.0254
3339.0,0.0254
3338.0,0.0253
3337.0,0.0252
3336.0,0.0251
3335.0,0.025
3334.0,0.0249
3333.0,0.0249
3332.0,0.0248
3331.0,0.0248
3330.0,0.0247
3329.0,0.0247
3328.0,0.0246
3327.0,0.0246
3326.0,0.0244
3325.0,0.0243
3324.0,0.0242
3323.0,0.0241
3322.0,0.0241
3321.0,0.024
3320.0,0.024
3319.0,0.0239
3318.0,0.0238
3317.0,0.0237
3316.0,0.0237
3315.0,0.0236
3314.0,0.0235
3313.0,0.0234
3312.0,0.0234
3311.0,0.0233
3310.0,0.0234
3309.0,0.0234
3308.0,0.0233
3307.0,0.0233
3306.0,0.0233
3305.0,0.0233
3304.0,0.0233
3303.0,0.0233
3302.0,0.0232
3301.0,0.0231
3300.0,0.023
3299.0,0.0229
3298.0,0.0229
3297.0,0.0228
3296.0,0.0227
3295.0,0.0226
3294.0,0.0225
3293.0,0.0224
3292.0,0.0224
3291.0,0.0223
3290.0,0.0222
3289.0,0.0221
3288.0,0.0221
3287.0,0.022
3286.0,0.022
3285.0,0.0219
3284.0,0.0217
3283.0,0.0217
3282.0,0.0217
3281.0,0.0217
3280.0,0.0217
3279.0,0.0217
3278.0,0.0216
3277.0,0.0215
3276.0,0.0214
3275.0,0.0213
3274.0,0.0213
3273.0,0.0214
3272.0,0.0215
3271.0,0.0215
3270.0,0.0215
3269.0,0.0214
3268.0,0.0213
3267.0,0.0213
3266.0,0.0212
3265.0,0.0212
3264.0,0.0211
3263.0,0.0209
3262.0,0.0208
3261.0,0.0208
3260.0,0.0208
3259.0,0.0209
3258.0,0.0209
3257.0,0.0208
3256.0,0.0208
3255.0,0.0207
3254.0,0.0206
3253.0,0.0205
3252.0,0.0205
3251.0,0.0205
3250.0,0.0204
3249.0,0.0204
3248.0,0.0203
3247.0,0.0202
3246.0,0.0203
3245.0,0.0204
3244.0,0.0205
3243.0,0.0205
3242.0,0.0203
3241.0,0.02
3240.0,0.0198
3239.0,0.0198
3238.0,0.0198
3237.0,0.0199
3236.0,0.0199
3235.0,0.02
3234.0,0.0201
3233.0,0.0201
3232.0,0.0201
3231.0,0.0201
3230.0,0.0199
3229.0,0.0197
3228.0,0.0194
3227.0,0.0191
3226.0,0.019
3225.0,0.019
3224.0,0.019
3223.0,0.0191
3222.0,0.0191
3221.0,0.0191
3220.0,0.0191
3219.0,0.0191
3218.0,0.0191
3217.0,0.0189
3216.0,0.0188
3215.0,0.0186
3214.0,0.0186
3213.0,0.0185
3212.0,0.0185
3211.0,0.0185
3210.0,0.0185
3209.0,0.0185
3208.0,0.0184
3207.0,0.0183
3206.0,0.0182
3205.0,0.018
3204.0,0.0179
3203.0,0.0179
3202.0,0.0179
3201.0,0.018
3200.0,0.0181
3199.0,0.018
3198.0,0.0178
3197.0,0.0176
3196.0,0.0176
3195.0,0.0176
3194.0,0.0176
3193.0,0.0176
3192.0,0.0174
3191.0,0.0173
3190.0,0.0171
3189.0,0.017
3188.0,0.0169
3187.0,0.0169
3186.0,0.0168
3185.0,0.0168
3184.0,0.0167
3183.0,0.0166
3182.0,0.0166
3181.0,0.0165
3180.0,0.0164
3179.0,0.0164
3178.0,0.0164
3177.0,0.0163
3176.0,0.0162
3175.0,0.0161
3174.0,0.0161
3173.0,0.016
3172.0,0.0158
3171.0,0.0157
3170.0,0.0155
3169.0,0.0155
3168.0,0.0155
3167.0,0.0155
3166.0,0.0155
3165.0,0.0155
3164.0,0.0154
3163.0,0.0153
3162.0,0.0152
3161.0,0.0152
3160.0,0.0151
3159.0,0.015
3158.0,0.015
3157.0,0.0149
3156.0,0.0149
3155.0,0.0147
3154.0,0.0146
3153.0,0.0145
3152.0,0.0144
3151.0,0.0143
3150.0,0.0142
3149.0,0.0141
3148.0,0.0141
3147.0,0.0141
3146.0,0.0141
3145.0,0.014
3144.0,0.0139
3143.0,0.0139
3142.0,0.0139
3141.0,0.0139
3140.0,0.0139
3139.0,0.0139
3138.0,0.0139
3137.0,0.0138
3136.0,0.0137
3135.0,0.0135
3134.0,0.0133
3133.0,0.0131
3132.0,0.013
3131.0,0.0128
3130.0,0.0128
3129.0,0.0128
3128.0,0.0128
3127.0,0.0128
3126.0,0.0128
3125.0,0.0128
3124.0,0.0127
3123.0,0.0127
3122.0,0.0127
3121.0,0.0128
3120.0,0.0127
3119.0,0.0126
3118.0,0.0124
3117.0,0.0122
3116.0,0.0121
3115.0,0.012
3114.0,0.012
3113.0,0.012
3112.0,0.012
3111.0,0.0119
3110.0,0.0119
3109.0,0.0119
3108.0,0.0118
3107.0,0.0118
3106.0,0.0117
3105.0,0.0116
3104.0,0.0115
3103.0,0.0114
3102.0,0.0113
3101.0,0.0112
3100.0,0.0112
3099.0,0.0111
3098.0,0.011
3097.0,0.0109
3096.0,0.0109
3095.0,0.0109
3094.0,0.0108
3093.0,0.0107
3092.0,0.0107
3091.0,0.0106
3090.0,0.0105
3089.0,0.0105
3088.0,0.0104
3087.0,0.0104
3086.0,0.0103
3085.0,0.0103
3084.0,0.0103
3083.0,0.0102
3082.0,0.0102
3081.0,0.0101
3080.0,0.0101
3079.0,0.01
3078.0,0.01
3077.0,0.0099
3076.0,0.01
3075.0,0.01
3074.0,0.01
3073.0,0.01
3072.0,0.01
3071.0,0.0099
3070.0,0.0099
3069.0,0.0099
3068.0,0.0098
3067.0,0.0097
3066.0,0.0095
3065.0,0.0094
3064.0,0.0093
3063.0,0.0093
3062.0,0.0093
3061.0,0.0092
3060.0,0.0092
3059.0,0.0091
3058.0,0.009
3057.0,0.0089
3056.0,0.0089
3055.0,0.0088
3054.0,0.0087
3053.0,0.0087
3052.0,0.0086
3051.0,0.0085
3050.0,0.0084
3049.0,0.0084
3048.0,0.0084
3047.0,0.0083
3046.0,0.0083
3045.0,0.0082
3044.0,0.0081
3043.0,0.008
3042.0,0.008
3041.0,0.008
3040.0,0.008
3039.0,0.008
3038.0,0.008
3037.0,0.0079
3036.0,0.0077
3035.0,0.0075
3034.0,0.0074
3033.0,0.0074
3032.0,0.0074
3031.0,0.0074
3030.0,0.0074
3029.0,0.0074
3028.0,0.0074
3027.0,0.0074
3026.0,0.0073
3025.0,0.0073
3024.0,0.0073
3023.0,0.0072
3022.0,0.0072
3021.0,0.0071
3020.0,0.0071
3019.0,0.0072
3018.0,0.0072
3017.0,0.0072
3016.0,0.0071
3015.0,0.007
3014.0,0.007
3013.0,0.0069
3012.0,0.0069
3011.0,0.0069
3010.0,0.0068
3009.0,0.0068
3008.0,0.0068
3007.0,0.0068
3006.0,0.0068
3005.0,0.0069
3004.0,0.0069
3003.0,0.0069
3002.0,0.0069
3001.0,0.0069
3000.0,0.0069
2999.0,0.007
2998.0,0.0071
2997.0,0.0071
2996.0,0.0072
2995.0,0.0072
2994.0,0.0074
2993.0,0.0076
2992.0,0.0079
2991.0,0.0081
2990.0,0.0083
2989.0,0.0085
2988.0,0.0088
2987.0,0.0092
2986.0,0.0097
2985.0,0.0103
2984.0,0.0109
2983.0,0.0116
2982.0,0.0124
2981.0,0.0133
2980.0,0.0144
2979.0,0.0156
2978.0,0.0172
2977.0,0.019
2976.0,0.0211
2975.0,0.0236
2974.0,0.0265
2973.0,0.0297
2972.0,0.0332
2971.0,0.0372
2970.0,0.0418
2969.0,0.0468
2968.0,0.0523
2967.0,0.0581
2966.0,0.064
2965.0,0.07
2964.0,0.0758
2963.0,0.0809
2962.0,0.0853
2961.0,0.0886
2960.0,0.0908
2959.0,0.0924
2958.0,0.0935
2957.0,0.0948
2956.0,0.0966
2955.0,0.0993
2954.0,0.1026
2953.0,0.1061
2952.0,0.1092
2951.0,0.1111
2950.0,0.1112
2949.0,0.1091
2948.0,0.1049
2947.0,0.0991
2946.0,0.0921
2945.0,0.0848
2944.0,0.0779
2943.0,0.0718
2942.0,0.0669
2941.0,0.0631
2940.0,0.0606
2939.0,0.0592
2938.0,0.0589
2937.0,0.0596
2936.0,0.0612
2935.0,0.0636
2934.0,0.0669
2933.0,0.0709
2932.0,0.0756
2931.0,0.0807
2930.0,0.0861
2929.0,0.0916
2928.0,0.0969
2927.0,0.1021
2926.0,0.107
2925.0,0.1118
2924.0,0.1165
2923.0,0.1213
2922.0,0.1259
2921.0,0.1303
2920.0,0.1339
2919.0,0.1363
2918.0,0.1371
2917.0,0.1361
2916.0,0.1336
2915.0,0.13
2914.0,0.1258
2913.0,0.1215
2912.0,0.1175
2911.0,0.1141
2910.0,0.1112
2909.0,0.1087
2908.0,0.1062
2907.0,0.1038
2906.0,0.1014
2905.0,0.0987
2904.0,0.0959
2903.0,0.0929
2902.0,0.0898
2901.0,0.0867
2900.0,0.0836
2899.0,0.0807
2898.0,0.078
2897.0,0.0755
2896.0,0.0732
2895.0,0.0713
2894.0,0.0697
2893.0,0.0685
2892.0,0.0676
2891.0,0.0669
2890.0,0.0664
2889.0,0.0662
2888.0,0.0663
2887.0,0.0665
2886.0,0.0668
2885.0,0.0674
2884.0,0.0681
2883.0,0.0691
2882.0,0.0702
2881.0,0.0714
2880.0,0.0725
2879.0,0.0734
2878.0,0.0739
2877.0,0.0739
2876.0,0.0735
2875.0,0.073
2874.0,0.0728
2873.0,0.0729
2872.0,0.0736
2871.0,0.0746
2870.0,0.0758
2869.0,0.0768
2868.0,0.0775
2867.0,0.0772
2866.0,0.0757
2865.0,0.0728
2864.0,0.0688
2863.0,0.0643
2862.0,0.0596
2861.0,0.0553
2860.0,0.0516
2859.0,0.0486
2858.0,0.0464
2857.0,0.0447
2856.0,0.0437
2855.0,0.0431
2854.0,0.0429
2853.0,0.0431
2852.0,0.0437
2851.0,0.0444
2850.0,0.0455
2849.0,0.0469
2848.0,0.0488
2847.0,0.0511
2846.0,0.0541
2845.0,0.0575
2844.0,0.0614
2843.0,0.0654
2842.0,0.0695
2841.0,0.0731
2840.0,0.076
2839.0,0.0777
2838.0,0.078
2837.0,0.0766
2836.0,0.0737
2835.0,0.0697
2834.0,0.0649
2833.0,0.0599
2832.0,0.0553
2831.0,0.0511
2830.0,0.0476
2829.0,0.0446
2828.0,0.0422
2827.0,0.0401
2826.0,0.0383
2825.0,0.0368
2824.0,0.0355
2823.0,0.0344
2822.0,0.0335
2821.0,0.0327
2820.0,0.032
2819.0,0.0314
2818.0,0.0308
2817.0,0.0303
2816.0,0.0298
2815.0,0.0293
2814.0,0.029
2813.0,0.0286
2812.0,0.0282
2811.0,0.0278
2810.0,0.0274
2809.0,0.027
2808.0,0.0266
2807.0,0.0262
2806.0,0.0258
2805.0,0.0255
2804.0,0.0251
2803.0,0.0247
2802.0,0.0243
2801.0,0.0239
2800.0,0.0236
2799.0,0.0234
2798.0,0.0232
2797.0,0.023
2796.0,0.0228
2795.0,0.0227
2794.0,0.0225
2793.0,0.0224
2792.0,0.0222
2791.0,0.022
2790.0,0.0218
2789.0,0.0216
2788.0,0.0213
2787.0,0.021
2786.0,0.0208
2785.0,0.0206
2784.0,0.0204
2783.0,0.0202
2782.0,0.02
2781.0,0.0199
2780.0,0.0197
2779.0,0.0195
2778.0,0.0194
2777.0,0.0193
2776.0,0.0192
2775.0,0.019
2774.0,0.0189
2773.0,0.0187
2772.0,0.0186
2771.0,0.0185
2770.0,0.0185
2769.0,0.0185
2768.0,0.0184
2767.0,0.0183
2766.0,0.0182
2765.0,0.0182
2764.0,0.0181
2763.0,0.0181
2762.0,0.0181
2761.0,0.018
2760.0,0.0179
2759.0,0.0178
2758.0,0.0178
2757.0,0.0176
2756.0,0.0175
2755.0,0.0173
2754.0,0.0173
2753.0,0.0172
2752.0,0.0172
2751.0,0.0172
2750.0,0.0172
2749.0,0.0172
2748.0,0.0172
2747.0,0.0172
2746.0,0.0172
2745.0,0.0172
2744.0,0.0172
2743.0,0.0172
2742.0,0.0172
2741.0,0.0173
2740.0,0.0173
2739.0,0.0174
2738.0,0.0174
2737.0,0.0174
2736.0,0.0174
2735.0,0.0175
2734.0,0.0176
2733.0,0.0177
2732.0,0.0178
2731.0,0.0179
2730.0,0.0179
2729.0,0.018
2728.0,0.0182
2727.0,0.0183
2726.0,0.0185
2725.0,0.0187
2724.0,0.0187
2723.0,0.0187
2722.0,0.0187
2721.0,0.0186
2720.0,0.0184
2719.0,0.0183
2718.0,0.0181
2717.0,0.018
2716.0,0.0178
2715.0,0.0177
2714.0,0.0176
2713.0,0.0175
2712.0,0.0173
2711.0,0.0172
2710.0,0.0172
2709.0,0.017
2708.0,0.0169
2707.0,0.0167
2706.0,0.0166
2705.0,0.0165
2704.0,0.0165
2703.0,0.0165
2702.0,0.0164
2701.0,0.0163
2700.0,0.0162
2699.0,0.0161
2698.0,0.0161
2697.0,0.0162
2696.0,0.0162
2695.0,0.0161
2694.0,0.016
2693.0,0.0159
2692.0,0.0158
2691.0,0.0158
2690.0,0.0158
2689.0,0.0159
2688.0,0.0159
2687.0,0.0159
2686.0,0.0159
2685.0,0.0159
2684.0,0.0159
2683.0,0.0159
2682.0,0.0159
2681.0,0.0159
2680.0,0.0158
2679.0,0.0158
2678.0,0.0158
2677.0,0.0158
2676.0,0.0158
2675.0,0.0158
2674.0,0.0157
2673.0,0.0157
2672.0,0.0157
2671.0,0.0157
2670.0,0.0158
2669.0,0.0158
2668.0,0.0157
2667.0,0.0156
2666.0,0.0155
2665.0,0.0155
2664.0,0.0155
2663.0,0.0155
2662.0,0.0156
2661.0,0.0155
2660.0,0.0155
2659.0,0.0154
2658.0,0.0154
2657.0,0.0154
2656.0,0.0154
2655.0,0.0154
2654.0,0.0153
2653.0,0.0152
2652.0,0.0151
2651.0,0.0151
2650.0,0.0151
2649.0,0.0151
2648.0,0.015
2647.0,0.0151
2646.0,0.0151
2645.0,0.015
2644.0,0.015
2643.0,0.0149
2642.0,0.0148
2641.0,0.0147
2640.0,0.0146
2639.0,0.0146
2638.0,0.0146
2637.0,0.0146
2636.0,0.0147
2635.0,0.0147
2634.0,0.0148
2633.0,0.0148
2632.0,0.0147
2631.0,0.0147
2630.0,0.0146
2629.0,0.0146
2628.0,0.0146
2627.0,0.0147
2626.0,0.0147
2625.0,0.0147
2624.0,0.0147
2623.0,0.0147
2622.0,0.0147
2621.0,0.0148
2620.0,0.0148
2619.0,0.0148
2618.0,0.0148
2617.0,0.0148
2616.0,0.0147
2615.0,0.0147
2614.0,0.0147
2613.0,0.0148
2612.0,0.0148
2611.0,0.0148
2610.0,0.0148
2609.0,0.0148
2608.0,0.0147
2607.0,0.0147
2606.0,0.0146
2605.0,0.0146
2604.0,0.0145
2603.0,0.0145
2602.0,0.0144
2601.0,0.0144
2600.0,0.0143
2599.0,0.0143
2598.0,0.0143
2597.0,0.0143
2596.0,0.0144
2595.0,0.0144
2594.0,0.0144
2593.0,0.0144
2592.0,0.0144
2591.0,0.0144
2590.0,0.0145
2589.0,0.0147
2588.0,0.0148
2587.0,0.0149
2586.0,0.015
2585.0,0.015
2584.0,0.015
2583.0,0.015
2582.0,0.0149
2581.0,0.0149
2580.0,0.0149
2579.0,0.0148
2578.0,0.0148
2577.0,0.0147
2576.0,0.0146
2575.0,0.0145
2574.0,0.0145
2573.0,0.0145
2572.0,0.0145
2571.0,0.0145
2570.0,0.0145
2569.0,0.0145
2568.0,0.0144
2567.0,0.0143
2566.0,0.0142
2565.0,0.0142
2564.0,0.0143
2563.0,0.0143
2562.0,0.0143
2561.0,0.0143
2560.0,0.0143
2559.0,0.0142
2558.0,0.0142
2557.0,0.0142
2556.0,0.0142
2555.0,0.0141
2554.0,0.014
2553.0,0.014
2552.0,0.0139
2551.0,0.0139
2550.0,0.0139
2549.0,0.0139
2548.0,0.0138
2547.0,0.0137
2546.0,0.0137
2545.0,0.0137
2544.0,0.0137
2543.0,0.0137
2542.0,0.0137
2541.0,0.0137
2540.0,0.0136
2539.0,0.0136
2538.0,0.0135
2537.0,0.0135
2536.0,0.0135
2535.0,0.0136
2534.0,0.0137
2533.0,0.0137
2532.0,0.0137
2531.0,0.0137
2530.0,0.0136
2529.0,0.0136
2528.0,0.0135
2527.0,0.0135
2526.0,0.0134
2525.0,0.0134
2524.0,0.0133
2523.0,0.0133
2522.0,0.0133
2521.0,0.0133
2520.0,0.0134
2519.0,0.0135
2518.0,0.0135
2517.0,0.0134
2516.0,0.0134
2515.0,0.0133
2514.0,0.0133
2513.0,0.0132
2512.0,0.0132
2511.0,0.0131
2510.0,0.0131
2509.0,0.0132
2508.0,0.0132
2507.0,0.0132
2506.0,0.0132
2505.0,0.0132
2504.0,0.0132
2503.0,0.0133
2502.0,0.0133
2501.0,0.0133
2500.0,0.0133
2499.0,0.0133
2498.0,0.0133
2497.0,0.0134
2496.0,0.0134
2495.0,0.0134
2494.0,0.0134
2493.0,0.0133
2492.0,0.0133
2491.0,0.0133
2490.0,0.0133
2489.0,0.0133
2488.0,0.0133
2487.0,0.0133
2486.0,0.0132
2485.0,0.0132
2484.0,0.0132
2483.0,0.0132
2482.0,0.0133
2481.0,0.0133
2480.0,0.0133
2479.0,0.0133
2478.0,0.0133
2477.0,0.0133
2476.0,0.0133
2475.0,0.0132
2474.0,0.0132
2473.0,0.0132
2472.0,0.0131
2471.0,0.0131
2470.0,0.0131
2469.0,0.0131
2468.0,0.0132
2467.0,0.0132
2466.0,0.0132
2465.0,0.0131
2464.0,0.0131
2463.0,0.0131
2462.0,0.0131
2461.0,0.0132
2460.0,0.0133
2459.0,0.0132
2458.0,0.0132
2457.0,0.0132
2456.0,0.0132
2455.0,0.0132
2454.0,0.0132
2453.0,0.0132
2452.0,0.0132
2451.0,0.0132
2450.0,0.0132
2449.0,0.0132
2448.0,0.0133
2447.0,0.0133
2446.0,0.0133
2445.0,0.0133
2444.0,0.0133
2443.0,0.0133
2442.0,0.0133
2441.0,0.0133
2440.0,0.0133
2439.0,0.0133
2438.0,0.0133
2437.0,0.0132
2436.0,0.0132
2435.0,0.0133
2434.0,0.0134
2433.0,0.0134
2432.0,0.0134
2431.0,0.0134
2430.0,0.0134
2429.0,0.0134
2428.0,0.0134
2427.0,0.0134
2426.0,0.0134
2425.0,0.0135
2424.0,0.0136
2423.0,0.0136
2422.0,0.0136
2421.0,0.0135
2420.0,0.0133
2419.0,0.0133
2418.0,0.0133
2417.0,0.0133
2416.0,0.0133
2415.0,0.0133
2414.0,0.0132
2413.0,0.0132
2412.0,0.0132
2411.0,0.0133
2410.0,0.0134
2409.0,0.0134
2408.0,0.0134
2407.0,0.0133
2406.0,0.0133
2405.0,0.0134
2404.0,0.0134
2403.0,0.0135
2402.0,0.0135
2401.0,0.0135
2400.0,0.0135
2399.0,0.0135
2398.0,0.0135
2397.0,0.0134
2396.0,0.0133
2395.0,0.0133
2394.0,0.0132
2393.0,0.0132
2392.0,0.0132
2391.0,0.0132
2390.0,0.0132
2389.0,0.0132
2388.0,0.0131
2387.0,0.013
2386.0,0.0129
2385.0,0.0129
2384.0,0.013
2383.0,0.0132
2382.0,0.0136
2381.0,0.0141
2380.0,0.0145
2379.0,0.0149
2378.0,0.0151
2377.0,0.0151
2376.0,0.0149
2375.0,0.0146
2374.0,0.0142
2373.0,0.0139
2372.0,0.0137
2371.0,0.0135
2370.0,0.0134
2369.0,0.0134
2368.0,0.0134
2367.0,0.0132
2366.0,0.0131
2365.0,0.0133
2364.0,0.0136
2363.0,0.0134
2362.0,0.013
2361.0,0.0135
2360.0,0.0146
2359.0,0.0155
2358.0,0.0155
2357.0,0.0148
2356.0,0.0139
2355.0,0.013
2354.0,0.0125
2353.0,0.0126
2352.0,0.0129
2351.0,0.013
2350.0,0.013
2349.0,0.0131
2348.0,0.0133
2347.0,0.0136
2346.0,0.0137
2345.0,0.0137
2344.0,0.0135
2343.0,0.0131
2342.0,0.0131
2341.0,0.0136
2340.0,0.014
2339.0,0.0142
2338.0,0.0142
2337.0,0.0144
2336.0,0.0147
2335.0,0.0148
2334.0,0.0148
2333.0,0.0148
2332.0,0.0147
2331.0,0.0144
2330.0,0.0139
2329.0,0.0136
2328.0,0.0135
2327.0,0.0135
2326.0,0.0134
2325.0,0.0134
2324.0,0.0134
2323.0,0.0135
2322.0,0.0135
2321.0,0.0135
2320.0,0.0134
2319.0,0.0132
2318.0,0.013
2317.0,0.013
2316.0,0.0131
2315.0,0.0131
2314.0,0.013
2313.0,0.0129
2312.0,0.0128
2311.0,0.0128
2310.0,0.0128
2309.0,0.0128
2308.0,0.0129
2307.0,0.0131
2306.0,0.0131
2305.0,0.0131
2304.0,0.0129
2303.0,0.0127
2302.0,0.0124
2301.0,0.0123
2300.0,0.0123
2299.0,0.0123
2298.0,0.0123
2297.0,0.0123
2296.0,0.0123
2295.0,0.0123
2294.0,0.0123
2293.0,0.0124
2292.0,0.0125
2291.0,0.0126
2290.0,0.0127
2289.0,0.0128
2288.0,0.0129
2287.0,0.013
2286.0,0.0132
2285.0,0.0133
2284.0,0.0133
2283.0,0.0132
2282.0,0.0132
2281.0,0.0132
2280.0,0.0132
2279.0,0.0132
2278.0,0.0133
2277.0,0.0133
2276.0,0.0133
2275.0,0.0134
2274.0,0.0134
2273.0,0.0134
2272.0,0.0134
2271.0,0.0134
2270.0,0.0133
2269.0,0.0132
2268.0,0.0131
2267.0,0.0131
2266.0,0.0132
2265.0,0.0133
2264.0,0.0133
2263.0,0.0133
2262.0,0.0133
2261.0,0.0134
2260.0,0.0134
2259.0,0.0135
2258.0,0.0136
2257.0,0.0136
2256.0,0.0136
2255.0,0.0136
2254.0,0.0136
2253.0,0.0136
2252.0,0.0135
2251.0,0.0135
2250.0,0.0134
2249.0,0.0134
2248.0,0.0134
2247.0,0.0134
2246.0,0.0135
2245.0,0.0135
2244.0,0.0136
2243.0,0.0136
2242.0,0.0136
2241.0,0.0135
2240.0,0.0135
2239.0,0.0135
2238.0,0.0135
2237.0,0.0136
2236.0,0.0137
2235.0,0.0137
2234.0,0.0137
2233.0,0.0136
2232.0,0.0136
2231.0,0.0136
2230.0,0.0137
2229.0,0.0137
2228.0,0.0137
2227.0,0.0137
2226.0,0.0136
2225.0,0.0136
2224.0,0.0136
2223.0,0.0136
2222.0,0.0136
2221.0,0.0136
2220.0,0.0135
2219.0,0.0135
2218.0,0.0136
2217.0,0.0136
2216.0,0.0136
2215.0,0.0136
2214.0,0.0136
2213.0,0.0137
2212.0,0.0137
2211.0,0.0137
2210.0,0.0137
2209.0,0.0137
2208.0,0.0137
2207.0,0.0138
2206.0,0.0138
2205.0,0.0139
2204.0,0.0139
2203.0,0.0139
2202.0,0.0139
2201.0,0.0139
2200.0,0.0138
2199.0,0.0138
2198.0,0.0138
2197.0,0.0138
2196.0,0.0138
2195.0,0.0138
2194.0,0.0138
2193.0,0.0138
2192.0,0.0138
2191.0,0.0139
2190.0,0.0139
2189.0,0.0139
2188.0,0.014
2187.0,0.014
2186.0,0.014
2185.0,0.014
2184.0,0.0139
2183.0,0.0138
2182.0,0.0138
2181.0,0.0139
2180.0,0.014
2179.0,0.014
2178.0,0.014
2177.0,0.014
2176.0,0.014
2175.0,0.014
2174.0,0.014
2173.0,0.014
2172.0,0.0139
2171.0,0.0139
2170.0,0.0139
2169.0,0.0138
2168.0,0.0139
2167.0,0.0139
2166.0,0.0139
2165.0,0.0139
2164.0,0.0139
2163.0,0.0139
2162.0,0.0139
2161.0,0.0139
2160.0,0.0139
2159.0,0.0139
2158.0,0.0139
2157.0,0.014
2156.0,0.014
2155.0,0.014
2154.0,0.0141
2153.0,0.014
2152.0,0.014
2151.0,0.014
2150.0,0.014
2149.0,0.014
2148.0,0.014
2147.0,0.014
2146.0,0.0139
2145.0,0.0139
2144.0,0.0139
2143.0,0.014
2142.0,0.014
2141.0,0.014
2140.0,0.014
2139.0,0.014
2138.0,0.014
2137.0,0.014
2136.0,0.014
2135.0,0.0141
2134.0,0.0141
2133.0,0.0141
2132.0,0.0141
2131.0,0.0141
2130.0,0.0142
2129.0,0.0143
2128.0,0.0143
2127.0,0.0143
2126.0,0.0142
2125.0,0.0141
2124.0,0.0141
2123.0,0.014
2122.0,0.0139
2121.0,0.0139
2120.0,0.0139
2119.0,0.014
2118.0,0.014
2117.0,0.014
2116.0,0.014
2115.0,0.014
2114.0,0.014
2113.0,0.014
2112.0,0.014
2111.0,0.0139
2110.0,0.0139
2109.0,0.0138
2108.0,0.0138
2107.0,0.0139
2106.0,0.0139
2105.0,0.014
2104.0,0.014
2103.0,0.014
2102.0,0.014
2101.0,0.014
2100.0,0.014
2099.0,0.014
2098.0,0.014
2097.0,0.014
2096.0,0.014
2095.0,0.0139
2094.0,0.0139
2093.0,0.0139
2092.0,0.0139
2091.0,0.0139
2090.0,0.014
2089.0,0.014
2088.0,0.014
2087.0,0.014
2086.0,0.014
2085.0,0.014
2084.0,0.014
2083.0,0.014
2082.0,0.0141
2081.0,0.0141
2080.0,0.0141
2079.0,0.0141
2078.0,0.014
2077.0,0.014
2076.0,0.014
2075.0,0.0139
2074.0,0.0139
2073.0,0.0139
2072.0,0.0139
2071.0,0.0139
2070.0,0.014
2069.0,0.014
2068.0,0.0141
2067.0,0.0141
2066.0,0.0141
2065.0,0.014
2064.0,0.014
2063.0,0.0139
2062.0,0.0139
2061.0,0.0139
2060.0,0.014
2059.0,0.014
2058.0,0.014
2057.0,0.014
2056.0,0.014
2055.0,0.014
2054.0,0.0139
2053.0,0.0139
2052.0,0.0139
2051.0,0.014
2050.0,0.014
2049.0,0.0141
2048.0,0.0141
2047.0,0.0141
2046.0,0.0141
2045.0,0.0141
2044.0,0.014
2043.0,0.014
2042.0,0.014
2041.0,0.014
2040.0,0.0141
2039.0,0.0141
2038.0,0.0141
2037.0,0.014
2036.0,0.014
2035.0,0.014
2034.0,0.014
2033.0,0.014
2032.0,0.014
2031.0,0.0141
2030.0,0.0142
2029.0,0.0143
2028.0,0.0143
2027.0,0.0143
2026.0,0.0142
2025.0,0.0141
2024.0,0.0141
2023.0,0.0141
2022.0,0.0141
2021.0,0.0141
2020.0,0.0141
2019.0,0.0141
2018.0,0.0141
2017.0,0.0141
2016.0,0.0141
2015.0,0.0141
2014.0,0.014
2013.0,0.014
2012.0,0.0141
2011.0,0.0141
2010.0,0.0141
2009.0,0.0142
2008.0,0.0142
2007.0,0.0142
2006.0,0.0142
2005.0,0.0142
2004.0,0.0142
2003.0,0.0141
2002.0,0.0141
2001.0,0.0142
2000.0,0.0143
1999.0,0.0143
1998.0,0.0143
1997.0,0.0142
1996.0,0.0143
1995.0,0.0143
1994.0,0.0143
1993.0,0.0143
1992.0,0.0143
1991.0,0.0143
1990.0,0.0143
1989.0,0.0143
1988.0,0.0143
1987.0,0.0142
1986.0,0.0142
1985.0,0.0142
1984.0,0.0142
1983.0,0.0142
1982.0,0.0142
1981.0,0.0143
1980.0,0.0144
1979.0,0.0144
1978.0,0.0144
1977.0,0.0144
1976.0,0.0144
1975.0,0.0144
1974.0,0.0143
1973.0,0.0143
1972.0,0.0143
1971.0,0.0143
1970.0,0.0143
1969.0,0.0143
1968.0,0.0144
1967.0,0.0144
1966.0,0.0144
1965.0,0.0144
1964.0,0.0144
1963.0,0.0144
1962.0,0.0144
1961.0,0.0143
1960.0,0.0143
1959.0,0.0143
1958.0,0.0143
1957.0,0.0143
1956.0,0.0144
1955.0,0.0144
1954.0,0.0144
1953.0,0.0144
1952.0,0.0144
1951.0,0.0144
1950.0,0.0144
1949.0,0.0144
1948.0,0.0144
1947.0,0.0144
1946.0,0.0144
1945.0,0.0144
1944.0,0.0144
1943.0,0.0145
1942.0,0.0146
1941.0,0.0146
1940.0,0.0146
1939.0,0.0146
1938.0,0.0146
1937.0,0.0146
1936.0,0.0146
1935.0,0.0145
1934.0,0.0145
1933.0,0.0145
1932.0,0.0146
1931.0,0.0146
1930.0,0.0146
1929.0,0.0146
1928.0,0.0146
1927.0,0.0146
1926.0,0.0146
1925.0,0.0146
1924.0,0.0146
1923.0,0.0146
1922.0,0.0145
1921.0,0.0146
1920.0,0.0146
1919.0,0.0147
1918.0,0.0147
1917.0,0.0147
1916.0,0.0146
1915.0,0.0147
1914.0,0.0147
1913.0,0.0148
1912.0,0.0148
1911.0,0.0148
1910.0,0.0148
1909.0,0.0148
1908.0,0.0148
1907.0,0.0148
1906.0,0.0148
1905.0,0.0148
1904.0,0.0147
1903.0,0.0148
1902.0,0.0148
1901.0,0.0148
1900.0,0.0148
1899.0,0.0148
1898.0,0.0148
1897.0,0.0148
1896.0,0.0149
1895.0,0.0149
1894.0,0.0149
1893.0,0.0149
1892.0,0.015
1891.0,0.015
1890.0,0.015
1889.0,0.0149
1888.0,0.0149
1887.0,0.0149
1886.0,0.0149
1885.0,0.0149
1884.0,0.0149
1883.0,0.0148
1882.0,0.0148
1881.0,0.0149
1880.0,0.0149
1879.0,0.0149
1878.0,0.0149
1877.0,0.015
1876.0,0.015
1875.0,0.015
1874.0,0.0149
1873.0,0.015
1872.0,0.015
1871.0,0.0151
1870.0,0.0151
1869.0,0.015
1868.0,0.0149
1867.0,0.0149
1866.0,0.0149
1865.0,0.0149
1864.0,0.015
1863.0,0.0151
1862.0,0.0151
1861.0,0.0151
1860.0,0.0151
1859.0,0.0151
1858.0,0.0151
1857.0,0.0151
1856.0,0.0151
1855.0,0.0151
1854.0,0.0151
1853.0,0.0151
1852.0,0.0151
1851.0,0.0152
1850.0,0.0152
1849.0,0.0152
1848.0,0.0152
1847.0,0.0153
1846.0,0.0154
1845.0,0.0154
1844.0,0.0153
1843.0,0.0153
1842.0,0.0153
1841.0,0.0154
1840.0,0.0154
1839.0,0.0154
1838.0,0.0153
1837.0,0.0153
1836.0,0.0153
1835.0,0.0153
1834.0,0.0153
1833.0,0.0153
1832.0,0.0153
1831.0,0.0153
1830.0,0.0152
1829.0,0.0152
1828.0,0.0153
1827.0,0.0154
1826.0,0.0154
1825.0,0.0154
1824.0,0.0154
1823.0,0.0153
1822.0,0.0153
1821.0,0.0153
1820.0,0.0153
1819.0,0.0153
1818.0,0.0154
1817.0,0.0154
1816.0,0.0154
1815.0,0.0153
1814.0,0.0153
1813.0,0.0153
1812.0,0.0152
1811.0,0.0152
1810.0,0.0152
1809.0,0.0153
1808.0,0.0153
1807.0,0.0154
1806.0,0.0154
1805.0,0.0154
1804.0,0.0154
1803.0,0.0154
1802.0,0.0155
1801.0,0.0155
1800.0,0.0155
1799.0,0.0154
1798.0,0.0154
1797.0,0.0154
1796.0,0.0154
1795.0,0.0154
1794.0,0.0154
1793.0,0.0154
1792.0,0.0155
1791.0,0.0156
1790.0,0.0157
1789.0,0.0157
1788.0,0.0158
1787.0,0.0158
1786.0,0.0158
1785.0,0.0158
1784.0,0.0158
1783.0,0.0158
1782.0,0.0157
1781.0,0.0157
1780.0,0.0157
1779.0,0.0157
1778.0,0.0157
1777.0,0.0158
1776.0,0.0158
1775.0,0.0158
1774.0,0.0157
1773.0,0.0157
1772.0,0.0157
1771.0,0.0157
1770.0,0.0159
1769.0,0.0161
1768.0,0.0161
1767.0,0.0161
1766.0,0.016
1765.0,0.016
1764.0,0.0161
1763.0,0.0161
1762.0,0.0161
1761.0,0.0161
1760.0,0.0162
1759.0,0.0163
1758.0,0.0163
1757.0,0.0163
1756.0,0.0163
1755.0,0.0164
1754.0,0.0165
1753.0,0.0166
1752.0,0.0166
1751.0,0.0167
1750.0,0.0167
1749.0,0.0168
1748.0,0.0168
1747.0,0.0169
1746.0,0.0169
1745.0,0.017
1744.0,0.017
1743.0,0.017
1742.0,0.017
1741.0,0.017
1740.0,0.017
1739.0,0.0169
1738.0,0.0169
1737.0,0.017
1736.0,0.0171
1735.0,0.0172
1734.0,0.0172
1733.0,0.0171
1732.0,0.017
1731.0,0.017
1730.0,0.017
1729.0,0.0171
1728.0,0.0171
1727.0,0.0171
1726.0,0.0171
1725.0,0.0171
1724.0,0.0171
1723.0,0.0172
1722.0,0.0172
1721.0,0.0173
1720.0,0.0175
1719.0,0.0176
1718.0,0.0177
1717.0,0.0178
1716.0,0.0177
1715.0,0.0177
1714.0,0.0178
1713.0,0.0179
1712.0,0.018
1711.0,0.0181
1710.0,0.0181
1709.0,0.0182
1708.0,0.0182
1707.0,0.0181
1706.0,0.0181
1705.0,0.0182
1704.0,0.0184
1703.0,0.0186
1702.0,0.0188
1701.0,0.0191
1700.0,0.0192
1699.0,0.0191
1698.0,0.0192
1697.0,0.0194
1696.0,0.0196
1695.0,0.0197
1694.0,0.0197
1693.0,0.0198
1692.0,0.0198
1691.0,0.0199
1690.0,0.02
1689.0,0.0201
1688.0,0.0203
1687.0,0.0204
1686.0,0.0205
1685.0,0.0206
1684.0,0.0209
1683.0,0.0211
1682.0,0.0212
1681.0,0.0214
1680.0,0.0216
1679.0,0.0217
1678.0,0.0218
1677.0,0.0219
1676.0,0.0221
1675.0,0.0222
1674.0,0.0223
1673.0,0.0223
1672.0,0.0223
1671.0,0.0224
1670.0,0.0225
1669.0,0.0228
1668.0,0.0231
1667.0,0.0232
1666.0,0.0233
1665.0,0.0234
1664.0,0.0235
1663.0,0.0237
1662.0,0.0238
1661.0,0.0239
1660.0,0.024
1659.0,0.0241
1658.0,0.0241
1657.0,0.0241
1656.0,0.0242
1655.0,0.0241
1654.0,0.0242
1653.0,0.0246
1652.0,0.0246
1651.0,0.0246
1650.0,0.0246
1649.0,0.0246
1648.0,0.0247
1647.0,0.0251
1646.0,0.0254
1645.0,0.0255
1644.0,0.0256
1643.0,0.0256
1642.0,0.0255
1641.0,0.0255
1640.0,0.0254
1639.0,0.0254
1638.0,0.0254
1637.0,0.0254
1636.0,0.0254
1635.0,0.0254
1634.0,0.0253
1633.0,0.0252
1632.0,0.0251
1631.0,0.0251
1630.0,0.025
1629.0,0.0249
1628.0,0.0248
1627.0,0.0247
1626.0,0.0247
1625.0,0.0246
1624.0,0.0245
1623.0,0.0244
1622.0,0.0244
1621.0,0.0243
1620.0,0.0242
1619.0,0.0241
1618.0,0.0241
1617.0,0.0241
1616.0,0.0241
1615.0,0.024
1614.0,0.0239
1613.0,0.0238
1612.0,0.0236
1611.0,0.0235
1610.0,0.0234
1609.0,0.0233
1608.0,0.0232
1607.0,0.0232
1606.0,0.0231
1605.0,0.0231
1604.0,0.023
1603.0,0.0229
1602.0,0.0228
1601.0,0.0227
1600.0,0.0227
1599.0,0.0226
1598.0,0.0226
1597.0,0.0225
1596.0,0.0224
1595.0,0.0223
1594.0,0.0223
1593.0,0.0223
1592.0,0.0223
1591.0,0.0222
1590.0,0.0222
1589.0,0.0222
1588.0,0.0221
1587.0,0.0221
1586.0,0.022
1585.0,0.022
1584.0,0.022
1583.0,0.022
1582.0,0.022
1581.0,0.0219
1580.0,0.0219
1579.0,0.0218
1578.0,0.0218
1577.0,0.0217
1576.0,0.0217
1575.0,0.0216
1574.0,0.0215
1573.0,0.0215
1572.0,0.0215
1571.0,0.0214
1570.0,0.0214
1569.0,0.0213
1568.0,0.0212
1567.0,0.0211
1566.0,0.0209
1565.0,0.0208
1564.0,0.0208
1563.0,0.0208
1562.0,0.0208
1561.0,0.0206
1560.0,0.0204
1559.0,0.0205
1558.0,0.0205
1557.0,0.0206
1556.0,0.0206
1555.0,0.0205
1554.0,0.0204
1553.0,0.0202
1552.0,0.0202
1551.0,0.0201
1550.0,0.0201
1549.0,0.0201
1548.0,0.0201
1547.0,0.0201
1546.0,0.02
1545.0,0.0199
1544.0,0.0198
1543.0,0.0197
1542.0,0.0196
1541.0,0.0195
1540.0,0.0196
1539.0,0.0194
1538.0,0.0193
1537.0,0.0194
1536.0,0.0194
1535.0,0.0193
1534.0,0.0193
1533.0,0.0193
1532.0,0.0192
1531.0,0.0191
1530.0,0.019
1529.0,0.0189
1528.0,0.0189
1527.0,0.0189
1526.0,0.0189
1525.0,0.0189
1524.0,0.0189
1523.0,0.0189
1522.0,0.0189
1521.0,0.019
1520.0,0.0189
1519.0,0.0188
1518.0,0.0187
1517.0,0.0187
1516.0,0.0187
1515.0,0.0186
1514.0,0.0186
1513.0,0.0186
1512.0,0.0186
1511.0,0.0186
1510.0,0.0186
1509.0,0.0185
1508.0,0.0186
1507.0,0.0188
1506.0,0.0189
1505.0,0.0189
1504.0,0.0189
1503.0,0.0188
1502.0,0.0187
1501.0,0.0187
1500.0,0.0188
1499.0,0.0188
1498.0,0.0189
1497.0,0.019
1496.0,0.0191
1495.0,0.019
1494.0,0.019
1493.0,0.019
1492.0,0.0191
1491.0,0.0192
1490.0,0.0193
1489.0,0.0195
1488.0,0.0197
1487.0,0.0199
1486.0,0.02
1485.0,0.0202
1484.0,0.0204
1483.0,0.0207
1482.0,0.021
1481.0,0.0215
1480.0,0.022
1479.0,0.0225
1478.0,0.0231
1477.0,0.024
1476.0,0.025
1475.0,0.0263
1474.0,0.0282
1473.0,0.0317
1472.0,0.0358
1471.0,0.0392
1470.0,0.0421
1469.0,0.0452
1468.0,0.0486
1467.0,0.0525
1466.0,0.0576
1465.0,0.0636
1464.0,0.0687
1463.0,0.072
1462.0,0.0739
1461.0,0.0752
1460.0,0.0762
1459.0,0.0772
1458.0,0.0792
1457.0,0.0819
1456.0,0.0834
1455.0,0.0836
1454.0,0.0833
1453.0,0.0829
1452.0,0.0821
1451.0,0.0808
1450.0,0.0788
1449.0,0.0757
1448.0,0.0713
1447.0,0.0666
1446.0,0.0622
1445.0,0.0583
1444.0,0.0548
1443.0,0.0518
1442.0,0.0494
1441.0,0.0477
1440.0,0.0466
1439.0,0.046
1438.0,0.0459
1437.0,0.0462
1436.0,0.046
1435.0,0.0448
1434.0,0.0429
1433.0,0.0405
1432.0,0.038
1431.0,0.0357
1430.0,0.0339
1429.0,0.0325
1428.0,0.0315
1427.0,0.0309
1426.0,0.0303
1425.0,0.0296
1424.0,0.0291
1423.0,0.0288
1422.0,0.0286
1421.0,0.0283
1420.0,0.028
1419.0,0.0278
1418.0,0.0277
1417.0,0.0274
1416.0,0.0271
1415.0,0.0269
1414.0,0.0267
1413.0,0.0264
1412.0,0.0262
1411.0,0.026
1410.0,0.0259
1409.0,0.0257
1408.0,0.0255
1407.0,0.0253
1406.0,0.0252
1405.0,0.025
1404.0,0.0248
1403.0,0.0246
1402.0,0.0245
1401.0,0.0243
1400.0,0.0241
1399.0,0.0241
1398.0,0.0241
1397.0,0.0241
1396.0,0.0239
1395.0,0.0239
1394.0,0.0239
1393.0,0.0239
1392.0,0.0238
1391.0,0.0239
1390.0,0.0242
1389.0,0.0246
1388.0,0.0255
1387.0,0.027
1386.0,0.0292
1385.0,0.0322
1384.0,0.0365
1383.0,0.0428
1382.0,0.0512
1381.0,0.0619
1380.0,0.0751
1379.0,0.0899
1378.0,0.104
1377.0,0.1141
1376.0,0.1179
1375.0,0.1137
1374.0,0.1031
1373.0,0.0905
1372.0,0.0792
1371.0,0.0697
1370.0,0.0615
1369.0,0.0549
1368.0,0.0501
1367.0,0.0469
1366.0,0.0451
1365.0,0.0441
1364.0,0.044
1363.0,0.0446
1362.0,0.0457
1361.0,0.0468
1360.0,0.0476
1359.0,0.0478
1358.0,0.0473
1357.0,0.0461
1356.0,0.0443
1355.0,0.0422
1354.0,0.0402
1353.0,0.0384
1352.0,0.0369
1351.0,0.0356
1350.0,0.0346
1349.0,0.0337
1348.0,0.0329
1347.0,0.0322
1346.0,0.0316
1345.0,0.0311
1344.0,0.0307
1343.0,0.0303
1342.0,0.03
1341.0,0.0297
1340.0,0.0296
1339.0,0.0294
1338.0,0.0293
1337.0,0.0293
1336.0,0.0293
1335.0,0.0293
1334.0,0.0294
1333.0,0.0296
1332.0,0.0298
1331.0,0.0299
1330.0,0.0299
1329.0,0.0298
1328.0,0.0297
1327.0,0.0295
1326.0,0.0293
1325.0,0.029
1324.0,0.0287
1323.0,0.0284
1322.0,0.028
1321.0,0.0278
1320.0,0.0276
1319.0,0.0274
1318.0,0.0273
1317.0,0.0272
1316.0,0.027
1315.0,0.0269
1314.0,0.0268
1313.0,0.0267
1312.0,0.0267
1311.0,0.0268
1310.0,0.0269
1309.0,0.0272
1308.0,0.0277
1307.0,0.0284
1306.0,0.0292
1305.0,0.0297
1304.0,0.0299
1303.0,0.0298
1302.0,0.0296
1301.0,0.0293
1300.0,0.0291
1299.0,0.029
1298.0,0.0289
1297.0,0.0289
1296.0,0.0289
1295.0,0.0288
1294.0,0.0286
1293.0,0.0284
1292.0,0.0281
1291.0,0.0279
1290.0,0.0276
1289.0,0.0273
1288.0,0.0272
1287.0,0.0271
1286.0,0.027
1285.0,0.027
1284.0,0.0269
1283.0,0.0267
1282.0,0.0266
1281.0,0.0265
1280.0,0.0265
1279.0,0.0265
1278.0,0.0264
1277.0,0.0264
1276.0,0.0264
1275.0,0.0263
1274.0,0.0263
1273.0,0.0262
1272.0,0.0262
1271.0,0.0262
1270.0,0.0262
1269.0,0.0262
1268.0,0.0262
1267.0,0.0262
1266.0,0.0262
1265.0,0.0264
1264.0,0.0266
1263.0,0.0268
1262.0,0.0271
1261.0,0.0274
1260.0,0.0278
1259.0,0.0283
1258.0,0.0289
1257.0,0.0294
1256.0,0.0297
1255.0,0.0297
1254.0,0.0295
1253.0,0.029
1252.0,0.0286
1251.0,0.0281
1250.0,0.0278
1249.0,0.0275
1248.0,0.0274
1247.0,0.0274
1246.0,0.0273
1245.0,0.0273
1244.0,0.0272
1243.0,0.0271
1242.0,0.027
1241.0,0.0269
1240.0,0.0268
1239.0,0.0269
1238.0,0.0269
1237.0,0.0269
1236.0,0.0269
1235.0,0.0269
1234.0,0.027
1233.0,0.0271
1232.0,0.0272
1231.0,0.0274
1230.0,0.0276
1229.0,0.0277
1228.0,0.0278
1227.0,0.0279
1226.0,0.028
1225.0,0.0282
1224.0,0.0284
1223.0,0.0287
1222.0,0.0289
1221.0,0.029
1220.0,0.0292
1219.0,0.0294
1218.0,0.0295
1217.0,0.0295
1216.0,0.0295
1215.0,0.0294
1214.0,0.0293
1213.0,0.0293
1212.0,0.0292
1211.0,0.0292
1210.0,0.0291
1209.0,0.0291
1208.0,0.0292
1207.0,0.0292
1206.0,0.0293
1205.0,0.0294
1204.0,0.0295
1203.0,0.0296
1202.0,0.0296
1201.0,0.0297
1200.0,0.0298
1199.0,0.0299
1198.0,0.03
1197.0,0.0301
1196.0,0.0302
1195.0,0.0303
1194.0,0.0305
1193.0,0.0306
1192.0,0.0307
1191.0,0.0309
1190.0,0.031
1189.0,0.0312
1188.0,0.0313
1187.0,0.0314
1186.0,0.0316
1185.0,0.0318
1184.0,0.032
1183.0,0.0322
1182.0,0.0325
1181.0,0.0328
1180.0,0.0331
1179.0,0.0336
1178.0,0.0341
1177.0,0.0348
1176.0,0.0357
1175.0,0.0368
1174.0,0.0382
1173.0,0.0401
1172.0,0.0423
1171.0,0.0448
1170.0,0.0471
1169.0,0.0489
1168.0,0.0501
1167.0,0.0505
1166.0,0.0503
1165.0,0.0497
1164.0,0.0488
1163.0,0.048
1162.0,0.0473
1161.0,0.0468
1160.0,0.0464
1159.0,0.0461
1158.0,0.0459
1157.0,0.0457
1156.0,0.0457
1155.0,0.0457
1154.0,0.0458
1153.0,0.0458
1152.0,0.0457
1151.0,0.0455
1150.0,0.0452
1149.0,0.0448
1148.0,0.0443
1147.0,0.0439
1146.0,0.0434
1145.0,0.043
1144.0,0.0427
1143.0,0.0424
1142.0,0.0422
1141.0,0.042
1140.0,0.0418
1139.0,0.0416
1138.0,0.0414
1137.0,0.0412
1136.0,0.041
1135.0,0.0409
1134.0,0.0408
1133.0,0.0407
1132.0,0.0406
1131.0,0.0405
1130.0,0.0404
1129.0,0.0404
1128.0,0.0403
1127.0,0.0403
1126.0,0.0403
1125.0,0.0404
1124.0,0.0404
1123.0,0.0405
1122.0,0.0405
1121.0,0.0405
1120.0,0.0405
1119.0,0.0405
1118.0,0.0405
1117.0,0.0405
1116.0,0.0406
1115.0,0.0407
1114.0,0.0407
1113.0,0.0409
1112.0,0.041
1111.0,0.0412
1110.0,0.0413
1109.0,0.0415
1108.0,0.0418
1107.0,0.0423
1106.0,0.0428
1105.0,0.0432
1104.0,0.0436
1103.0,0.0438
1102.0,0.0438
1101.0,0.0437
1100.0,0.0435
1099.0,0.0433
1098.0,0.043
1097.0,0.0428
1096.0,0.0426
1095.0,0.0424
1094.0,0.0422
1093.0,0.0421
1092.0,0.0421
1091.0,0.042
1090.0,0.0419
1089.0,0.0418
1088.0,0.0417
1087.0,0.0416
1086.0,0.0415
1085.0,0.0415
1084.0,0.0414
1083.0,0.0413
1082.0,0.0411
1081.0,0.0409
1080.0,0.0408
1079.0,0.0406
1078.0,0.0404
1077.0,0.0401
1076.0,0.0398
1075.0,0.0395
1074.0,0.0392
1073.0,0.0389
1072.0,0.0387
1071.0,0.0384
1070.0,0.0381
1069.0,0.0379
1068.0,0.0376
1067.0,0.0373
1066.0,0.037
1065.0,0.0367
1064.0,0.0364
1063.0,0.0361
1062.0,0.0357
1061.0,0.0354
1060.0,0.0351
1059.0,0.0348
1058.0,0.0347
1057.0,0.0345
1056.0,0.0343
1055.0,0.0341
1054.0,0.0339
1053.0,0.0338
1052.0,0.0337
1051.0,0.0336
1050.0,0.0335
1049.0,0.0334
1048.0,0.0334
1047.0,0.0334
1046.0,0.0335
1045.0,0.0335
1044.0,0.0333
1043.0,0.0331
1042.0,0.0328
1041.0,0.0325
1040.0,0.0323
1039.0,0.0321
1038.0,0.032
1037.0,0.0319
1036.0,0.0317
1035.0,0.0316
1034.0,0.0314
1033.0,0.0313
1032.0,0.0313
1031.0,0.0313
1030.0,0.0312
1029.0,0.0311
1028.0,0.031
1027.0,0.0308
1026.0,0.0307
1025.0,0.0307
1024.0,0.0306
1023.0,0.0306
1022.0,0.0306
1021.0,0.0306
1020.0,0.0306
1019.0,0.0306
1018.0,0.0306
1017.0,0.0307
1016.0,0.0309
1015.0,0.031
1014.0,0.0311
1013.0,0.0312
1012.0,0.0314
1011.0,0.0316
1010.0,0.0319
1009.0,0.0322
1008.0,0.0325
1007.0,0.0329
1006.0,0.0334
1005.0,0.0341
1004.0,0.0352
1003.0,0.0367
1002.0,0.0389
1001.0,0.0416
1000.0,0.0445
999.0,0.047
998.0,0.0485
997.0,0.0485
996.0,0.0471
995.0,0.0447
994.0,0.0421
993.0,0.0398
992.0,0.038
991.0,0.0367
990.0,0.0357
989.0,0.035
988.0,0.0344
987.0,0.034
986.0,0.0337
985.0,0.0336
984.0,0.0336
983.0,0.0338
982.0,0.0344
981.0,0.0353
980.0,0.0367
979.0,0.0386
978.0,0.0411
977.0,0.0441
976.0,0.0473
975.0,0.0504
974.0,0.0528
973.0,0.0538
972.0,0.0532
971.0,0.0511
970.0,0.0482
969.0,0.0451
968.0,0.0425
967.0,0.0405
966.0,0.039
965.0,0.0379
964.0,0.0371
963.0,0.0364
962.0,0.0359
961.0,0.0355
960.0,0.0352
959.0,0.035
958.0,0.0348
957.0,0.0345
956.0,0.0342
955.0,0.034
954.0,0.0339
953.0,0.0339
952.0,0.0338
951.0,0.0337
950.0,0.0337
949.0,0.0337
948.0,0.0336
947.0,0.0336
946.0,0.0337
945.0,0.0338
944.0,0.0339
943.0,0.0342
942.0,0.0344
941.0,0.0346
940.0,0.0347
939.0,0.0346
938.0,0.0345
937.0,0.0343
936.0,0.0341
935.0,0.0339
934.0,0.0336
933.0,0.0334
932.0,0.0333
931.0,0.0332
930.0,0.0331
929.0,0.0331
928.0,0.0331
927.0,0.0331
926.0,0.0332
925.0,0.0332
924.0,0.0333
923.0,0.0334
922.0,0.0335
921.0,0.0335
920.0,0.0335
919.0,0.0336
918.0,0.0337
917.0,0.0338
916.0,0.0338
915.0,0.0339
914.0,0.034
913.0,0.0341
912.0,0.0342
911.0,0.0342
910.0,0.0343
909.0,0.0344
908.0,0.0346
907.0,0.0349
906.0,0.0354
905.0,0.0361
904.0,0.037
903.0,0.0381
902.0,0.0394
901.0,0.0406
900.0,0.0415
899.0,0.042
898.0,0.0417
897.0,0.041
896.0,0.0401
895.0,0.0392
894.0,0.0385
893.0,0.038
892.0,0.0376
891.0,0.0373
890.0,0.0371
889.0,0.0369
888.0,0.0367
887.0,0.0366
886.0,0.0365
885.0,0.0366
884.0,0.0367
883.0,0.0369
882.0,0.0371
881.0,0.0373
880.0,0.0374
879.0,0.0374
878.0,0.0374
877.0,0.0373
876.0,0.0374
875.0,0.0375
874.0,0.0376
873.0,0.0376
872.0,0.0374
871.0,0.0373
870.0,0.0373
869.0,0.0375
868.0,0.0378
867.0,0.038
866.0,0.0381
865.0,0.0381
864.0,0.038
863.0,0.038
862.0,0.0381
861.0,0.0382
860.0,0.0382
859.0,0.0383
858.0,0.0383
857.0,0.0383
856.0,0.0384
855.0,0.0384
854.0,0.0385
853.0,0.0386
852.0,0.039
851.0,0.0394
850.0,0.0397
849.0,0.0401
848.0,0.0406
847.0,0.0412
846.0,0.0423
845.0,0.0442
844.0,0.047
843.0,0.0505
842.0,0.0535
841.0,0.0547
840.0,0.0538
839.0,0.0513
838.0,0.0484
837.0,0.0462
836.0,0.0447
835.0,0.0439
834.0,0.0434
833.0,0.0431
832.0,0.0428
831.0,0.0426
830.0,0.0425
829.0,0.0424
828.0,0.0423
827.0,0.0421
826.0,0.0419
825.0,0.0417
824.0,0.0416
823.0,0.0417
822.0,0.0418
821.0,0.0419
820.0,0.042
819.0,0.0421
818.0,0.0423
817.0,0.0425
816.0,0.0428
815.0,0.0434
814.0,0.0442
813.0,0.0451
812.0,0.0462
811.0,0.0473
810.0,0.0483
809.0,0.0491
808.0,0.0493
807.0,0.049
806.0,0.0483
805.0,0.0475
804.0,0.0468
803.0,0.0462
802.0,0.0456
801.0,0.0452
800.0,0.0449
799.0,0.0446
798.0,0.0444
797.0,0.0443
796.0,0.0443
795.0,0.0441
794.0,0.044
793.0,0.0439
792.0,0.0438
791.0,0.0438
790.0,0.0439
789.0,0.0439
788.0,0.044
787.0,0.0439
786.0,0.0439
785.0,0.0439
784.0,0.0439
783.0,0.0438
782.0,0.0437
781.0,0.0436
780.0,0.0435
779.0,0.0434
778.0,0.0432
777.0,0.043
776.0,0.0429
775.0,0.043
774.0,0.0432
773.0,0.0432
772.0,0.0431
771.0,0.0431
770.0,0.0433
769.0,0.0435
768.0,0.0437
767.0,0.0438
766.0,0.0439
765.0,0.044
764.0,0.044
763.0,0.044
762.0,0.0441
761.0,0.0442
760.0,0.0444
759.0,0.0445
758.0,0.0446
757.0,0.0446
756.0,0.0446
755.0,0.0446
754.0,0.0447
753.0,0.0448
752.0,0.0449
751.0,0.0449
750.0,0.045
749.0,0.0452
748.0,0.0454
747.0,0.0456
746.0,0.0455
745.0,0.0453
744.0,0.0452
743.0,0.0453
742.0,0.0455
741.0,0.0458
740.0,0.046
739.0,0.046
738.0,0.046
737.0,0.0459
736.0,0.0459
735.0,0.0461
734.0,0.0464
733.0,0.0467
732.0,0.0471
731.0,0.0473
730.0,0.0473
729.0,0.0472
728.0,0.0472
727.0,0.0474
726.0,0.0476
725.0,0.0477
724.0,0.0477
723.0,0.0476
722.0,0.0476
721.0,0.0478
720.0,0.0481
719.0,0.0484
718.0,0.0483
717.0,0.0482
716.0,0.0481
715.0,0.0481
714.0,0.0482
713.0,0.0481
712.0,0.048
711.0,0.0479
710.0,0.0477
709.0,0.0475
708.0,0.0473
707.0,0.0474
706.0,0.0477
705.0,0.0479
704.0,0.0481
703.0,0.0483
702.0,0.0487
701.0,0.049
700.0,0.0492
699.0,0.0491
698.0,0.0491
697.0,0.0493
696.0,0.0497
695.0,0.0498
694.0,0.0496
693.0,0.0493
692.0,0.0491
691.0,0.049
690.0,0.0488
689.0,0.0487
688.0,0.0486
687.0,0.0485
686.0,0.0486
685.0,0.049
684.0,0.0495
683.0,0.0498
682.0,0.0499
681.0,0.0496
680.0,0.0493
679.0,0.0491
678.0,0.0493
677.0,0.05
676.0,0.0507
675.0,0.0511
674.0,0.0508
673.0,0.0502
672.0,0.0497
671.0,0.0502
670.0,0.0516
669.0,0.0538
668.0,0.055
667.0,0.0532
666.0,0.0506
665.0,0.049
664.0,0.0486
663.0,0.049
662.0,0.0494
661.0,0.0497
660.0,0.0501
659.0,0.0506
658.0,0.0511
657.0,0.0513
656.0,0.0514
655.0,0.0513
654.0,0.0512
653.0,0.051
652.0,0.051
651.0,0.0511
650.0,0.0514
649.0,0.0516
648.0,0.0515
647.0,0.0511
646.0,0.0504
645.0,0.0498
644.0,0.0497
643.0,0.05
642.0,0.0504
641.0,0.0507
640.0,0.0509
639.0,0.0513
638.0,0.0519
637.0,0.0528
636.0,0.0538
635.0,0.0552
634.0,0.0567
633.0,0.0576
632.0,0.0574
631.0,0.0562
630.0,0.0546
629.0,0.0533
628.0,0.0524
627.0,0.0519
626.0,0.0516
625.0,0.0514
624.0,0.0511
623.0,0.0507
622.0,0.0505
621.0,0.0509
620.0,0.0519
619.0,0.0529
618.0,0.0534
617.0,0.0535
616.0,0.0535
615.0,0.0536
614.0,0.0535
613.0,0.0535
612.0,0.0536
611.0,0.0537
610.0,0.0537
609.0,0.0537
608.0,0.0543
607.0,0.0553
606.0,0.0566
605.0,0.0576
604.0,0.0583
603.0,0.0584
602.0,0.0582
601.0,0.0582
600.0,0.0586
