cm-1,A
4000.0,0.0002
3999.0,0.0001
3998.0,0.0
3997.0,0.0
3996.0,0.0001
3995.0,0.0001
3994.0,0.0003
3993.0,0.0003
3992.0,0.0003
3991.0,0.0003
3990.0,0.0003
3989.0,0.0003
3988.0,0.0003
3987.0,0.0003
3986.0,0.0003
3985.0,0.0003
3984.0,0.0004
3983.0,0.0005
3982.0,0.0005
3981.0,0.0005
3980.0,0.0004
3979.0,0.0003
3978.0,0.0002
3977.0,0.0002
3976.0,0.0002
3975.0,0.0003
3974.0,0.0002
3973.0,0.0002
3972.0,0.0002
3971.0,0.0002
3970.0,0.0002
3969.0,0.0002
3968.0,0.0002
3967.0,0.0002
3966.0,0.0002
3965.0,0.0002
3964.0,0.0003
3963.0,0.0003
3962.0,0.0003
3961.0,0.0002
3960.0,0.0002
3959.0,0.0002
3958.0,0.0001
3957.0,0.0001
3956.0,0.0001
3955.0,0.0001
3954.0,0.0001
3953.0,0.0002
3952.0,0.0002
3951.0,0.0003
3950.0,0.0003
3949.0,0.0003
3948.0,0.0003
3947.0,0.0003
3946.0,0.0003
3945.0,0.0004
3944.0,0.0006
3943.0,0.0006
3942.0,0.0006
3941.0,0.0006
3940.0,0.0005
3939.0,0.0005
3938.0,0.0005
3937.0,0.0005
3936.0,0.0005
3935.0,0.0004
3934.0,0.0004
3933.0,0.0003
3932.0,0.0003
3931.0,0.0004
3930.0,0.0004
3929.0,0.0003
3928.0,0.0003
3927.0,0.0003
3926.0,0.0002
3925.0,0.0002
3924.0,0.0002
3923.0,0.0002
3922.0,0.0002
3921.0,0.0002
3920.0,0.0003
3919.0,0.0004
3918.0,0.0004
3917.0,0.0004
3916.0,0.0003
3915.0,0.0002
3914.0,0.0002
3913.0,0.0003
3912.0,0.0003
3911.0,0.0004
3910.0,0.0004
3909.0,0.0004
3908.0,0.0004
3907.0,0.0003
3906.0,0.0003
3905.0,0.0003
3904.0,0.0003
3903.0,0.0004
3902.0,0.0004
3901.0,0.0005
3900.0,0.0005
3899.0,0.0006
3898.0,0.0006
3897.0,0.0005
3896.0,0.0004
3895.0,0.0004
3894.0,0.0004
3893.0,0.0003
3892.0,0.0003
3891.0,0.0003
3890.0,0.0002
3889.0,0.0002
3888.0,0.0003
3887.0,0.0004
3886.0,0.0005
3885.0,0.0006
3884.0,0.0005
3883.0,0.0005
3882.0,0.0004
3881.0,0.0004
3880.0,0.0003
3879.0,0.0003
3878.0,0.0003
3877.0,0.0003
3876.0,0.0004
3875.0,0.0004
3874.0,0.0005
3873.0,0.0005
3872.0,0.0005
3871.0,0.0006
3870.0,0.0006
3869.0,0.0006
3868.0,0.0005
3867.0,0.0004
3866.0,0.0004
3865.0,0.0004
3864.0,0.0003
3863.0,0.0003
3862.0,0.0003
3861.0,0.0002
3860.0,0.0002
3859.0,0.0001
3858.0,0.0
3857.0,-0.0001
3856.0,-0.0002
3855.0,-0.0001
3854.0,0.0
3853.0,0.0001
3852.0,0.0
3851.0,0.0
3850.0,-0.0
3849.0,0.0
3848.0,0.0001
3847.0,0.0001
3846.0,0.0002
3845.0,0.0003
3844.0,0.0004
3843.0,0.0004
3842.0,0.0005
3841.0,0.0005
3840.0,0.0006
3839.0,0.0007
3838.0,0.0006
3837.0,0.0004
3836.0,0.0004
3835.0,0.0004
3834.0,0.0004
3833.0,0.0004
3832.0,0.0004
3831.0,0.0004
3830.0,0.0004
3829.0,0.0004
3828.0,0.0004
3827.0,0.0004
3826.0,0.0004
3825.0,0.0003
3824.0,0.0002
3823.0,0.0001
3822.0,0.0002
3821.0,0.0004
3820.0,0.0005
3819.0,0.0005
3818.0,0.0005
3817.0,0.0004
3816.0,0.0003
3815.0,0.0002
3814.0,0.0002
3813.0,0.0002
3812.0,0.0003
3811.0,0.0003
3810.0,0.0003
3809.0,0.0002
3808.0,0.0002
3807.0,0.0002
3806.0,0.0002
3805.0,0.0002
3804.0,0.0002
3803.0,0.0002
3802.0,0.0003
3801.0,0.0003
3800.0,0.0003
3799.0,0.0002
3798.0,0.0001
3797.0,0.0001
3796.0,0.0001
3795.0,0.0001
3794.0,0.0001
3793.0,0.0001
3792.0,0.0001
3791.0,0.0002
3790.0,0.0002
3789.0,0.0002
3788.0,0.0002
3787.0,0.0002
3786.0,0.0002
3785.0,0.0003
3784.0,0.0003
3783.0,0.0003
3782.0,0.0004
3781.0,0.0003
3780.0,0.0003
3779.0,0.0003
3778.0,0.0003
3777.0,0.0003
3776.0,0.0002
3775.0,0.0002
3774.0,0.0002
3773.0,0.0002
3772.0,0.0003
3771.0,0.0005
3770.0,0.0006
3769.0,0.0006
3768.0,0.0005
3767.0,0.0004
3766.0,0.0004
3765.0,0.0003
3764.0,0.0002
3763.0,0.0002
3762.0,0.0003
3761.0,0.0003
3760.0,0.0004
3759.0,0.0004
3758.0,0.0003
3757.0,0.0003
3756.0,0.0003
3755.0,0.0002
3754.0,0.0002
3753.0,0.0002
3752.0,0.0001
3751.0,0.0001
3750.0,0.0001
3749.0,0.0002
3748.0,0.0003
3747.0,0.0003
3746.0,0.0003
3745.0,0.0003
3744.0,0.0003
3743.0,0.0003
3742.0,0.0004
3741.0,0.0005
3740.0,0.0005
3739.0,0.0006
3738.0,0.0007
3737.0,0.0007
3736.0,0.0006
3735.0,0.0005
3734.0,0.0004
3733.0,0.0003
3732.0,0.0004
3731.0,0.0003
3730.0,0.0003
3729.0,0.0002
3728.0,0.0001
3727.0,0.0002
3726.0,0.0004
3725.0,0.0006
3724.0,0.0007
3723.0,0.0008
3722.0,0.0006
3721.0,0.0005
3720.0,0.0004
3719.0,0.0004
3718.0,0.0004
3717.0,0.0004
3716.0,0.0005
3715.0,0.0005
3714.0,0.0005
3713.0,0.0005
3712.0,0.0004
3711.0,0.0003
3710.0,0.0002
3709.0,0.0002
3708.0,0.0003
3707.0,0.0003
3706.0,0.0003
3705.0,0.0003
3704.0,0.0002
3703.0,0.0002
3702.0,0.0002
3701.0,0.0003
3700.0,0.0004
3699.0,0.0004
3698.0,0.0004
3697.0,0.0003
3696.0,0.0004
3695.0,0.0004
3694.0,0.0005
3693.0,0.0006
3692.0,0.0006
3691.0,0.0006
3690.0,0.0005
3689.0,0.0004
3688.0,0.0004
3687.0,0.0003
3686.0,0.0003
3685.0,0.0002
3684.0,0.0001
3683.0,0.0001
3682.0,0.0001
3681.0,0.0001
3680.0,0.0001
3679.0,0.0002
3678.0,0.0002
3677.0,0.0004
3676.0,0.0004
3675.0,0.0004
3674.0,0.0003
3673.0,0.0002
3672.0,0.0002
3671.0,0.0003
3670.0,0.0004
3669.0,0.0003
3668.0,0.0003
3667.0,0.0003
3666.0,0.0003
3665.0,0.0003
3664.0,0.0003
3663.0,0.0003
3662.0,0.0003
3661.0,0.0002
3660.0,0.0002
3659.0,0.0003
3658.0,0.0004
3657.0,0.0004
3656.0,0.0004
3655.0,0.0003
3654.0,0.0003
3653.0,0.0002
3652.0,0.0003
3651.0,0.0003
3650.0,0.0003
3649.0,0.0004
3648.0,0.0004
3647.0,0.0005
3646.0,0.0005
3645.0,0.0004
3644.0,0.0004
3643.0,0.0003
3642.0,0.0003
3641.0,0.0004
3640.0,0.0003
3639.0,0.0003
3638.0,0.0004
3637.0,0.0004
3636.0,0.0005
3635.0,0.0006
3634.0,0.0006
3633.0,0.0005
3632.0,0.0004
3631.0,0.0003
3630.0,0.0003
3629.0,0.0004
3628.0,0.0005
3627.0,0.0006
3626.0,0.0006
3625.0,0.0005
3624.0,0.0005
3623.0,0.0004
3622.0,0.0003
3621.0,0.0002
3620.0,0.0002
3619.0,0.0002
3618.0,0.0003
3617.0,0.0004
3616.0,0.0004
3615.0,0.0005
3614.0,0.0005
3613.0,0.0006
3612.0,0.0007
3611.0,0.0007
3610.0,0.0008
3609.0,0.0008
3608.0,0.0007
3607.0,0.0007
3606.0,0.0006
3605.0,0.0006
3604.0,0.0005
3603.0,0.0004
3602.0,0.0003
3601.0,0.0003
3600.0,0.0003
3599.0,0.0002
3598.0,0.0003
3597.0,0.0004
3596.0,0.0006
3595.0,0.0007
3594.0,0.0007
3593.0,0.0006
3592.0,0.0005
3591.0,0.0004
3590.0,0.0004
3589.0,0.0005
3588.0,0.0005
3587.0,0.0005
3586.0,0.0005
3585.0,0.0005
3584.0,0.0005
3583.0,0.0005
3582.0,0.0005
3581.0,0.0004
3580.0,0.0004
3579.0,0.0003
3578.0,0.0003
3577.0,0.0002
3576.0,0.0002
3575.0,0.0002
3574.0,0.0002
3573.0,0.0003
3572.0,0.0004
3571.0,0.0005
3570.0,0.0005
3569.0,0.0006
3568.0,0.0007
3567.0,0.0006
3566.0,0.0005
3565.0,0.0004
3564.0,0.0004
3563.0,0.0004
3562.0,0.0005
3561.0,0.0004
3560.0,0.0004
3559.0,0.0002
3558.0,0.0002
3557.0,0.0002
3556.0,0.0003
3555.0,0.0005
3554.0,0.0006
3553.0,0.0006
3552.0,0.0005
3551.0,0.0004
3550.0,0.0004
3549.0,0.0004
3548.0,0.0004
3547.0,0.0005
3546.0,0.0005
3545.0,0.0005
3544.0,0.0005
3543.0,0.0005
3542.0,0.0005
3541.0,0.0005
3540.0,0.0005
3539.0,0.0004
3538.0,0.0004
3537.0,0.0004
3536.0,0.0005
3535.0,0.0005
3534.0,0.0005
3533.0,0.0005
3532.0,0.0005
3531.0,0.0005
3530.0,0.0005
3529.0,0.0005
3528.0,0.0005
3527.0,0.0006
3526.0,0.0005
3525.0,0.0004
3524.0,0.0003
3523.0,0.0002
3522.0,0.0001
3521.0,0.0
3520.0,0.0001
3519.0,0.0001
3518.0,0.0002
3517.0,0.0003
3516.0,0.0004
3515.0,0.0005
3514.0,0.0005
3513.0,0.0005
3512.0,0.0005
3511.0,0.0004
3510.0,0.0004
3509.0,0.0004
3508.0,0.0004
3507.0,0.0004
3506.0,0.0004
3505.0,0.0005
3504.0,0.0005
3503.0,0.0006
3502.0,0.0007
3501.0,0.0006
3500.0,0.0005
3499.0,0.0004
3498.0,0.0004
3497.0,0.0004
3496.0,0.0004
3495.0,0.0004
3494.0,0.0004
3493.0,0.0004
3492.0,0.0003
3491.0,0.0003
3490.0,0.0003
3489.0,0.0004
3488.0,0.0004
3487.0,0.0005
3486.0,0.0006
3485.0,0.0006
3484.0,0.0006
3483.0,0.0006
3482.0,0.0005
3481.0,0.0004
3480.0,0.0003
3479.0,0.0003
3478.0,0.0003
3477.0,0.0004
3476.0,0.0005
3475.0,0.0005
3474.0,0.0004
3473.0,0.0004
3472.0,0.0004
3471.0,0.0005
3470.0,0.0005
3469.0,0.0006
3468.0,0.0006
3467.0,0.0006
3466.0,0.0006
3465.0,0.0006
3464.0,0.0006
3463.0,0.0005
3462.0,0.0005
3461.0,0.0004
3460.0,0.0004
3459.0,0.0003
3458.0,0.0003
3457.0,0.0003
3456.0,0.0004
3455.0,0.0004
3454.0,0.0005
3453.0,0.0005
3452.0,0.0005
3451.0,0.0005
3450.0,0.0005
3449.0,0.0005
3448.0,0.0006
3447.0,0.0005
3446.0,0.0005
3445.0,0.0004
3444.0,0.0004
3443.0,0.0004
3442.0,0.0005
3441.0,0.0005
3440.0,0.0006
3439.0,0.0006
3438.0,0.0005
3437.0,0.0005
3436.0,0.0004
3435.0,0.0004
3434.0,0.0004
3433.0,0.0003
3432.0,0.0003
3431.0,0.0003
3430.0,0.0003
3429.0,0.0003
3428.0,0.0004
3427.0,0.0004
3426.0,0.0004
3425.0,0.0004
3424.0,0.0004
3423.0,0.0005
3422.0,0.0005
3421.0,0.0005
3420.0,0.0005
3419.0,0.0004
3418.0,0.0004
3417.0,0.0004
3416.0,0.0004
3415.0,0.0004
3414.0,0.0004
3413.0,0.0004
3412.0,0.0004
3411.0,0.0004
3410.0,0.0004
3409.0,0.0004
3408.0,0.0003
3407.0,0.0003
3406.0,0.0003
3405.0,0.0003
3404.0,0.0003
3403.0,0.0003
3402.0,0.0004
3401.0,0.0005
3400.0,0.0006
3399.0,0.0006
3398.0,0.0006
3397.0,0.0005
3396.0,0.0005
3395.0,0.0005
3394.0,0.0004
3393.0,0.0004
3392.0,0.0004
3391.0,0.0004
3390.0,0.0004
3389.0,0.0005
3388.0,0.0005
3387.0,0.0005
3386.0,0.0004
3385.0,0.0003
3384.0,0.0002
3383.0,0.0002
3382.0,0.0003
3381.0,0.0004
3380.0,0.0004
3379.0,0.0004
3378.0,0.0003
3377.0,0.0003
3376.0,0.0003
3375.0,0.0004
3374.0,0.0005
3373.0,0.0005
3372.0,0.0006
3371.0,0.0006
3370.0,0.0005
3369.0,0.0005
3368.0,0.0004
3367.0,0.0004
3366.0,0.0003
3365.0,0.0003
3364.0,0.0002
3363.0,0.0003
3362.0,0.0003
3361.0,0.0004
3360.0,0.0004
3359.0,0.0005
3358.0,0.0005
3357.0,0.0005
3356.0,0.0005
3355.0,0.0004
3354.0,0.0003
3353.0,0.0004
3352.0,0.0004
3351.0,0.0005
3350.0,0.0006
3349.0,0.0006
3348.0,0.0005
3347.0,0.0004
3346.0,0.0002
3345.0,0.0002
3344.0,0.0002
3343.0,0.0002
3342.0,0.0003
3341.0,0.0004
3340.0,0.0005
3339.0,0.0005
3338.0,0.0005
3337.0,0.0005
3336.0,0.0005
3335.0,0.0004
3334.0,0.0004
3333.0,0.0004
3332.0,0.0004
3331.0,0.0003
3330.0,0.0003
3329.0,0.0003
3328.0,0.0003
3327.0,0.0003
3326.0,0.0003
3325.0,0.0004
3324.0,0.0004
3323.0,0.0004
3322.0,0.0005
3321.0,0.0005
3320.0,0.0005
3319.0,0.0005
3318.0,0.0004
3317.0,0.0004
3316.0,0.0004
3315.0,0.0004
3314.0,0.0004
3313.0,0.0005
3312.0,0.0005
3311.0,0.0006
3310.0,0.0006
3309.0,0.0005
3308.0,0.0004
3307.0,0.0004
3306.0,0.0004
3305.0,0.0004
3304.0,0.0004
3303.0,0.0004
3302.0,0.0004
3301.0,0.0004
3300.0,0.0005
3299.0,0.0005
3298.0,0.0005
3297.0,0.0005
3296.0,0.0004
3295.0,0.0004
3294.0,0.0003
3293.0,0.0003
3292.0,0.0003
3291.0,0.0004
3290.0,0.0004
3289.0,0.0004
3288.0,0.0004
3287.0,0.0004
3286.0,0.0004
3285.0,0.0004
3284.0,0.0004
3283.0,0.0003
3282.0,0.0003
3281.0,0.0003
3280.0,0.0004
3279.0,0.0004
3278.0,0.0004
3277.0,0.0004
3276.0,0.0005
3275.0,0.0005
3274.0,0.0006
3273.0,0.0006
3272.0,0.0005
3271.0,0.0005
3270.0,0.0005
3269.0,0.0004
3268.0,0.0004
3267.0,0.0004
3266.0,0.0004
3265.0,0.0004
3264.0,0.0005
3263.0,0.0004
3262.0,0.0004
3261.0,0.0002
3260.0,0.0002
3259.0,0.0002
3258.0,0.0002
3257.0,0.0002
3256.0,0.0002
3255.0,0.0003
3254.0,0.0003
3253.0,0.0004
3252.0,0.0004
3251.0,0.0004
3250.0,0.0003
3249.0,0.0003
3248.0,0.0002
3247.0,0.0002
3246.0,0.0003
3245.0,0.0003
3244.0,0.0004
3243.0,0.0004
3242.0,0.0004
3241.0,0.0003
3240.0,0.0002
3239.0,0.0002
3238.0,0.0002
3237.0,0.0003
3236.0,0.0003
3235.0,0.0004
3234.0,0.0004
3233.0,0.0004
3232.0,0.0004
3231.0,0.0003
3230.0,0.0003
3229.0,0.0003
3228.0,0.0004
3227.0,0.0004
3226.0,0.0004
3225.0,0.0004
3224.0,0.0004
3223.0,0.0004
3222.0,0.0004
3221.0,0.0003
3220.0,0.0003
3219.0,0.0003
3218.0,0.0003
3217.0,0.0003
3216.0,0.0003
3215.0,0.0003
3214.0,0.0003
3213.0,0.0002
3212.0,0.0002
3211.0,0.0002
3210.0,0.0002
3209.0,0.0003
3208.0,0.0003
3207.0,0.0003
3206.0,0.0003
3205.0,0.0003
3204.0,0.0003
3203.0,0.0003
3202.0,0.0002
3201.0,0.0003
3200.0,0.0003
3199.0,0.0004
3198.0,0.0004
3197.0,0.0004
3196.0,0.0003
3195.0,0.0003
3194.0,0.0002
3193.0,0.0002
3192.0,0.0002
3191.0,0.0003
3190.0,0.0003
3189.0,0.0004
3188.0,0.0004
3187.0,0.0003
3186.0,0.0003
3185.0,0.0003
3184.0,0.0003
3183.0,0.0004
3182.0,0.0004
3181.0,0.0004
3180.0,0.0004
3179.0,0.0004
3178.0,0.0004
3177.0,0.0004
3176.0,0.0004
3175.0,0.0004
3174.0,0.0004
3173.0,0.0004
3172.0,0.0003
3171.0,0.0003
3170.0,0.0003
3169.0,0.0003
3168.0,0.0003
3167.0,0.0003
3166.0,0.0003
3165.0,0.0003
3164.0,0.0002
3163.0,0.0002
3162.0,0.0003
3161.0,0.0003
3160.0,0.0002
3159.0,0.0002
3158.0,0.0002
3157.0,0.0001
3156.0,0.0001
3155.0,0.0001
3154.0,0.0002
3153.0,0.0003
3152.0,0.0003
3151.0,0.0003
3150.0,0.0003
3149.0,0.0003
3148.0,0.0004
3147.0,0.0004
3146.0,0.0004
3145.0,0.0003
3144.0,0.0003
3143.0,0.0002
3142.0,0.0002
3141.0,0.0002
3140.0,0.0001
3139.0,0.0002
3138.0,0.0002
3137.0,0.0003
3136.0,0.0003
3135.0,0.0003
3134.0,0.0002
3133.0,0.0001
3132.0,0.0001
3131.0,0.0002
3130.0,0.0003
3129.0,0.0003
3128.0,0.0003
3127.0,0.0002
3126.0,0.0002
3125.0,0.0002
3124.0,0.0001
3123.0,0.0001
3122.0,0.0001
3121.0,0.0
3120.0,0.0001
3119.0,0.0001
3118.0,0.0001
3117.0,0.0002
3116.0,0.0002
3115.0,0.0002
3114.0,0.0003
3113.0,0.0003
3112.0,0.0003
3111.0,0.0003
3110.0,0.0003
3109.0,0.0003
3108.0,0.0003
3107.0,0.0003
3106.0,0.0003
3105.0,0.0003
3104.0,0.0003
3103.0,0.0003
3102.0,0.0003
3101.0,0.0002
3100.0,0.0002
3099.0,0.0002
3098.0,0.0002
3097.0,0.0003
3096.0,0.0004
3095.0,0.0004
3094.0,0.0004
3093.0,0.0004
3092.0,0.0003
3091.0,0.0003
3090.0,0.0003
3089.0,0.0003
3088.0,0.0003
3087.0,0.0003
3086.0,0.0003
3085.0,0.0003
3084.0,0.0003
3083.0,0.0004
3082.0,0.0004
3081.0,0.0004
3080.0,0.0004
3079.0,0.0004
3078.0,0.0004
3077.0,0.0004
3076.0,0.0004
3075.0,0.0004
3074.0,0.0004
3073.0,0.0004
3072.0,0.0004
3071.0,0.0004
3070.0,0.0003
3069.0,0.0003
3068.0,0.0002
3067.0,0.0002
3066.0,0.0002
3065.0,0.0002
3064.0,0.0002
3063.0,0.0002
3062.0,0.0002
3061.0,0.0002
3060.0,0.0003
3059.0,0.0003
3058.0,0.0003
3057.0,0.0002
3056.0,0.0001
3055.0,0.0001
3054.0,-0.0
3053.0,-0.0
3052.0,0.0001
3051.0,0.0002
3050.0,0.0002
3049.0,0.0002
3048.0,0.0002
3047.0,0.0001
3046.0,0.0001
3045.0,0.0001
3044.0,0.0001
3043.0,0.0
3042.0,0.0001
3041.0,0.0001
3040.0,0.0001
3039.0,0.0001
3038.0,0.0001
3037.0,0.0001
3036.0,0.0001
3035.0,0.0001
3034.0,0.0001
3033.0,0.0002
3032.0,0.0002
3031.0,0.0002
3030.0,0.0002
3029.0,0.0003
3028.0,0.0003
3027.0,0.0003
3026.0,0.0002
3025.0,0.0002
3024.0,0.0001
3023.0,0.0001
3022.0,0.0002
3021.0,0.0002
3020.0,0.0002
3019.0,0.0002
3018.0,0.0002
3017.0,0.0002
3016.0,0.0002
3015.0,0.0003
3014.0,0.0003
3013.0,0.0003
3012.0,0.0003
3011.0,0.0003
3010.0,0.0003
3009.0,0.0003
3008.0,0.0003
3007.0,0.0004
3006.0,0.0004
3005.0,0.0005
3004.0,0.0005
3003.0,0.0005
3002.0,0.0004
3001.0,0.0004
3000.0,0.0005
2999.0,0.0005
2998.0,0.0005
2997.0,0.0005
2996.0,0.0005
2995.0,0.0005
2994.0,0.0005
2993.0,0.0004
2992.0,0.0005
2991.0,0.0005
2990.0,0.0005
2989.0,0.0005
2988.0,0.0004
2987.0,0.0003
2986.0,0.0003
2985.0,0.0002
2984.0,0.0002
2983.0,0.0002
2982.0,0.0003
2981.0,0.0003
2980.0,0.0003
2979.0,0.0003
2978.0,0.0003
2977.0,0.0003
2976.0,0.0003
2975.0,0.0003
2974.0,0.0003
2973.0,0.0002
2972.0,0.0002
2971.0,0.0001
2970.0,0.0002
2969.0,0.0002
2968.0,0.0003
2967.0,0.0003
2966.0,0.0003
2965.0,0.0003
2964.0,0.0003
2963.0,0.0003
2962.0,0.0003
2961.0,0.0003
2960.0,0.0003
2959.0,0.0003
2958.0,0.0003
2957.0,0.0003
2956.0,0.0003
2955.0,0.0002
2954.0,0.0002
2953.0,0.0002
2952.0,0.0002
2951.0,0.0003
2950.0,0.0003
2949.0,0.0003
2948.0,0.0004
2947.0,0.0004
2946.0,0.0004
2945.0,0.0004
2944.0,0.0004
2943.0,0.0004
2942.0,0.0004
2941.0,0.0004
2940.0,0.0004
2939.0,0.0004
2938.0,0.0003
2937.0,0.0003
2936.0,0.0003
2935.0,0.0003
2934.0,0.0003
2933.0,0.0003
2932.0,0.0003
2931.0,0.0002
2930.0,0.0002
2929.0,0.0001
2928.0,0.0001
2927.0,0.0002
2926.0,0.0002
2925.0,0.0003
2924.0,0.0004
2923.0,0.0004
2922.0,0.0003
2921.0,0.0003
2920.0,0.0002
2919.0,0.0003
2918.0,0.0003
2917.0,0.0004
2916.0,0.0004
2915.0,0.0004
2914.0,0.0003
2913.0,0.0002
2912.0,0.0002
2911.0,0.0002
2910.0,0.0002
2909.0,0.0002
2908.0,0.0001
2907.0,0.0001
2906.0,0.0002
2905.0,0.0002
2904.0,0.0002
2903.0,0.0002
2902.0,0.0002
2901.0,0.0002
2900.0,0.0002
2899.0,0.0002
2898.0,0.0001
2897.0,0.0001
2896.0,0.0001
2895.0,0.0001
2894.0,0.0001
2893.0,0.0002
2892.0,0.0002
2891.0,0.0002
2890.0,0.0002
2889.0,0.0002
2888.0,0.0002
2887.0,0.0002
2886.0,0.0002
2885.0,0.0003
2884.0,0.0003
2883.0,0.0003
2882.0,0.0003
2881.0,0.0003
2880.0,0.0003
2879.0,0.0002
2878.0,0.0002
2877.0,0.0002
2876.0,0.0002
2875.0,0.0002
2874.0,0.0002
2873.0,0.0002
2872.0,0.0002
2871.0,0.0001
2870.0,0.0001
2869.0,0.0001
2868.0,0.0001
2867.0,0.0001
2866.0,0.0
2865.0,0.0
2864.0,0.0001
2863.0,0.0001
2862.0,0.0001
2861.0,0.0001
2860.0,0.0001
2859.0,0.0002
2858.0,0.0002
2857.0,0.0002
2856.0,0.0002
2855.0,0.0002
2854.0,0.0002
2853.0,0.0002
2852.0,0.0002
2851.0,0.0002
2850.0,0.0002
2849.0,0.0002
2848.0,0.0002
2847.0,0.0001
2846.0,0.0002
2845.0,0.0002
2844.0,0.0003
2843.0,0.0003
2842.0,0.0002
2841.0,0.0002
2840.0,0.0001
2839.0,0.0001
2838.0,0.0001
2837.0,0.0001
2836.0,0.0002
2835.0,0.0002
2834.0,0.0003
2833.0,0.0003
2832.0,0.0003
2831.0,0.0002
2830.0,0.0002
2829.0,0.0002
2828.0,0.0001
2827.0,0.0001
2826.0,0.0001
2825.0,0.0002
2824.0,0.0002
2823.0,0.0002
2822.0,0.0002
2821.0,0.0001
2820.0,0.0001
2819.0,0.0002
2818.0,0.0002
2817.0,0.0002
2816.0,0.0003
2815.0,0.0002
2814.0,0.0002
2813.0,0.0001
2812.0,0.0001
2811.0,0.0001
2810.0,0.0001
2809.0,0.0001
2808.0,0.0001
2807.0,0.0002
2806.0,0.0002
2805.0,0.0002
2804.0,0.0002
2803.0,0.0001
2802.0,0.0001
2801.0,0.0001
2800.0,0.0001
2799.0,0.0001
2798.0,0.0
2797.0,-0.0
2796.0,-0.0001
2795.0,-0.0
2794.0,-0.0
2793.0,0.0
2792.0,0.0001
2791.0,0.0001
2790.0,0.0002
2789.0,0.0001
2788.0,0.0001
2787.0,0.0
2786.0,0.0001
2785.0,0.0001
2784.0,0.0001
2783.0,0.0001
2782.0,0.0
2781.0,0.0
2780.0,0.0
2779.0,0.0001
2778.0,0.0001
2777.0,0.0002
2776.0,0.0002
2775.0,0.0001
2774.0,0.0001
2773.0,0.0001
2772.0,0.0
2771.0,0.0
2770.0,0.0
2769.0,0.0001
2768.0,0.0001
2767.0,0.0001
2766.0,0.0002
2765.0,0.0001
2764.0,0.0001
2763.0,0.0001
2762.0,0.0001
2761.0,0.0001
2760.0,0.0001
2759.0,0.0001
2758.0,0.0001
2757.0,0.0001
2756.0,0.0001
2755.0,0.0001
2754.0,0.0001
2753.0,0.0001
2752.0,0.0001
2751.0,0.0
2750.0,-0.0
2749.0,-0.0001
2748.0,-0.0001
2747.0,-0.0
2746.0,-0.0
2745.0,0.0
2744.0,0.0
2743.0,0.0
2742.0,0.0
2741.0,0.0
2740.0,0.0
2739.0,0.0
2738.0,0.0
2737.0,0.0
2736.0,0.0001
2735.0,0.0001
2734.0,0.0001
2733.0,0.0001
2732.0,0.0
2731.0,0.0
2730.0,-0.0
2729.0,-0.0
2728.0,0.0
2727.0,0.0
2726.0,0.0001
2725.0,0.0
2724.0,0.0
2723.0,0.0
2722.0,0.0
2721.0,0.0
2720.0,-0.0
2719.0,-0.0001
2718.0,-0.0001
2717.0,-0.0001
2716.0,-0.0
2715.0,0.0
2714.0,0.0
2713.0,0.0
2712.0,-0.0
2711.0,-0.0
2710.0,-0.0
2709.0,0.0
2708.0,0.0001
2707.0,0.0001
2706.0,0.0001
2705.0,0.0001
2704.0,0.0001
2703.0,0.0001
2702.0,0.0001
2701.0,0.0001
2700.0,0.0
2699.0,0.0001
2698.0,0.0001
2697.0,0.0001
2696.0,0.0001
2695.0,0.0
2694.0,0.0
2693.0,0.0
2692.0,0.0
2691.0,-0.0
2690.0,-0.0
2689.0,-0.0
2688.0,0.0
2687.0,0.0001
2686.0,0.0001
2685.0,0.0002
2684.0,0.0002
2683.0,0.0001
2682.0,0.0001
2681.0,0.0
2680.0,-0.0
2679.0,-0.0001
2678.0,-0.0
2677.0,0.0001
2676.0,0.0002
2675.0,0.0002
2674.0,0.0002
2673.0,0.0001
2672.0,0.0001
2671.0,0.0001
2670.0,0.0001
2669.0,0.0001
2668.0,0.0001
2667.0,0.0001
2666.0,0.0001
2665.0,0.0001
2664.0,0.0001
2663.0,0.0001
2662.0,0.0
2661.0,-0.0
2660.0,-0.0
2659.0,-0.0001
2658.0,-0.0001
2657.0,-0.0001
2656.0,-0.0
2655.0,0.0
2654.0,0.0001
2653.0,0.0001
2652.0,0.0
2651.0,-0.0
2650.0,-0.0
2649.0,-0.0
2648.0,0.0
2647.0,0.0001
2646.0,0.0002
2645.0,0.0002
2644.0,0.0002
2643.0,0.0001
2642.0,0.0001
2641.0,0.0001
2640.0,0.0001
2639.0,0.0
2638.0,-0.0
2637.0,-0.0
2636.0,0.0
2635.0,0.0001
2634.0,0.0001
2633.0,0.0001
2632.0,0.0
2631.0,0.0
2630.0,-0.0
2629.0,-0.0
2628.0,-0.0
2627.0,-0.0001
2626.0,-0.0001
2625.0,-0.0001
2624.0,-0.0001
2623.0,-0.0001
2622.0,-0.0001
2621.0,-0.0001
2620.0,-0.0001
2619.0,-0.0
2618.0,0.0
2617.0,0.0
2616.0,0.0
2615.0,-0.0
2614.0,-0.0
2613.0,-0.0
2612.0,0.0
2611.0,0.0
2610.0,0.0001
2609.0,0.0
2608.0,0.0
2607.0,-0.0
2606.0,-0.0
2605.0,0.0
2604.0,0.0
2603.0,-0.0
2602.0,-0.0
2601.0,-0.0
2600.0,-0.0001
2599.0,-0.0001
2598.0,-0.0001
2597.0,-0.0001
2596.0,-0.0001
2595.0,-0.0001
2594.0,-0.0
2593.0,0.0
2592.0,0.0
2591.0,-0.0
2590.0,-0.0
2589.0,-0.0
2588.0,-0.0
2587.0,0.0
2586.0,0.0
2585.0,0.0
2584.0,0.0
2583.0,-0.0
2582.0,-0.0001
2581.0,-0.0001
2580.0,-0.0001
2579.0,-0.0
2578.0,-0.0
2577.0,0.0
2576.0,0.0
2575.0,0.0
2574.0,0.0
2573.0,0.0
2572.0,-0.0
2571.0,-0.0
2570.0,-0.0
2569.0,0.0
2568.0,0.0001
2567.0,0.0001
2566.0,0.0001
2565.0,0.0
2564.0,0.0
2563.0,-0.0
2562.0,-0.0
2561.0,-0.0001
2560.0,-0.0001
2559.0,-0.0001
2558.0,-0.0
2557.0,-0.0
2556.0,-0.0
2555.0,-0.0
2554.0,-0.0
2553.0,0.0
2552.0,0.0001
2551.0,0.0001
2550.0,0.0001
2549.0,0.0001
2548.0,0.0
2547.0,-0.0001
2546.0,-0.0001
2545.0,-0.0001
2544.0,-0.0001
2543.0,-0.0
2542.0,0.0
2541.0,0.0
2540.0,0.0
2539.0,0.0
2538.0,0.0
2537.0,0.0
2536.0,0.0
2535.0,0.0
2534.0,0.0
2533.0,0.0
2532.0,0.0001
2531.0,0.0001
2530.0,0.0
2529.0,0.0
2528.0,0.0
2527.0,0.0001
2526.0,0.0001
2525.0,0.0001
2524.0,0.0001
2523.0,0.0001
2522.0,0.0001
2521.0,0.0001
2520.0,0.0001
2519.0,0.0001
2518.0,0.0001
2517.0,0.0001
2516.0,0.0001
2515.0,0.0
2514.0,0.0
2513.0,0.0
2512.0,0.0
2511.0,-0.0
2510.0,-0.0001
2509.0,-0.0001
2508.0,-0.0001
2507.0,-0.0001
2506.0,-0.0
2505.0,0.0
2504.0,0.0001
2503.0,0.0001
2502.0,0.0001
2501.0,0.0
2500.0,-0.0
2499.0,-0.0001
2498.0,-0.0001
2497.0,-0.0001
2496.0,-0.0
2495.0,0.0
2494.0,0.0001
2493.0,0.0001
2492.0,0.0001
2491.0,0.0001
2490.0,0.0001
2489.0,0.0
2488.0,-0.0
2487.0,-0.0
2486.0,-0.0
2485.0,-0.0
2484.0,-0.0
2483.0,-0.0
2482.0,-0.0001
2481.0,-0.0001
2480.0,-0.0002
2479.0,-0.0002
2478.0,-0.0002
2477.0,-0.0002
2476.0,-0.0001
2475.0,-0.0001
2474.0,-0.0
2473.0,-0.0
2472.0,-0.0001
2471.0,-0.0001
2470.0,-0.0001
2469.0,-0.0001
2468.0,-0.0001
2467.0,-0.0001
2466.0,-0.0001
2465.0,-0.0001
2464.0,-0.0001
2463.0,-0.0
2462.0,-0.0
2461.0,-0.0
2460.0,0.0
2459.0,0.0
2458.0,0.0001
2457.0,0.0001
2456.0,0.0
2455.0,0.0
2454.0,-0.0
2453.0,-0.0
2452.0,-0.0001
2451.0,-0.0001
2450.0,-0.0001
2449.0,-0.0001
2448.0,-0.0001
2447.0,-0.0001
2446.0,-0.0001
2445.0,-0.0001
2444.0,-0.0
2443.0,-0.0
2442.0,-0.0
2441.0,-0.0001
2440.0,-0.0
2439.0,0.0
2438.0,0.0001
2437.0,0.0001
2436.0,0.0
2435.0,0.0
2434.0,0.0
2433.0,0.0001
2432.0,0.0001
2431.0,0.0001
2430.0,0.0001
2429.0,0.0
2428.0,-0.0
2427.0,-0.0001
2426.0,-0.0001
2425.0,-0.0001
2424.0,-0.0001
2423.0,-0.0001
2422.0,-0.0
2421.0,0.0
2420.0,0.0001
2419.0,0.0
2418.0,-0.0
2417.0,-0.0001
2416.0,-0.0001
2415.0,-0.0
2414.0,0.0
2413.0,0.0
2412.0,0.0
2411.0,-0.0
2410.0,-0.0
2409.0,-0.0
2408.0,-0.0
2407.0,0.0
2406.0,0.0
2405.0,0.0001
2404.0,0.0001
2403.0,0.0001
2402.0,0.0001
2401.0,0.0001
2400.0,0.0001
2399.0,0.0
2398.0,0.0
2397.0,-0.0
2396.0,-0.0
2395.0,-0.0001
2394.0,-0.0001
2393.0,-0.0001
2392.0,-0.0001
2391.0,-0.0001
2390.0,-0.0
2389.0,0.0
2388.0,0.0001
2387.0,0.0002
2386.0,0.0003
2385.0,0.0004
2384.0,0.0005
2383.0,0.0004
2382.0,0.0003
2381.0,0.0001
2380.0,-0.0002
2379.0,-0.0004
2378.0,-0.0005
2377.0,-0.0005
2376.0,-0.0004
2375.0,-0.0002
2374.0,-0.0001
2373.0,0.0001
2372.0,0.0003
2371.0,0.0005
2370.0,0.0005
2369.0,0.0001
2368.0,-0.0009
2367.0,-0.0016
2366.0,-0.0014
2365.0,-0.0003
2364.0,0.0008
2363.0,0.0011
2362.0,0.0007
2361.0,0.0005
2360.0,0.0006
2359.0,0.0006
2358.0,-0.0001
2357.0,-0.001
2356.0,-0.0014
2355.0,-0.0015
2354.0,-0.0015
2353.0,-0.0014
2352.0,-0.0011
2351.0,-0.0006
2350.0,-0.0002
2349.0,-0.0002
2348.0,-0.0006
2347.0,-0.0009
2346.0,-0.0008
2345.0,-0.0004
2344.0,0.0
2343.0,0.0003
2342.0,0.0003
2341.0,0.0002
2340.0,0.0
2339.0,-0.0002
2338.0,-0.0006
2337.0,-0.001
2336.0,-0.0014
2335.0,-0.0015
2334.0,-0.0014
2333.0,-0.0013
2332.0,-0.001
2331.0,-0.0005
2330.0,-0.0
2329.0,0.0003
2328.0,0.0004
2327.0,0.0003
2326.0,0.0002
2325.0,0.0001
2324.0,-0.0001
2323.0,-0.0003
2322.0,-0.0004
2321.0,-0.0003
2320.0,-0.0001
2319.0,0.0
2318.0,0.0001
2317.0,0.0002
2316.0,0.0003
2315.0,0.0004
2314.0,0.0003
2313.0,0.0003
2312.0,0.0003
2311.0,0.0004
2310.0,0.0005
2309.0,0.0005
2308.0,0.0005
2307.0,0.0004
2306.0,0.0004
2305.0,0.0005
2304.0,0.0006
2303.0,0.0007
2302.0,0.0007
2301.0,0.0007
2300.0,0.0006
2299.0,0.0006
2298.0,0.0005
2297.0,0.0005
2296.0,0.0004
2295.0,0.0004
2294.0,0.0003
2293.0,0.0003
2292.0,0.0003
2291.0,0.0003
2290.0,0.0003
2289.0,0.0003
2288.0,0.0003
2287.0,0.0003
2286.0,0.0003
2285.0,0.0002
2284.0,0.0002
2283.0,0.0001
2282.0,0.0
2281.0,-0.0
2280.0,-0.0001
2279.0,-0.0001
2278.0,-0.0001
2277.0,-0.0002
2276.0,-0.0002
2275.0,-0.0001
2274.0,-0.0001
2273.0,-0.0002
2272.0,-0.0003
2271.0,-0.0003
2270.0,-0.0003
2269.0,-0.0003
2268.0,-0.0002
2267.0,-0.0002
2266.0,-0.0002
2265.0,-0.0001
2264.0,-0.0001
2263.0,-0.0001
2262.0,-0.0001
2261.0,-0.0001
2260.0,-0.0001
2259.0,-0.0001
2258.0,-0.0001
2257.0,-0.0001
2256.0,-0.0001
2255.0,-0.0001
2254.0,-0.0001
2253.0,-0.0001
2252.0,-0.0001
2251.0,-0.0001
2250.0,-0.0001
2249.0,-0.0001
2248.0,-0.0002
2247.0,-0.0002
2246.0,-0.0001
2245.0,-0.0001
2244.0,-0.0001
2243.0,-0.0001
2242.0,-0.0001
2241.0,-0.0002
2240.0,-0.0002
2239.0,-0.0003
2238.0,-0.0003
2237.0,-0.0003
2236.0,-0.0002
2235.0,-0.0002
2234.0,-0.0002
2233.0,-0.0002
2232.0,-0.0002
2231.0,-0.0002
2230.0,-0.0002
2229.0,-0.0002
2228.0,-0.0003
2227.0,-0.0003
2226.0,-0.0002
2225.0,-0.0002
2224.0,-0.0002
2223.0,-0.0002
2222.0,-0.0003
2221.0,-0.0003
2220.0,-0.0003
2219.0,-0.0003
2218.0,-0.0002
2217.0,-0.0002
2216.0,-0.0002
2215.0,-0.0002
2214.0,-0.0002
2213.0,-0.0002
2212.0,-0.0002
2211.0,-0.0002
2210.0,-0.0002
2209.0,-0.0002
2208.0,-0.0003
2207.0,-0.0003
2206.0,-0.0003
2205.0,-0.0003
2204.0,-0.0003
2203.0,-0.0003
2202.0,-0.0003
2201.0,-0.0003
2200.0,-0.0002
2199.0,-0.0002
2198.0,-0.0003
2197.0,-0.0003
2196.0,-0.0003
2195.0,-0.0003
2194.0,-0.0003
2193.0,-0.0003
2192.0,-0.0003
2191.0,-0.0002
2190.0,-0.0002
2189.0,-0.0001
2188.0,-0.0001
2187.0,-0.0002
2186.0,-0.0002
2185.0,-0.0002
2184.0,-0.0002
2183.0,-0.0002
2182.0,-0.0002
2181.0,-0.0003
2180.0,-0.0003
2179.0,-0.0004
2178.0,-0.0004
2177.0,-0.0004
2176.0,-0.0004
2175.0,-0.0004
2174.0,-0.0003
2173.0,-0.0003
2172.0,-0.0003
2171.0,-0.0003
2170.0,-0.0003
2169.0,-0.0003
2168.0,-0.0003
2167.0,-0.0003
2166.0,-0.0003
2165.0,-0.0004
2164.0,-0.0003
2163.0,-0.0003
2162.0,-0.0003
2161.0,-0.0003
2160.0,-0.0003
2159.0,-0.0003
2158.0,-0.0004
2157.0,-0.0004
2156.0,-0.0003
2155.0,-0.0003
2154.0,-0.0003
2153.0,-0.0003
2152.0,-0.0003
2151.0,-0.0003
2150.0,-0.0003
2149.0,-0.0003
2148.0,-0.0004
2147.0,-0.0004
2146.0,-0.0004
2145.0,-0.0004
2144.0,-0.0003
2143.0,-0.0003
2142.0,-0.0003
2141.0,-0.0003
2140.0,-0.0003
2139.0,-0.0003
2138.0,-0.0003
2137.0,-0.0003
2136.0,-0.0003
2135.0,-0.0003
2134.0,-0.0003
2133.0,-0.0004
2132.0,-0.0004
2131.0,-0.0004
2130.0,-0.0003
2129.0,-0.0003
2128.0,-0.0002
2127.0,-0.0003
2126.0,-0.0003
2125.0,-0.0003
2124.0,-0.0003
2123.0,-0.0003
2122.0,-0.0003
2121.0,-0.0003
2120.0,-0.0003
2119.0,-0.0003
2118.0,-0.0003
2117.0,-0.0003
2116.0,-0.0003
2115.0,-0.0003
2114.0,-0.0003
2113.0,-0.0003
2112.0,-0.0003
2111.0,-0.0003
2110.0,-0.0003
2109.0,-0.0003
2108.0,-0.0002
2107.0,-0.0002
2106.0,-0.0002
2105.0,-0.0002
2104.0,-0.0003
2103.0,-0.0003
2102.0,-0.0003
2101.0,-0.0003
2100.0,-0.0003
2099.0,-0.0003
2098.0,-0.0003
2097.0,-0.0003
2096.0,-0.0003
2095.0,-0.0003
2094.0,-0.0003
2093.0,-0.0003
2092.0,-0.0003
2091.0,-0.0003
2090.0,-0.0004
2089.0,-0.0004
2088.0,-0.0004
2087.0,-0.0004
2086.0,-0.0004
2085.0,-0.0004
2084.0,-0.0004
2083.0,-0.0004
2082.0,-0.0004
2081.0,-0.0004
2080.0,-0.0004
2079.0,-0.0004
2078.0,-0.0004
2077.0,-0.0004
2076.0,-0.0004
2075.0,-0.0004
2074.0,-0.0004
2073.0,-0.0004
2072.0,-0.0004
2071.0,-0.0004
2070.0,-0.0004
2069.0,-0.0003
2068.0,-0.0003
2067.0,-0.0003
2066.0,-0.0004
2065.0,-0.0004
2064.0,-0.0003
2063.0,-0.0003
2062.0,-0.0004
2061.0,-0.0004
2060.0,-0.0004
2059.0,-0.0004
2058.0,-0.0004
2057.0,-0.0004
2056.0,-0.0004
2055.0,-0.0004
2054.0,-0.0004
2053.0,-0.0004
2052.0,-0.0004
2051.0,-0.0005
2050.0,-0.0005
2049.0,-0.0005
2048.0,-0.0005
2047.0,-0.0004
2046.0,-0.0004
2045.0,-0.0005
2044.0,-0.0005
2043.0,-0.0005
2042.0,-0.0006
2041.0,-0.0006
2040.0,-0.0006
2039.0,-0.0005
2038.0,-0.0005
2037.0,-0.0005
2036.0,-0.0005
2035.0,-0.0004
2034.0,-0.0004
2033.0,-0.0005
2032.0,-0.0005
2031.0,-0.0005
2030.0,-0.0005
2029.0,-0.0005
2028.0,-0.0005
2027.0,-0.0006
2026.0,-0.0006
2025.0,-0.0005
2024.0,-0.0005
2023.0,-0.0005
2022.0,-0.0005
2021.0,-0.0006
2020.0,-0.0006
2019.0,-0.0006
2018.0,-0.0005
2017.0,-0.0005
2016.0,-0.0004
2015.0,-0.0004
2014.0,-0.0004
2013.0,-0.0005
2012.0,-0.0005
2011.0,-0.0006
2010.0,-0.0006
2009.0,-0.0006
2008.0,-0.0005
2007.0,-0.0004
2006.0,-0.0003
2005.0,-0.0003
2004.0,-0.0004
2003.0,-0.0004
2002.0,-0.0005
2001.0,-0.0005
2000.0,-0.0006
1999.0,-0.0006
1998.0,-0.0005
1997.0,-0.0005
1996.0,-0.0005
1995.0,-0.0005
1994.0,-0.0005
1993.0,-0.0004
1992.0,-0.0004
1991.0,-0.0005
1990.0,-0.0005
1989.0,-0.0005
1988.0,-0.0006
1987.0,-0.0006
1986.0,-0.0006
1985.0,-0.0006
1984.0,-0.0006
1983.0,-0.0006
1982.0,-0.0006
1981.0,-0.0006
1980.0,-0.0006
1979.0,-0.0006
1978.0,-0.0006
1977.0,-0.0005
1976.0,-0.0005
1975.0,-0.0005
1974.0,-0.0005
1973.0,-0.0006
1972.0,-0.0006
1971.0,-0.0006
1970.0,-0.0006
1969.0,-0.0006
1968.0,-0.0006
1967.0,-0.0006
1966.0,-0.0006
1965.0,-0.0005
1964.0,-0.0005
1963.0,-0.0005
1962.0,-0.0005
1961.0,-0.0005
1960.0,-0.0005
1959.0,-0.0005
1958.0,-0.0005
1957.0,-0.0005
1956.0,-0.0005
1955.0,-0.0006
1954.0,-0.0006
1953.0,-0.0006
1952.0,-0.0006
1951.0,-0.0006
1950.0,-0.0006
1949.0,-0.0007
1948.0,-0.0007
1947.0,-0.0007
1946.0,-0.0007
1945.0,-0.0007
1944.0,-0.0007
1943.0,-0.0007
1942.0,-0.0007
1941.0,-0.0006
1940.0,-0.0006
1939.0,-0.0006
1938.0,-0.0007
1937.0,-0.0007
1936.0,-0.0007
1935.0,-0.0007
1934.0,-0.0006
1933.0,-0.0006
1932.0,-0.0006
1931.0,-0.0006
1930.0,-0.0006
1929.0,-0.0006
1928.0,-0.0006
1927.0,-0.0006
1926.0,-0.0007
1925.0,-0.0007
1924.0,-0.0007
1923.0,-0.0007
1922.0,-0.0007
1921.0,-0.0007
1920.0,-0.0007
1919.0,-0.0007
1918.0,-0.0008
1917.0,-0.0008
1916.0,-0.0007
1915.0,-0.0007
1914.0,-0.0007
1913.0,-0.0007
1912.0,-0.0007
1911.0,-0.0006
1910.0,-0.0006
1909.0,-0.0006
1908.0,-0.0006
1907.0,-0.0006
1906.0,-0.0006
1905.0,-0.0006
1904.0,-0.0006
1903.0,-0.0007
1902.0,-0.0007
1901.0,-0.0007
1900.0,-0.0006
1899.0,-0.0006
1898.0,-0.0006
1897.0,-0.0006
1896.0,-0.0006
1895.0,-0.0006
1894.0,-0.0006
1893.0,-0.0006
1892.0,-0.0006
1891.0,-0.0006
1890.0,-0.0007
1889.0,-0.0007
1888.0,-0.0007
1887.0,-0.0007
1886.0,-0.0007
1885.0,-0.0007
1884.0,-0.0007
1883.0,-0.0007
1882.0,-0.0007
1881.0,-0.0007
1880.0,-0.0007
1879.0,-0.0007
1878.0,-0.0007
1877.0,-0.0007
1876.0,-0.0008
1875.0,-0.0007
1874.0,-0.0007
1873.0,-0.0007
1872.0,-0.0007
1871.0,-0.0007
1870.0,-0.0007
1869.0,-0.0006
1868.0,-0.0006
1867.0,-0.0006
1866.0,-0.0006
1865.0,-0.0006
1864.0,-0.0006
1863.0,-0.0007
1862.0,-0.0007
1861.0,-0.0007
1860.0,-0.0007
1859.0,-0.0007
1858.0,-0.0007
1857.0,-0.0006
1856.0,-0.0006
1855.0,-0.0005
1854.0,-0.0005
1853.0,-0.0005
1852.0,-0.0005
1851.0,-0.0005
1850.0,-0.0006
1849.0,-0.0006
1848.0,-0.0006
1847.0,-0.0006
1846.0,-0.0006
1845.0,-0.0006
1844.0,-0.0006
1843.0,-0.0005
1842.0,-0.0005
1841.0,-0.0005
1840.0,-0.0005
1839.0,-0.0005
1838.0,-0.0006
1837.0,-0.0006
1836.0,-0.0006
1835.0,-0.0005
1834.0,-0.0005
1833.0,-0.0005
1832.0,-0.0005
1831.0,-0.0005
1830.0,-0.0006
1829.0,-0.0006
1828.0,-0.0005
1827.0,-0.0004
1826.0,-0.0004
1825.0,-0.0004
1824.0,-0.0005
1823.0,-0.0005
1822.0,-0.0005
1821.0,-0.0004
1820.0,-0.0003
1819.0,-0.0003
1818.0,-0.0003
1817.0,-0.0003
1816.0,-0.0003
1815.0,-0.0003
1814.0,-0.0003
1813.0,-0.0003
1812.0,-0.0003
1811.0,-0.0003
1810.0,-0.0002
1809.0,-0.0002
1808.0,-0.0001
1807.0,-0.0001
1806.0,-0.0001
1805.0,-0.0001
1804.0,-0.0
1803.0,0.0
1802.0,0.0001
1801.0,0.0001
1800.0,0.0001
1799.0,0.0002
1798.0,0.0002
1797.0,0.0002
1796.0,0.0002
1795.0,0.0003
1794.0,0.0004
1793.0,0.0005
1792.0,0.0006
1791.0,0.0007
1790.0,0.0008
1789.0,0.0009
1788.0,0.001
1787.0,0.0012
1786.0,0.0014
1785.0,0.0016
1784.0,0.0019
1783.0,0.0021
1782.0,0.0023
1781.0,0.0026
1780.0,0.0029
1779.0,0.0032
1778.0,0.0035
1777.0,0.0038
1776.0,0.0041
1775.0,0.0044
1774.0,0.0047
1773.0,0.0051
1772.0,0.0055
1771.0,0.0059
1770.0,0.0063
1769.0,0.0067
1768.0,0.0073
1767.0,0.008
1766.0,0.0086
1765.0,0.0092
1764.0,0.0098
1763.0,0.0105
1762.0,0.0113
1761.0,0.0119
1760.0,0.0123
1759.0,0.0125
1758.0,0.0126
1757.0,0.0126
1756.0,0.0126
1755.0,0.0126
1754.0,0.0126
1753.0,0.0126
1752.0,0.0126
1751.0,0.0126
1750.0,0.0125
1749.0,0.0125
1748.0,0.0124
1747.0,0.0123
1746.0,0.0121
1745.0,0.0119
1744.0,0.0116
1743.0,0.0113
1742.0,0.011
1741.0,0.0106
1740.0,0.0101
1739.0,0.0096
1738.0,0.0092
1737.0,0.009
1736.0,0.0087
1735.0,0.0082
1734.0,0.0076
1733.0,0.0071
1732.0,0.0068
1731.0,0.0065
1730.0,0.0062
1729.0,0.0059
1728.0,0.0057
1727.0,0.0055
1726.0,0.0053
1725.0,0.0051
1724.0,0.005
1723.0,0.0048
1722.0,0.0047
1721.0,0.0046
1720.0,0.0045
1719.0,0.0044
1718.0,0.0042
1717.0,0.0041
1716.0,0.004
1715.0,0.0039
1714.0,0.0038
1713.0,0.0037
1712.0,0.0036
1711.0,0.0034
1710.0,0.0033
1709.0,0.0032
1708.0,0.0031
1707.0,0.003
1706.0,0.0029
1705.0,0.0028
1704.0,0.0027
1703.0,0.0027
1702.0,0.0027
1701.0,0.0027
1700.0,0.0026
1699.0,0.0025
1698.0,0.0024
1697.0,0.0023
1696.0,0.0022
1695.0,0.0021
1694.0,0.002
1693.0,0.0019
1692.0,0.0018
1691.0,0.0018
1690.0,0.0018
1689.0,0.0017
1688.0,0.0017
1687.0,0.0017
1686.0,0.0016
1685.0,0.0015
1684.0,0.0014
1683.0,0.0014
1682.0,0.0014
1681.0,0.0014
1680.0,0.0014
1679.0,0.0013
1678.0,0.0013
1677.0,0.0012
1676.0,0.0012
1675.0,0.0011
1674.0,0.0011
1673.0,0.0011
1672.0,0.001
1671.0,0.001
1670.0,0.0009
1669.0,0.0009
1668.0,0.0009
1667.0,0.001
1666.0,0.001
1665.0,0.001
1664.0,0.0009
1663.0,0.0009
1662.0,0.0008
1661.0,0.0008
1660.0,0.0008
1659.0,0.0008
1658.0,0.0008
1657.0,0.0008
1656.0,0.0007
1655.0,0.0006
1654.0,0.0005
1653.0,0.0005
1652.0,0.0006
1651.0,0.0006
1650.0,0.0006
1649.0,0.0006
1648.0,0.0006
1647.0,0.0006
1646.0,0.0006
1645.0,0.0006
1644.0,0.0006
1643.0,0.0006
1642.0,0.0006
1641.0,0.0006
1640.0,0.0006
1639.0,0.0006
1638.0,0.0005
1637.0,0.0005
1636.0,0.0005
1635.0,0.0005
1634.0,0.0005
1633.0,0.0005
1632.0,0.0005
1631.0,0.0005
1630.0,0.0005
1629.0,0.0005
1628.0,0.0005
1627.0,0.0005
1626.0,0.0004
1625.0,0.0004
1624.0,0.0003
1623.0,0.0003
1622.0,0.0003
1621.0,0.0003
1620.0,0.0003
1619.0,0.0003
1618.0,0.0003
1617.0,0.0003
1616.0,0.0003
1615.0,0.0003
1614.0,0.0003
1613.0,0.0003
1612.0,0.0002
1611.0,0.0002
1610.0,0.0001
1609.0,0.0001
1608.0,0.0001
1607.0,0.0001
1606.0,0.0001
1605.0,0.0001
1604.0,0.0001
1603.0,0.0
1602.0,-0.0
1601.0,-0.0
1600.0,0.0
1599.0,0.0
1598.0,0.0
1597.0,0.0
1596.0,0.0
1595.0,0.0
1594.0,0.0
1593.0,0.0
1592.0,0.0
1591.0,0.0
1590.0,-0.0
1589.0,-0.0
1588.0,-0.0001
1587.0,-0.0001
1586.0,-0.0001
1585.0,-0.0001
1584.0,-0.0001
1583.0,-0.0002
1582.0,-0.0002
1581.0,-0.0003
1580.0,-0.0003
1579.0,-0.0003
1578.0,-0.0003
1577.0,-0.0003
1576.0,-0.0003
1575.0,-0.0004
1574.0,-0.0004
1573.0,-0.0004
1572.0,-0.0004
1571.0,-0.0004
1570.0,-0.0004
1569.0,-0.0003
1568.0,-0.0003
1567.0,-0.0003
1566.0,-0.0003
1565.0,-0.0003
1564.0,-0.0003
1563.0,-0.0003
1562.0,-0.0002
1561.0,-0.0002
1560.0,-0.0002
1559.0,-0.0002
1558.0,-0.0002
1557.0,-0.0003
1556.0,-0.0003
1555.0,-0.0003
1554.0,-0.0003
1553.0,-0.0003
1552.0,-0.0003
1551.0,-0.0004
1550.0,-0.0004
1549.0,-0.0004
1548.0,-0.0004
1547.0,-0.0004
1546.0,-0.0004
1545.0,-0.0004
1544.0,-0.0004
1543.0,-0.0004
1542.0,-0.0004
1541.0,-0.0003
1540.0,-0.0003
1539.0,-0.0004
1538.0,-0.0005
1537.0,-0.0005
1536.0,-0.0006
1535.0,-0.0006
1534.0,-0.0006
1533.0,-0.0005
1532.0,-0.0005
1531.0,-0.0005
1530.0,-0.0004
1529.0,-0.0004
1528.0,-0.0003
1527.0,-0.0004
1526.0,-0.0004
1525.0,-0.0005
1524.0,-0.0006
1523.0,-0.0006
1522.0,-0.0006
1521.0,-0.0006
1520.0,-0.0005
1519.0,-0.0005
1518.0,-0.0004
1517.0,-0.0004
1516.0,-0.0004
1515.0,-0.0004
1514.0,-0.0004
1513.0,-0.0004
1512.0,-0.0004
1511.0,-0.0004
1510.0,-0.0004
1509.0,-0.0003
1508.0,-0.0002
1507.0,-0.0003
1506.0,-0.0004
1505.0,-0.0005
1504.0,-0.0005
1503.0,-0.0005
1502.0,-0.0005
1501.0,-0.0006
1500.0,-0.0006
1499.0,-0.0007
1498.0,-0.0007
1497.0,-0.0006
1496.0,-0.0005
1495.0,-0.0005
1494.0,-0.0005
1493.0,-0.0005
1492.0,-0.0005
1491.0,-0.0005
1490.0,-0.0005
1489.0,-0.0005
1488.0,-0.0006
1487.0,-0.0006
1486.0,-0.0006
1485.0,-0.0006
1484.0,-0.0006
1483.0,-0.0005
1482.0,-0.0005
1481.0,-0.0005
1480.0,-0.0004
1479.0,-0.0004
1478.0,-0.0004
1477.0,-0.0003
1476.0,-0.0003
1475.0,-0.0002
1474.0,-0.0001
1473.0,0.0002
1472.0,0.0004
1471.0,0.0005
1470.0,0.0006
1469.0,0.0007
1468.0,0.0009
1467.0,0.0011
1466.0,0.0015
1465.0,0.002
1464.0,0.0024
1463.0,0.0028
1462.0,0.0032
1461.0,0.0035
1460.0,0.0038
1459.0,0.0042
1458.0,0.0046
1457.0,0.005
1456.0,0.0052
1455.0,0.0052
1454.0,0.0052
1453.0,0.0052
1452.0,0.0051
1451.0,0.0051
1450.0,0.005
1449.0,0.0049
1448.0,0.0048
1447.0,0.0046
1446.0,0.0044
1445.0,0.0042
1444.0,0.0039
1443.0,0.0035
1442.0,0.0032
1441.0,0.0029
1440.0,0.0025
1439.0,0.0023
1438.0,0.002
1437.0,0.0016
1436.0,0.0012
1435.0,0.0009
1434.0,0.0008
1433.0,0.0006
1432.0,0.0005
1431.0,0.0004
1430.0,0.0003
1429.0,0.0003
1428.0,0.0002
1427.0,0.0002
1426.0,0.0001
1425.0,0.0001
1424.0,0.0
1423.0,-0.0
1422.0,-0.0
1421.0,-0.0
1420.0,-0.0001
1419.0,-0.0002
1418.0,-0.0002
1417.0,-0.0003
1416.0,-0.0003
1415.0,-0.0003
1414.0,-0.0003
1413.0,-0.0002
1412.0,-0.0003
1411.0,-0.0003
1410.0,-0.0004
1409.0,-0.0003
1408.0,-0.0003
1407.0,-0.0003
1406.0,-0.0002
1405.0,-0.0002
1404.0,-0.0002
1403.0,-0.0001
1402.0,-0.0001
1401.0,-0.0
1400.0,0.0001
1399.0,0.0002
1398.0,0.0003
1397.0,0.0005
1396.0,0.0008
1395.0,0.0011
1394.0,0.0015
1393.0,0.0018
1392.0,0.0021
1391.0,0.0024
1390.0,0.0028
1389.0,0.0031
1388.0,0.0035
1387.0,0.0039
1386.0,0.0041
1385.0,0.0043
1384.0,0.0044
1383.0,0.0045
1382.0,0.0044
1381.0,0.0043
1380.0,0.004
1379.0,0.0037
1378.0,0.0033
1377.0,0.0031
1376.0,0.0029
1375.0,0.0029
1374.0,0.0031
1373.0,0.0033
1372.0,0.0036
1371.0,0.0039
1370.0,0.0041
1369.0,0.0043
1368.0,0.0044
1367.0,0.0046
1366.0,0.0047
1365.0,0.0048
1364.0,0.0049
1363.0,0.005
1362.0,0.0052
1361.0,0.0053
1360.0,0.0053
1359.0,0.0053
1358.0,0.0053
1357.0,0.0052
1356.0,0.0051
1355.0,0.0049
1354.0,0.0046
1353.0,0.0043
1352.0,0.0041
1351.0,0.0039
1350.0,0.0036
1349.0,0.0034
1348.0,0.0031
1347.0,0.0029
1346.0,0.0027
1345.0,0.0026
1344.0,0.0024
1343.0,0.0023
1342.0,0.0022
1341.0,0.002
1340.0,0.0019
1339.0,0.0018
1338.0,0.0017
1337.0,0.0016
1336.0,0.0015
1335.0,0.0014
1334.0,0.0013
1333.0,0.0013
1332.0,0.0013
1331.0,0.0013
1330.0,0.0013
1329.0,0.0013
1328.0,0.0012
1327.0,0.0012
1326.0,0.0011
1325.0,0.0011
1324.0,0.0011
1323.0,0.0011
1322.0,0.0011
1321.0,0.0011
1320.0,0.0011
1319.0,0.0011
1318.0,0.0011
1317.0,0.0012
1316.0,0.0012
1315.0,0.0012
1314.0,0.0012
1313.0,0.0012
1312.0,0.0012
1311.0,0.0013
1310.0,0.0014
1309.0,0.0015
1308.0,0.0015
1307.0,0.0016
1306.0,0.0016
1305.0,0.0016
1304.0,0.0016
1303.0,0.0016
1302.0,0.0016
1301.0,0.0016
1300.0,0.0016
1299.0,0.0016
1298.0,0.0016
1297.0,0.0016
1296.0,0.0016
1295.0,0.0016
1294.0,0.0016
1293.0,0.0015
1292.0,0.0014
1291.0,0.0013
1290.0,0.0012
1289.0,0.0011
1288.0,0.0012
1287.0,0.0012
1286.0,0.0013
1285.0,0.0014
1284.0,0.0015
1283.0,0.0017
1282.0,0.0018
1281.0,0.002
1280.0,0.0022
1279.0,0.0024
1278.0,0.0026
1277.0,0.0027
1276.0,0.0028
1275.0,0.0029
1274.0,0.003
1273.0,0.0031
1272.0,0.0032
1271.0,0.0033
1270.0,0.0034
1269.0,0.0034
1268.0,0.0034
1267.0,0.0034
1266.0,0.0034
1265.0,0.0034
1264.0,0.0033
1263.0,0.0033
1262.0,0.0032
1261.0,0.0031
1260.0,0.0031
1259.0,0.003
1258.0,0.003
1257.0,0.003
1256.0,0.0029
1255.0,0.0029
1254.0,0.0028
1253.0,0.0028
1252.0,0.0027
1251.0,0.0027
1250.0,0.0027
1249.0,0.0027
1248.0,0.0027
1247.0,0.0028
1246.0,0.0028
1245.0,0.0029
1244.0,0.003
1243.0,0.0031
1242.0,0.0032
1241.0,0.0033
1240.0,0.0033
1239.0,0.0033
1238.0,0.0034
1237.0,0.0035
1236.0,0.0037
1235.0,0.0039
1234.0,0.0041
1233.0,0.0043
1232.0,0.0046
1231.0,0.0048
1230.0,0.0052
1229.0,0.0055
1228.0,0.0059
1227.0,0.0063
1226.0,0.0069
1225.0,0.0074
1224.0,0.008
1223.0,0.0086
1222.0,0.0091
1221.0,0.0097
1220.0,0.0103
1219.0,0.0109
1218.0,0.0116
1217.0,0.0122
1216.0,0.0128
1215.0,0.0132
1214.0,0.0136
1213.0,0.0138
1212.0,0.0139
1211.0,0.0139
1210.0,0.0138
1209.0,0.0136
1208.0,0.0134
1207.0,0.0132
1206.0,0.0131
1205.0,0.013
1204.0,0.013
1203.0,0.013
1202.0,0.0131
1201.0,0.0133
1200.0,0.0135
1199.0,0.0138
1198.0,0.0142
1197.0,0.0146
1196.0,0.015
1195.0,0.0155
1194.0,0.016
1193.0,0.0166
1192.0,0.0172
1191.0,0.0179
1190.0,0.0186
1189.0,0.0194
1188.0,0.0203
1187.0,0.0212
1186.0,0.0221
1185.0,0.0229
1184.0,0.0238
1183.0,0.0246
1182.0,0.0252
1181.0,0.0258
1180.0,0.0261
1179.0,0.0262
1178.0,0.026
1177.0,0.0255
1176.0,0.0246
1175.0,0.0234
1174.0,0.022
1173.0,0.0206
1172.0,0.0191
1171.0,0.0177
1170.0,0.0163
1169.0,0.015
1168.0,0.0138
1167.0,0.0126
1166.0,0.0115
1165.0,0.0106
1164.0,0.0097
1163.0,0.0089
1162.0,0.0082
1161.0,0.0076
1160.0,0.0071
1159.0,0.0066
1158.0,0.0062
1157.0,0.0058
1156.0,0.0056
1155.0,0.0053
1154.0,0.0052
1153.0,0.0051
1152.0,0.0052
1151.0,0.0053
1150.0,0.0055
1149.0,0.0058
1148.0,0.0062
1147.0,0.0067
1146.0,0.0073
1145.0,0.0081
1144.0,0.009
1143.0,0.01
1142.0,0.0111
1141.0,0.0122
1140.0,0.0134
1139.0,0.0145
1138.0,0.0156
1137.0,0.0167
1136.0,0.0176
1135.0,0.0185
1134.0,0.0193
1133.0,0.0199
1132.0,0.0205
1131.0,0.0209
1130.0,0.0211
1129.0,0.0212
1128.0,0.0211
1127.0,0.0209
1126.0,0.0205
1125.0,0.02
1124.0,0.0194
1123.0,0.0188
1122.0,0.0181
1121.0,0.0175
1120.0,0.0169
1119.0,0.0163
1118.0,0.0159
1117.0,0.0155
1116.0,0.0153
1115.0,0.0153
1114.0,0.0153
1113.0,0.0156
1112.0,0.0161
1111.0,0.0166
1110.0,0.0173
1109.0,0.018
1108.0,0.0188
1107.0,0.0197
1106.0,0.0205
1105.0,0.0213
1104.0,0.0221
1103.0,0.0229
1102.0,0.0236
1101.0,0.0244
1100.0,0.0252
1099.0,0.026
1098.0,0.0268
1097.0,0.0275
1096.0,0.0282
1095.0,0.0289
1094.0,0.0297
1093.0,0.0304
1092.0,0.0311
1091.0,0.0318
1090.0,0.0324
1089.0,0.0331
1088.0,0.0338
1087.0,0.0344
1086.0,0.035
1085.0,0.0356
1084.0,0.0361
1083.0,0.0365
1082.0,0.0368
1081.0,0.0371
1080.0,0.0373
1079.0,0.0374
1078.0,0.0373
1077.0,0.0372
1076.0,0.0369
1075.0,0.0365
1074.0,0.0361
1073.0,0.0357
1072.0,0.0353
1071.0,0.0347
1070.0,0.034
1069.0,0.0332
1068.0,0.0324
1067.0,0.0316
1066.0,0.0307
1065.0,0.0299
1064.0,0.029
1063.0,0.0282
1062.0,0.0274
1061.0,0.0268
1060.0,0.0263
1059.0,0.026
1058.0,0.0258
1057.0,0.0256
1056.0,0.0254
1055.0,0.0253
1054.0,0.0253
1053.0,0.0255
1052.0,0.0257
1051.0,0.0259
1050.0,0.0263
1049.0,0.0267
1048.0,0.0271
1047.0,0.0276
1046.0,0.028
1045.0,0.0284
1044.0,0.0287
1043.0,0.0289
1042.0,0.029
1041.0,0.0291
1040.0,0.029
1039.0,0.0289
1038.0,0.0286
1037.0,0.0283
1036.0,0.0279
1035.0,0.0275
1034.0,0.027
1033.0,0.0266
1032.0,0.0262
1031.0,0.0258
1030.0,0.0254
1029.0,0.0252
1028.0,0.0249
1027.0,0.0247
1026.0,0.0244
1025.0,0.0241
1024.0,0.0239
1023.0,0.0236
1022.0,0.0232
1021.0,0.0229
1020.0,0.0226
1019.0,0.0223
1018.0,0.0219
1017.0,0.0216
1016.0,0.0212
1015.0,0.0208
1014.0,0.0204
1013.0,0.02
1012.0,0.0196
1011.0,0.0193
1010.0,0.0191
1009.0,0.0189
1008.0,0.0187
1007.0,0.0184
1006.0,0.0181
1005.0,0.0178
1004.0,0.0176
1003.0,0.0174
1002.0,0.0172
1001.0,0.0169
1000.0,0.0167
999.0,0.0165
998.0,0.0162
997.0,0.0161
996.0,0.0159
995.0,0.0158
994.0,0.0156
993.0,0.0154
992.0,0.0152
991.0,0.0151
990.0,0.015
989.0,0.0149
988.0,0.0149
987.0,0.0148
986.0,0.0146
985.0,0.0145
984.0,0.0143
983.0,0.0141
982.0,0.014
981.0,0.0139
980.0,0.0138
979.0,0.0136
978.0,0.0134
977.0,0.0133
976.0,0.0132
975.0,0.0131
974.0,0.013
973.0,0.0129
972.0,0.0128
971.0,0.0126
970.0,0.0124
969.0,0.0123
968.0,0.0121
967.0,0.012
966.0,0.0119
965.0,0.0119
964.0,0.0118
963.0,0.0118
962.0,0.0118
961.0,0.012
960.0,0.0121
959.0,0.0122
958.0,0.0123
957.0,0.0124
956.0,0.0125
955.0,0.0124
954.0,0.0124
953.0,0.0123
952.0,0.0122
951.0,0.0121
950.0,0.0119
949.0,0.0118
948.0,0.0117
947.0,0.0116
946.0,0.0115
945.0,0.0114
944.0,0.0113
943.0,0.0112
942.0,0.0111
941.0,0.011
940.0,0.011
939.0,0.0109
938.0,0.0109
937.0,0.0109
936.0,0.0109
935.0,0.0108
934.0,0.0107
933.0,0.0107
932.0,0.0106
931.0,0.0105
930.0,0.0104
929.0,0.0105
928.0,0.0106
927.0,0.0107
926.0,0.0108
925.0,0.0108
924.0,0.0108
923.0,0.0109
922.0,0.0109
921.0,0.0109
920.0,0.011
919.0,0.0109
918.0,0.0108
917.0,0.0107
916.0,0.0107
915.0,0.0107
914.0,0.0107
913.0,0.0106
912.0,0.0105
911.0,0.0104
910.0,0.0103
909.0,0.0103
908.0,0.0103
907.0,0.0103
906.0,0.0102
905.0,0.0101
904.0,0.01
903.0,0.0099
902.0,0.0099
901.0,0.0099
900.0,0.0098
899.0,0.0098
898.0,0.0097
897.0,0.0097
896.0,0.0098
895.0,0.0098
894.0,0.0099
893.0,0.0098
892.0,0.0098
891.0,0.0097
890.0,0.0095
889.0,0.0094
888.0,0.0092
887.0,0.0091
886.0,0.009
885.0,0.009
884.0,0.009
883.0,0.009
882.0,0.0091
881.0,0.0093
880.0,0.0096
879.0,0.01
878.0,0.0105
877.0,0.011
876.0,0.0117
875.0,0.0123
874.0,0.013
873.0,0.0136
872.0,0.0141
871.0,0.0144
870.0,0.0147
869.0,0.0148
868.0,0.0148
867.0,0.0147
866.0,0.0146
865.0,0.0144
864.0,0.0143
863.0,0.0142
862.0,0.0139
861.0,0.0136
860.0,0.0133
859.0,0.0131
858.0,0.0128
857.0,0.0126
856.0,0.0123
855.0,0.0119
854.0,0.0115
853.0,0.0112
852.0,0.011
851.0,0.0109
850.0,0.0109
849.0,0.0108
848.0,0.0106
847.0,0.0104
846.0,0.0102
845.0,0.01
844.0,0.0099
843.0,0.0098
842.0,0.0098
841.0,0.0097
840.0,0.0096
839.0,0.0095
838.0,0.0094
837.0,0.0093
836.0,0.0092
835.0,0.009
834.0,0.009
833.0,0.0089
832.0,0.0088
831.0,0.0086
830.0,0.0084
829.0,0.0082
828.0,0.0081
827.0,0.0081
826.0,0.0083
825.0,0.0083
824.0,0.0083
823.0,0.0082
822.0,0.0081
821.0,0.008
820.0,0.0079
819.0,0.0079
818.0,0.0079
817.0,0.0079
816.0,0.0079
815.0,0.0077
814.0,0.0076
813.0,0.0075
812.0,0.0074
811.0,0.0074
810.0,0.0074
809.0,0.0074
808.0,0.0073
807.0,0.0073
806.0,0.0073
805.0,0.0074
804.0,0.0074
803.0,0.0074
802.0,0.0074
801.0,0.0073
800.0,0.0072
799.0,0.0071
798.0,0.0071
797.0,0.007
796.0,0.007
795.0,0.0068
794.0,0.0068
793.0,0.0067
792.0,0.0068
791.0,0.0068
790.0,0.0069
789.0,0.0069
788.0,0.0069
787.0,0.0069
786.0,0.0069
785.0,0.007
784.0,0.0071
783.0,0.0072
782.0,0.0072
781.0,0.0072
780.0,0.0073
779.0,0.0076
778.0,0.0078
777.0,0.0079
776.0,0.008
775.0,0.008
774.0,0.008
773.0,0.008
772.0,0.0082
771.0,0.0087
770.0,0.0091
769.0,0.0095
768.0,0.0097
767.0,0.0098
766.0,0.0101
765.0,0.0104
764.0,0.0109
763.0,0.0114
762.0,0.012
761.0,0.0126
760.0,0.0134
759.0,0.0142
758.0,0.015
757.0,0.0157
756.0,0.0162
755.0,0.0166
754.0,0.0168
753.0,0.0166
752.0,0.0163
751.0,0.0159
750.0,0.0156
749.0,0.0154
748.0,0.0153
747.0,0.0152
746.0,0.0152
745.0,0.015
744.0,0.0147
743.0,0.0144
742.0,0.0142
741.0,0.0142
740.0,0.0143
739.0,0.0144
738.0,0.0145
737.0,0.0146
736.0,0.0146
735.0,0.0145
734.0,0.014
733.0,0.0133
732.0,0.0124
731.0,0.0118
730.0,0.0114
729.0,0.0112
728.0,0.011
727.0,0.0108
726.0,0.0107
725.0,0.0106
724.0,0.0107
723.0,0.0109
722.0,0.0111
721.0,0.0114
720.0,0.0119
719.0,0.0124
718.0,0.013
717.0,0.0135
716.0,0.0138
715.0,0.014
714.0,0.0143
713.0,0.0147
712.0,0.0151
711.0,0.0155
710.0,0.0157
709.0,0.016
708.0,0.0163
707.0,0.0165
706.0,0.0165
705.0,0.0163
704.0,0.0161
703.0,0.0159
702.0,0.0161
701.0,0.0165
700.0,0.0168
699.0,0.017
698.0,0.0169
697.0,0.0167
696.0,0.0169
695.0,0.0176
694.0,0.0184
693.0,0.0187
692.0,0.0182
691.0,0.0172
690.0,0.0164
689.0,0.0161
688.0,0.0162
687.0,0.0163
686.0,0.0163
685.0,0.0164
684.0,0.0169
683.0,0.0176
682.0,0.0178
681.0,0.017
680.0,0.0154
679.0,0.0138
678.0,0.0133
677.0,0.0137
676.0,0.0146
675.0,0.0153
674.0,0.0156
673.0,0.0155
672.0,0.015
671.0,0.0139
670.0,0.0124
669.0,0.0112
668.0,0.011
667.0,0.0122
666.0,0.0135
665.0,0.0142
664.0,0.0143
663.0,0.0141
662.0,0.0139
661.0,0.0139
660.0,0.0142
659.0,0.0144
658.0,0.0146
657.0,0.0148
656.0,0.015
655.0,0.0152
654.0,0.0152
653.0,0.015
652.0,0.0145
651.0,0.0138
650.0,0.0134
649.0,0.0135
648.0,0.0139
647.0,0.0144
646.0,0.0146
645.0,0.0146
644.0,0.0144
643.0,0.0142
642.0,0.0142
641.0,0.0144
640.0,0.0146
639.0,0.0147
638.0,0.0147
637.0,0.0146
636.0,0.0144
635.0,0.0141
634.0,0.0137
633.0,0.0132
632.0,0.013
631.0,0.0132
630.0,0.0137
629.0,0.0143
628.0,0.0147
627.0,0.0147
626.0,0.0143
625.0,0.0137
624.0,0.0134
623.0,0.0134
622.0,0.0135
621.0,0.0137
620.0,0.0138
619.0,0.014
618.0,0.0143
617.0,0.0146
616.0,0.0146
615.0,0.0146
614.0,0.0148
613.0,0.0149
612.0,0.015
611.0,0.0148
610.0,0.0144
609.0,0.0137
608.0,0.013
607.0,0.0124
606.0,0.0122
605.0,0.0123
604.0,0.0122
603.0,0.0117
602.0,0.0111
601.0,0.011
600.0,0.0116
