cm-1,A
4000.0,0.0005
3999.0,0.0005
3998.0,0.0006
3997.0,0.0006
3996.0,0.0007
3995.0,0.0006
3994.0,0.0006
3993.0,0.0005
3992.0,0.0004
3991.0,0.0004
3990.0,0.0003
3989.0,0.0002
3988.0,0.0002
3987.0,0.0003
3986.0,0.0004
3985.0,0.0005
3984.0,0.0006
3983.0,0.0007
3982.0,0.0007
3981.0,0.0006
3980.0,0.0006
3979.0,0.0006
3978.0,0.0005
3977.0,0.0005
3976.0,0.0004
3975.0,0.0004
3974.0,0.0004
3973.0,0.0004
3972.0,0.0005
3971.0,0.0006
3970.0,0.0006
3969.0,0.0005
3968.0,0.0005
3967.0,0.0004
3966.0,0.0004
3965.0,0.0004
3964.0,0.0004
3963.0,0.0005
3962.0,0.0005
3961.0,0.0005
3960.0,0.0005
3959.0,0.0006
3958.0,0.0006
3957.0,0.0006
3956.0,0.0005
3955.0,0.0005
3954.0,0.0004
3953.0,0.0004
3952.0,0.0004
3951.0,0.0004
3950.0,0.0003
3949.0,0.0003
3948.0,0.0003
3947.0,0.0003
3946.0,0.0004
3945.0,0.0004
3944.0,0.0004
3943.0,0.0004
3942.0,0.0004
3941.0,0.0004
3940.0,0.0004
3939.0,0.0004
3938.0,0.0005
3937.0,0.0005
3936.0,0.0006
3935.0,0.0006
3934.0,0.0006
3933.0,0.0005
3932.0,0.0004
3931.0,0.0004
3930.0,0.0004
3929.0,0.0004
3928.0,0.0004
3927.0,0.0005
3926.0,0.0005
3925.0,0.0006
3924.0,0.0006
3923.0,0.0007
3922.0,0.0008
3921.0,0.0008
3920.0,0.0007
3919.0,0.0007
3918.0,0.0006
3917.0,0.0006
3916.0,0.0006
3915.0,0.0006
3914.0,0.0006
3913.0,0.0006
3912.0,0.0006
3911.0,0.0005
3910.0,0.0005
3909.0,0.0006
3908.0,0.0006
3907.0,0.0007
3906.0,0.0007
3905.0,0.0007
3904.0,0.0006
3903.0,0.0005
3902.0,0.0004
3901.0,0.0004
3900.0,0.0003
3899.0,0.0003
3898.0,0.0004
3897.0,0.0004
3896.0,0.0005
3895.0,0.0006
3894.0,0.0006
3893.0,0.0006
3892.0,0.0005
3891.0,0.0005
3890.0,0.0005
3889.0,0.0006
3888.0,0.0006
3887.0,0.0006
3886.0,0.0004
3885.0,0.0003
3884.0,0.0004
3883.0,0.0006
3882.0,0.0007
3881.0,0.0007
3880.0,0.0006
3879.0,0.0005
3878.0,0.0005
3877.0,0.0005
3876.0,0.0006
3875.0,0.0005
3874.0,0.0004
3873.0,0.0003
3872.0,0.0004
3871.0,0.0005
3870.0,0.0005
3869.0,0.0004
3868.0,0.0004
3867.0,0.0004
3866.0,0.0004
3865.0,0.0004
3864.0,0.0005
3863.0,0.0006
3862.0,0.0006
3861.0,0.0006
3860.0,0.0006
3859.0,0.0005
3858.0,0.0004
3857.0,0.0004
3856.0,0.0003
3855.0,0.0003
3854.0,0.0002
3853.0,0.0003
3852.0,0.0003
3851.0,0.0004
3850.0,0.0004
3849.0,0.0005
3848.0,0.0006
3847.0,0.0007
3846.0,0.0007
3845.0,0.0006
3844.0,0.0004
3843.0,0.0001
3842.0,-0.0001
3841.0,-0.0002
3840.0,-0.0002
3839.0,-0.0
3838.0,0.0002
3837.0,0.0004
3836.0,0.0004
3835.0,0.0004
3834.0,0.0004
3833.0,0.0004
3832.0,0.0005
3831.0,0.0005
3830.0,0.0004
3829.0,0.0004
3828.0,0.0004
3827.0,0.0003
3826.0,0.0003
3825.0,0.0002
3824.0,0.0002
3823.0,0.0002
3822.0,0.0001
3821.0,0.0001
3820.0,0.0001
3819.0,0.0003
3818.0,0.0005
3817.0,0.0007
3816.0,0.0007
3815.0,0.0006
3814.0,0.0005
3813.0,0.0005
3812.0,0.0005
3811.0,0.0005
3810.0,0.0006
3809.0,0.0008
3808.0,0.0008
3807.0,0.0007
3806.0,0.0006
3805.0,0.0005
3804.0,0.0004
3803.0,0.0003
3802.0,0.0001
3801.0,-0.0
3800.0,0.0
3799.0,0.0002
3798.0,0.0003
3797.0,0.0005
3796.0,0.0005
3795.0,0.0005
3794.0,0.0005
3793.0,0.0005
3792.0,0.0005
3791.0,0.0005
3790.0,0.0005
3789.0,0.0006
3788.0,0.0006
3787.0,0.0006
3786.0,0.0005
3785.0,0.0005
3784.0,0.0006
3783.0,0.0006
3782.0,0.0007
3781.0,0.0007
3780.0,0.0006
3779.0,0.0006
3778.0,0.0006
3777.0,0.0006
3776.0,0.0007
3775.0,0.0007
3774.0,0.0007
3773.0,0.0007
3772.0,0.0007
3771.0,0.0007
3770.0,0.0005
3769.0,0.0005
3768.0,0.0004
3767.0,0.0005
3766.0,0.0005
3765.0,0.0005
3764.0,0.0005
3763.0,0.0005
3762.0,0.0005
3761.0,0.0004
3760.0,0.0003
3759.0,0.0002
3758.0,0.0002
3757.0,0.0003
3756.0,0.0003
3755.0,0.0003
3754.0,0.0003
3753.0,0.0001
3752.0,-0.0
3751.0,-0.0001
3750.0,-0.0001
3749.0,-0.0002
3748.0,-0.0003
3747.0,-0.0004
3746.0,-0.0004
3745.0,-0.0005
3744.0,-0.0006
3743.0,-0.0006
3742.0,-0.0005
3741.0,-0.0004
3740.0,-0.0005
3739.0,-0.0006
3738.0,-0.0006
3737.0,-0.0007
3736.0,-0.0006
3735.0,-0.0006
3734.0,-0.0007
3733.0,-0.0008
3732.0,-0.001
3731.0,-0.0011
3730.0,-0.0011
3729.0,-0.0011
3728.0,-0.001
3727.0,-0.001
3726.0,-0.001
3725.0,-0.0009
3724.0,-0.0008
3723.0,-0.0007
3722.0,-0.0006
3721.0,-0.0004
3720.0,-0.0002
3719.0,0.0001
3718.0,0.0004
3717.0,0.0005
3716.0,0.0006
3715.0,0.0005
3714.0,0.0003
3713.0,-0.0002
3712.0,-0.0007
3711.0,-0.0009
3710.0,-0.0009
3709.0,-0.0007
3708.0,-0.0005
3707.0,-0.0004
3706.0,-0.0004
3705.0,-0.0003
3704.0,-0.0002
3703.0,-0.0001
3702.0,-0.0001
3701.0,-0.0001
3700.0,-0.0001
3699.0,-0.0
3698.0,-0.0
3697.0,0.0
3696.0,0.0
3695.0,0.0001
3694.0,0.0001
3693.0,0.0003
3692.0,0.0004
3691.0,0.0006
3690.0,0.0007
3689.0,0.0008
3688.0,0.0008
3687.0,0.0009
3686.0,0.0011
3685.0,0.0012
3684.0,0.0013
3683.0,0.0013
3682.0,0.0013
3681.0,0.0012
3680.0,0.0012
3679.0,0.0012
3678.0,0.0013
3677.0,0.0015
3676.0,0.0017
3675.0,0.0018
3674.0,0.0018
3673.0,0.002
3672.0,0.0021
3671.0,0.0023
3670.0,0.0024
3669.0,0.0025
3668.0,0.0026
3667.0,0.0027
3666.0,0.0028
3665.0,0.0029
3664.0,0.003
3663.0,0.0032
3662.0,0.0033
3661.0,0.0034
3660.0,0.0035
3659.0,0.0036
3658.0,0.0037
3657.0,0.0038
3656.0,0.0039
3655.0,0.004
3654.0,0.0042
3653.0,0.0044
3652.0,0.0046
3651.0,0.0048
3650.0,0.005
3649.0,0.0052
3648.0,0.0054
3647.0,0.0056
3646.0,0.0057
3645.0,0.0058
3644.0,0.006
3643.0,0.0063
3642.0,0.0065
3641.0,0.0067
3640.0,0.0068
3639.0,0.0069
3638.0,0.0071
3637.0,0.0073
3636.0,0.0075
3635.0,0.0078
3634.0,0.0079
3633.0,0.0081
3632.0,0.0083
3631.0,0.0085
3630.0,0.0089
3629.0,0.0095
3628.0,0.01
3627.0,0.0103
3626.0,0.0106
3625.0,0.0109
3624.0,0.0112
3623.0,0.0115
3622.0,0.012
3621.0,0.0126
3620.0,0.0132
3619.0,0.0137
3618.0,0.0141
3617.0,0.0144
3616.0,0.0148
3615.0,0.0153
3614.0,0.0159
3613.0,0.0163
3612.0,0.0166
3611.0,0.0168
3610.0,0.0171
3609.0,0.0174
3608.0,0.0179
3607.0,0.0183
3606.0,0.0187
3605.0,0.0189
3604.0,0.0191
3603.0,0.0194
3602.0,0.0197
3601.0,0.0201
3600.0,0.0207
3599.0,0.0211
3598.0,0.0215
3597.0,0.0218
3596.0,0.022
3595.0,0.0223
3594.0,0.0226
3593.0,0.0229
3592.0,0.0231
3591.0,0.0233
3590.0,0.0234
3589.0,0.0238
3588.0,0.0244
3587.0,0.0251
3586.0,0.0256
3585.0,0.0259
3584.0,0.0262
3583.0,0.0264
3582.0,0.0267
3581.0,0.027
3580.0,0.0273
3579.0,0.0276
3578.0,0.0279
3577.0,0.0282
3576.0,0.0285
3575.0,0.0288
3574.0,0.0292
3573.0,0.0294
3572.0,0.0295
3571.0,0.0296
3570.0,0.0297
3569.0,0.03
3568.0,0.0305
3567.0,0.0312
3566.0,0.0318
3565.0,0.0321
3564.0,0.0322
3563.0,0.0323
3562.0,0.0325
3561.0,0.0328
3560.0,0.0331
3559.0,0.0335
3558.0,0.0338
3557.0,0.034
3556.0,0.0343
3555.0,0.0344
3554.0,0.0346
3553.0,0.0349
3552.0,0.0352
3551.0,0.0355
3550.0,0.0358
3549.0,0.0361
3548.0,0.0364
3547.0,0.0368
3546.0,0.0372
3545.0,0.0375
3544.0,0.0377
3543.0,0.0379
3542.0,0.0381
3541.0,0.0383
3540.0,0.0385
3539.0,0.0387
3538.0,0.039
3537.0,0.0392
3536.0,0.0395
3535.0,0.0397
3534.0,0.0399
3533.0,0.0401
3532.0,0.0403
3531.0,0.0404
3530.0,0.0406
3529.0,0.0409
3528.0,0.0412
3527.0,0.0415
3526.0,0.0417
3525.0,0.042
3524.0,0.0422
3523.0,0.0424
3522.0,0.0427
3521.0,0.0428
3520.0,0.043
3519.0,0.0431
3518.0,0.0432
3517.0,0.0434
3516.0,0.0435
3515.0,0.0437
3514.0,0.0438
3513.0,0.044
3512.0,0.0442
3511.0,0.0445
3510.0,0.0449
3509.0,0.0453
3508.0,0.0455
3507.0,0.0456
3506.0,0.0456
3505.0,0.0456
3504.0,0.0458
3503.0,0.0461
3502.0,0.0465
3501.0,0.0467
3500.0,0.0469
3499.0,0.047
3498.0,0.0472
3497.0,0.0474
3496.0,0.0476
3495.0,0.0478
3494.0,0.0479
3493.0,0.0479
3492.0,0.0481
3491.0,0.0483
3490.0,0.0485
3489.0,0.0489
3488.0,0.0492
3487.0,0.0494
3486.0,0.0495
3485.0,0.0496
3484.0,0.0497
3483.0,0.0499
3482.0,0.0503
3481.0,0.0506
3480.0,0.0509
3479.0,0.0511
3478.0,0.0513
3477.0,0.0515
3476.0,0.0516
3475.0,0.0518
3474.0,0.052
3473.0,0.0521
3472.0,0.0524
3471.0,0.0526
3470.0,0.0529
3469.0,0.0532
3468.0,0.0534
3467.0,0.0536
3466.0,0.0537
3465.0,0.0538
3464.0,0.054
3463.0,0.0542
3462.0,0.0544
3461.0,0.0547
3460.0,0.0549
3459.0,0.0551
3458.0,0.0554
3457.0,0.0558
3456.0,0.0561
3455.0,0.0563
3454.0,0.0566
3453.0,0.0569
3452.0,0.0572
3451.0,0.0574
3450.0,0.0576
3449.0,0.0578
3448.0,0.0582
3447.0,0.0586
3446.0,0.0589
3445.0,0.0591
3444.0,0.0593
3443.0,0.0594
3442.0,0.0596
3441.0,0.0598
3440.0,0.0601
3439.0,0.0604
3438.0,0.0607
3437.0,0.061
3436.0,0.0612
3435.0,0.0614
3434.0,0.0616
3433.0,0.0618
3432.0,0.0621
3431.0,0.0625
3430.0,0.0628
3429.0,0.063
3428.0,0.0633
3427.0,0.0636
3426.0,0.0639
3425.0,0.0641
3424.0,0.0642
3423.0,0.0644
3422.0,0.0646
3421.0,0.0649
3420.0,0.0653
3419.0,0.0657
3418.0,0.0659
3417.0,0.0661
3416.0,0.0663
3415.0,0.0665
3414.0,0.0668
3413.0,0.067
3412.0,0.0673
3411.0,0.0676
3410.0,0.0679
3409.0,0.0682
3408.0,0.0684
3407.0,0.0686
3406.0,0.0687
3405.0,0.0689
3404.0,0.0691
3403.0,0.0693
3402.0,0.0695
3401.0,0.0696
3400.0,0.0697
3399.0,0.0698
3398.0,0.07
3397.0,0.0703
3396.0,0.0707
3395.0,0.0709
3394.0,0.071
3393.0,0.0712
3392.0,0.0714
3391.0,0.0717
3390.0,0.0719
3389.0,0.0721
3388.0,0.0723
3387.0,0.0724
3386.0,0.0726
3385.0,0.0727
3384.0,0.0729
3383.0,0.0731
3382.0,0.0732
3381.0,0.0733
3380.0,0.0732
3379.0,0.0731
3378.0,0.0731
3377.0,0.0731
3376.0,0.0733
3375.0,0.0735
3374.0,0.0738
3373.0,0.0739
3372.0,0.0739
3371.0,0.0739
3370.0,0.0739
3369.0,0.0738
3368.0,0.0738
3367.0,0.0739
3366.0,0.074
3365.0,0.0741
3364.0,0.0743
3363.0,0.0744
3362.0,0.0744
3361.0,0.0745
3360.0,0.0745
3359.0,0.0744
3358.0,0.0743
3357.0,0.0742
3356.0,0.0743
3355.0,0.0744
3354.0,0.0746
3353.0,0.0747
3352.0,0.0749
3351.0,0.0749
3350.0,0.0749
3349.0,0.0748
3348.0,0.0746
3347.0,0.0745
3346.0,0.0745
3345.0,0.0744
3344.0,0.0744
3343.0,0.0743
3342.0,0.0743
3341.0,0.0742
3340.0,0.0741
3339.0,0.074
3338.0,0.0739
3337.0,0.0739
3336.0,0.0738
3335.0,0.0738
3334.0,0.0737
3333.0,0.0736
3332.0,0.0735
3331.0,0.0733
3330.0,0.0731
3329.0,0.073
3328.0,0.0728
3327.0,0.0727
3326.0,0.0726
3325.0,0.0726
3324.0,0.0725
3323.0,0.0724
3322.0,0.0722
3321.0,0.072
3320.0,0.0718
3319.0,0.0716
3318.0,0.0714
3317.0,0.0712
3316.0,0.071
3315.0,0.0708
3314.0,0.0707
3313.0,0.0707
3312.0,0.0706
3311.0,0.0706
3310.0,0.0704
3309.0,0.0703
3308.0,0.07
3307.0,0.0699
3306.0,0.0697
3305.0,0.0695
3304.0,0.0694
3303.0,0.0692
3302.0,0.069
3301.0,0.0688
3300.0,0.0687
3299.0,0.0685
3298.0,0.0684
3297.0,0.0682
3296.0,0.068
3295.0,0.0678
3294.0,0.0676
3293.0,0.0674
3292.0,0.0673
3291.0,0.0672
3290.0,0.0671
3289.0,0.0669
3288.0,0.0667
3287.0,0.0664
3286.0,0.0662
3285.0,0.0661
3284.0,0.0661
3283.0,0.0661
3282.0,0.0662
3281.0,0.0662
3280.0,0.0662
3279.0,0.066
3278.0,0.0658
3277.0,0.0657
3276.0,0.0657
3275.0,0.0656
3274.0,0.0656
3273.0,0.0655
3272.0,0.0654
3271.0,0.0654
3270.0,0.0653
3269.0,0.0653
3268.0,0.0652
3267.0,0.0652
3266.0,0.0651
3265.0,0.065
3264.0,0.0649
3263.0,0.0649
3262.0,0.0648
3261.0,0.0648
3260.0,0.0647
3259.0,0.0647
3258.0,0.0646
3257.0,0.0645
3256.0,0.0645
3255.0,0.0644
3254.0,0.0643
3253.0,0.0642
3252.0,0.0642
3251.0,0.0642
3250.0,0.0641
3249.0,0.064
3248.0,0.0639
3247.0,0.0638
3246.0,0.0637
3245.0,0.0636
3244.0,0.0636
3243.0,0.0635
3242.0,0.0634
3241.0,0.0632
3240.0,0.0631
3239.0,0.0629
3238.0,0.0628
3237.0,0.0626
3236.0,0.0624
3235.0,0.0622
3234.0,0.0619
3233.0,0.0617
3232.0,0.0615
3231.0,0.0613
3230.0,0.0611
3229.0,0.0609
3228.0,0.0606
3227.0,0.0604
3226.0,0.0602
3225.0,0.06
3224.0,0.0597
3223.0,0.0595
3222.0,0.0591
3221.0,0.0588
3220.0,0.0586
3219.0,0.0584
3218.0,0.0583
3217.0,0.0582
3216.0,0.058
3215.0,0.0577
3214.0,0.0573
3213.0,0.0568
3212.0,0.0564
3211.0,0.056
3210.0,0.0557
3209.0,0.0554
3208.0,0.0552
3207.0,0.0549
3206.0,0.0546
3205.0,0.0543
3204.0,0.054
3203.0,0.0537
3202.0,0.0534
3201.0,0.0531
3200.0,0.0528
3199.0,0.0524
3198.0,0.0521
3197.0,0.0518
3196.0,0.0516
3195.0,0.0514
3194.0,0.0512
3193.0,0.0509
3192.0,0.0506
3191.0,0.0502
3190.0,0.0498
3189.0,0.0494
3188.0,0.0491
3187.0,0.0488
3186.0,0.0485
3185.0,0.0481
3184.0,0.0478
3183.0,0.0475
3182.0,0.0472
3181.0,0.0469
3180.0,0.0466
3179.0,0.0462
3178.0,0.0459
3177.0,0.0455
3176.0,0.0451
3175.0,0.0448
3174.0,0.0446
3173.0,0.0443
3172.0,0.044
3171.0,0.0437
3170.0,0.0433
3169.0,0.0431
3168.0,0.0428
3167.0,0.0424
3166.0,0.0421
3165.0,0.0417
3164.0,0.0414
3163.0,0.0411
3162.0,0.0408
3161.0,0.0405
3160.0,0.0401
3159.0,0.0398
3158.0,0.0395
3157.0,0.0392
3156.0,0.039
3155.0,0.0388
3154.0,0.0385
3153.0,0.0382
3152.0,0.0379
3151.0,0.0375
3150.0,0.0372
3149.0,0.0369
3148.0,0.0368
3147.0,0.0366
3146.0,0.0363
3145.0,0.0359
3144.0,0.0355
3143.0,0.0352
3142.0,0.0349
3141.0,0.0347
3140.0,0.0345
3139.0,0.0343
3138.0,0.034
3137.0,0.0337
3136.0,0.0334
3135.0,0.0332
3134.0,0.033
3133.0,0.0328
3132.0,0.0326
3131.0,0.0323
3130.0,0.0321
3129.0,0.0318
3128.0,0.0315
3127.0,0.0313
3126.0,0.031
3125.0,0.0307
3124.0,0.0304
3123.0,0.03
3122.0,0.0298
3121.0,0.0296
3120.0,0.0295
3119.0,0.0293
3118.0,0.0291
3117.0,0.0288
3116.0,0.0285
3115.0,0.0283
3114.0,0.0282
3113.0,0.0281
3112.0,0.0279
3111.0,0.0278
3110.0,0.0276
3109.0,0.0274
3108.0,0.0272
3107.0,0.027
3106.0,0.0266
3105.0,0.0263
3104.0,0.0261
3103.0,0.026
3102.0,0.0258
3101.0,0.0256
3100.0,0.0253
3099.0,0.025
3098.0,0.0248
3097.0,0.0246
3096.0,0.0245
3095.0,0.0244
3094.0,0.0242
3093.0,0.024
3092.0,0.0238
3091.0,0.0237
3090.0,0.0235
3089.0,0.0233
3088.0,0.023
3087.0,0.0228
3086.0,0.0226
3085.0,0.0224
3084.0,0.0223
3083.0,0.0222
3082.0,0.0221
3081.0,0.0219
3080.0,0.0219
3079.0,0.0218
3078.0,0.0217
3077.0,0.0216
3076.0,0.0215
3075.0,0.0213
3074.0,0.0211
3073.0,0.0209
3072.0,0.0207
3071.0,0.0205
3070.0,0.0203
3069.0,0.0202
3068.0,0.02
3067.0,0.0199
3066.0,0.0197
3065.0,0.0196
3064.0,0.0195
3063.0,0.0194
3062.0,0.0193
3061.0,0.0191
3060.0,0.019
3059.0,0.0188
3058.0,0.0187
3057.0,0.0186
3056.0,0.0186
3055.0,0.0185
3054.0,0.0184
3053.0,0.0183
3052.0,0.0181
3051.0,0.018
3050.0,0.0178
3049.0,0.0176
3048.0,0.0174
3047.0,0.0172
3046.0,0.017
3045.0,0.0168
3044.0,0.0166
3043.0,0.0164
3042.0,0.0163
3041.0,0.0162
3040.0,0.0161
3039.0,0.016
3038.0,0.0159
3037.0,0.0158
3036.0,0.0157
3035.0,0.0155
3034.0,0.0153
3033.0,0.0151
3032.0,0.015
3031.0,0.0149
3030.0,0.0148
3029.0,0.0147
3028.0,0.0146
3027.0,0.0145
3026.0,0.0144
3025.0,0.0144
3024.0,0.0143
3023.0,0.0142
3022.0,0.0141
3021.0,0.0141
3020.0,0.014
3019.0,0.014
3018.0,0.0139
3017.0,0.0138
3016.0,0.0138
3015.0,0.0137
3014.0,0.0137
3013.0,0.0137
3012.0,0.0137
3011.0,0.0137
3010.0,0.0136
3009.0,0.0135
3008.0,0.0135
3007.0,0.0134
3006.0,0.0134
3005.0,0.0133
3004.0,0.0133
3003.0,0.0133
3002.0,0.0133
3001.0,0.0132
3000.0,0.0131
2999.0,0.013
2998.0,0.0129
2997.0,0.0128
2996.0,0.0128
2995.0,0.0127
2994.0,0.0127
2993.0,0.0127
2992.0,0.0126
2991.0,0.0126
2990.0,0.0126
2989.0,0.0126
2988.0,0.0126
2987.0,0.0127
2986.0,0.0127
2985.0,0.0128
2984.0,0.0128
2983.0,0.0128
2982.0,0.0128
2981.0,0.0128
2980.0,0.0128
2979.0,0.0127
2978.0,0.0127
2977.0,0.0128
2976.0,0.0129
2975.0,0.013
2974.0,0.0131
2973.0,0.0131
2972.0,0.0132
2971.0,0.0133
2970.0,0.0134
2969.0,0.0135
2968.0,0.0137
2967.0,0.0138
2966.0,0.014
2965.0,0.0142
2964.0,0.0143
2963.0,0.0144
2962.0,0.0144
2961.0,0.0145
2960.0,0.0145
2959.0,0.0145
2958.0,0.0146
2957.0,0.0146
2956.0,0.0146
2955.0,0.0145
2954.0,0.0144
2953.0,0.0142
2952.0,0.0141
2951.0,0.014
2950.0,0.0138
2949.0,0.0137
2948.0,0.0135
2947.0,0.0133
2946.0,0.0132
2945.0,0.0131
2944.0,0.013
2943.0,0.0129
2942.0,0.0128
2941.0,0.0126
2940.0,0.0125
2939.0,0.0123
2938.0,0.0122
2937.0,0.012
2936.0,0.0119
2935.0,0.0118
2934.0,0.0118
2933.0,0.0118
2932.0,0.0119
2931.0,0.0119
2930.0,0.0118
2929.0,0.0117
2928.0,0.0117
2927.0,0.0116
2926.0,0.0116
2925.0,0.0115
2924.0,0.0114
2923.0,0.0113
2922.0,0.0113
2921.0,0.0112
2920.0,0.0111
2919.0,0.011
2918.0,0.0109
2917.0,0.0107
2916.0,0.0106
2915.0,0.0105
2914.0,0.0104
2913.0,0.0103
2912.0,0.0102
2911.0,0.0102
2910.0,0.0101
2909.0,0.0101
2908.0,0.01
2907.0,0.0099
2906.0,0.0098
2905.0,0.0097
2904.0,0.0097
2903.0,0.0096
2902.0,0.0096
2901.0,0.0096
2900.0,0.0095
2899.0,0.0095
2898.0,0.0095
2897.0,0.0095
2896.0,0.0095
2895.0,0.0095
2894.0,0.0096
2893.0,0.0096
2892.0,0.0097
2891.0,0.0096
2890.0,0.0095
2889.0,0.0094
2888.0,0.0092
2887.0,0.0092
2886.0,0.0092
2885.0,0.0091
2884.0,0.0091
2883.0,0.0091
2882.0,0.009
2881.0,0.009
2880.0,0.009
2879.0,0.009
2878.0,0.0089
2877.0,0.0089
2876.0,0.0088
2875.0,0.0087
2874.0,0.0087
2873.0,0.0087
2872.0,0.0086
2871.0,0.0086
2870.0,0.0085
2869.0,0.0085
2868.0,0.0084
2867.0,0.0084
2866.0,0.0084
2865.0,0.0085
2864.0,0.0085
2863.0,0.0086
2862.0,0.0086
2861.0,0.0086
2860.0,0.0086
2859.0,0.0087
2858.0,0.0087
2857.0,0.0088
2856.0,0.0088
2855.0,0.0087
2854.0,0.0086
2853.0,0.0085
2852.0,0.0085
2851.0,0.0084
2850.0,0.0084
2849.0,0.0083
2848.0,0.0081
2847.0,0.008
2846.0,0.0078
2845.0,0.0077
2844.0,0.0075
2843.0,0.0073
2842.0,0.0072
2841.0,0.0071
2840.0,0.0071
2839.0,0.0071
2838.0,0.0071
2837.0,0.007
2836.0,0.0069
2835.0,0.0069
2834.0,0.0069
2833.0,0.0069
2832.0,0.0069
2831.0,0.0068
2830.0,0.0068
2829.0,0.0068
2828.0,0.0067
2827.0,0.0067
2826.0,0.0066
2825.0,0.0066
2824.0,0.0066
2823.0,0.0066
2822.0,0.0065
2821.0,0.0065
2820.0,0.0064
2819.0,0.0064
2818.0,0.0063
2817.0,0.0063
2816.0,0.0063
2815.0,0.0062
2814.0,0.0063
2813.0,0.0063
2812.0,0.0063
2811.0,0.0062
2810.0,0.0062
2809.0,0.0061
2808.0,0.0061
2807.0,0.0061
2806.0,0.0061
2805.0,0.0061
2804.0,0.0062
2803.0,0.0062
2802.0,0.0062
2801.0,0.0062
2800.0,0.0062
2799.0,0.0061
2798.0,0.0061
2797.0,0.006
2796.0,0.006
2795.0,0.006
2794.0,0.0059
2793.0,0.0059
2792.0,0.0058
2791.0,0.0058
2790.0,0.0058
2789.0,0.0058
2788.0,0.0058
2787.0,0.0057
2786.0,0.0057
2785.0,0.0056
2784.0,0.0056
2783.0,0.0056
2782.0,0.0055
2781.0,0.0055
2780.0,0.0055
2779.0,0.0056
2778.0,0.0056
2777.0,0.0056
2776.0,0.0056
2775.0,0.0056
2774.0,0.0056
2773.0,0.0056
2772.0,0.0057
2771.0,0.0057
2770.0,0.0057
2769.0,0.0057
2768.0,0.0056
2767.0,0.0056
2766.0,0.0055
2765.0,0.0055
2764.0,0.0055
2763.0,0.0055
2762.0,0.0055
2761.0,0.0055
2760.0,0.0055
2759.0,0.0055
2758.0,0.0055
2757.0,0.0054
2756.0,0.0054
2755.0,0.0053
2754.0,0.0053
2753.0,0.0054
2752.0,0.0054
2751.0,0.0054
2750.0,0.0055
2749.0,0.0055
2748.0,0.0054
2747.0,0.0053
2746.0,0.0053
2745.0,0.0053
2744.0,0.0053
2743.0,0.0053
2742.0,0.0053
2741.0,0.0053
2740.0,0.0052
2739.0,0.0052
2738.0,0.0052
2737.0,0.0052
2736.0,0.0052
2735.0,0.0052
2734.0,0.0052
2733.0,0.0052
2732.0,0.0052
2731.0,0.0052
2730.0,0.0051
2729.0,0.0051
2728.0,0.005
2727.0,0.0051
2726.0,0.0051
2725.0,0.0052
2724.0,0.0052
2723.0,0.0051
2722.0,0.0051
2721.0,0.0051
2720.0,0.0051
2719.0,0.0051
2718.0,0.005
2717.0,0.0049
2716.0,0.0048
2715.0,0.0048
2714.0,0.0048
2713.0,0.0048
2712.0,0.0048
2711.0,0.0048
2710.0,0.0047
2709.0,0.0048
2708.0,0.0048
2707.0,0.0049
2706.0,0.0049
2705.0,0.0048
2704.0,0.0048
2703.0,0.0047
2702.0,0.0046
2701.0,0.0047
2700.0,0.0047
2699.0,0.0047
2698.0,0.0048
2697.0,0.0048
2696.0,0.0048
2695.0,0.0049
2694.0,0.0049
2693.0,0.0049
2692.0,0.0049
2691.0,0.0048
2690.0,0.0048
2689.0,0.0048
2688.0,0.0049
2687.0,0.0049
2686.0,0.005
2685.0,0.0049
2684.0,0.0048
2683.0,0.0048
2682.0,0.0047
2681.0,0.0047
2680.0,0.0047
2679.0,0.0047
2678.0,0.0046
2677.0,0.0046
2676.0,0.0047
2675.0,0.0047
2674.0,0.0047
2673.0,0.0047
2672.0,0.0047
2671.0,0.0046
2670.0,0.0046
2669.0,0.0047
2668.0,0.0047
2667.0,0.0048
2666.0,0.0048
2665.0,0.0048
2664.0,0.0047
2663.0,0.0047
2662.0,0.0046
2661.0,0.0046
2660.0,0.0046
2659.0,0.0047
2658.0,0.0046
2657.0,0.0046
2656.0,0.0046
2655.0,0.0046
2654.0,0.0046
2653.0,0.0046
2652.0,0.0046
2651.0,0.0046
2650.0,0.0046
2649.0,0.0047
2648.0,0.0047
2647.0,0.0046
2646.0,0.0046
2645.0,0.0045
2644.0,0.0045
2643.0,0.0045
2642.0,0.0045
2641.0,0.0044
2640.0,0.0044
2639.0,0.0045
2638.0,0.0045
2637.0,0.0045
2636.0,0.0046
2635.0,0.0046
2634.0,0.0046
2633.0,0.0046
2632.0,0.0047
2631.0,0.0047
2630.0,0.0047
2629.0,0.0047
2628.0,0.0047
2627.0,0.0047
2626.0,0.0046
2625.0,0.0046
2624.0,0.0045
2623.0,0.0045
2622.0,0.0046
2621.0,0.0046
2620.0,0.0045
2619.0,0.0045
2618.0,0.0044
2617.0,0.0044
2616.0,0.0044
2615.0,0.0044
2614.0,0.0045
2613.0,0.0045
2612.0,0.0046
2611.0,0.0046
2610.0,0.0046
2609.0,0.0045
2608.0,0.0045
2607.0,0.0045
2606.0,0.0044
2605.0,0.0044
2604.0,0.0044
2603.0,0.0044
2602.0,0.0044
2601.0,0.0044
2600.0,0.0044
2599.0,0.0044
2598.0,0.0045
2597.0,0.0045
2596.0,0.0045
2595.0,0.0045
2594.0,0.0044
2593.0,0.0044
2592.0,0.0045
2591.0,0.0045
2590.0,0.0045
2589.0,0.0045
2588.0,0.0045
2587.0,0.0045
2586.0,0.0045
2585.0,0.0045
2584.0,0.0044
2583.0,0.0045
2582.0,0.0045
2581.0,0.0046
2580.0,0.0046
2579.0,0.0045
2578.0,0.0045
2577.0,0.0045
2576.0,0.0045
2575.0,0.0045
2574.0,0.0046
2573.0,0.0046
2572.0,0.0046
2571.0,0.0046
2570.0,0.0046
2569.0,0.0045
2568.0,0.0045
2567.0,0.0045
2566.0,0.0045
2565.0,0.0045
2564.0,0.0045
2563.0,0.0045
2562.0,0.0045
2561.0,0.0046
2560.0,0.0046
2559.0,0.0046
2558.0,0.0047
2557.0,0.0047
2556.0,0.0048
2555.0,0.0047
2554.0,0.0047
2553.0,0.0046
2552.0,0.0045
2551.0,0.0046
2550.0,0.0046
2549.0,0.0046
2548.0,0.0046
2547.0,0.0046
2546.0,0.0046
2545.0,0.0047
2544.0,0.0047
2543.0,0.0048
2542.0,0.0048
2541.0,0.0048
2540.0,0.0048
2539.0,0.0048
2538.0,0.0047
2537.0,0.0047
2536.0,0.0047
2535.0,0.0047
2534.0,0.0047
2533.0,0.0047
2532.0,0.0047
2531.0,0.0047
2530.0,0.0047
2529.0,0.0047
2528.0,0.0047
2527.0,0.0047
2526.0,0.0047
2525.0,0.0047
2524.0,0.0047
2523.0,0.0047
2522.0,0.0047
2521.0,0.0047
2520.0,0.0047
2519.0,0.0047
2518.0,0.0047
2517.0,0.0048
2516.0,0.0048
2515.0,0.0048
2514.0,0.0049
2513.0,0.0049
2512.0,0.0049
2511.0,0.0049
2510.0,0.0048
2509.0,0.0049
2508.0,0.0049
2507.0,0.0049
2506.0,0.0049
2505.0,0.0048
2504.0,0.0048
2503.0,0.0048
2502.0,0.0048
2501.0,0.0049
2500.0,0.0049
2499.0,0.0048
2498.0,0.0048
2497.0,0.0048
2496.0,0.0048
2495.0,0.0048
2494.0,0.0049
2493.0,0.0048
2492.0,0.0048
2491.0,0.0047
2490.0,0.0047
2489.0,0.0047
2488.0,0.0048
2487.0,0.0049
2486.0,0.0049
2485.0,0.005
2484.0,0.0049
2483.0,0.0049
2482.0,0.0048
2481.0,0.0048
2480.0,0.0049
2479.0,0.0049
2478.0,0.0049
2477.0,0.0049
2476.0,0.0049
2475.0,0.0048
2474.0,0.0048
2473.0,0.0048
2472.0,0.0048
2471.0,0.0048
2470.0,0.0048
2469.0,0.0048
2468.0,0.0048
2467.0,0.0048
2466.0,0.0048
2465.0,0.0049
2464.0,0.0049
2463.0,0.0049
2462.0,0.0049
2461.0,0.0049
2460.0,0.0049
2459.0,0.0049
2458.0,0.0049
2457.0,0.0049
2456.0,0.0048
2455.0,0.0049
2454.0,0.0049
2453.0,0.0049
2452.0,0.0049
2451.0,0.0049
2450.0,0.0049
2449.0,0.0049
2448.0,0.0049
2447.0,0.0049
2446.0,0.0049
2445.0,0.0049
2444.0,0.005
2443.0,0.0051
2442.0,0.0051
2441.0,0.0051
2440.0,0.0051
2439.0,0.0051
2438.0,0.0051
2437.0,0.0051
2436.0,0.005
2435.0,0.005
2434.0,0.005
2433.0,0.0051
2432.0,0.0051
2431.0,0.0052
2430.0,0.0052
2429.0,0.0053
2428.0,0.0052
2427.0,0.0052
2426.0,0.0052
2425.0,0.0051
2424.0,0.0051
2423.0,0.0051
2422.0,0.0052
2421.0,0.0053
2420.0,0.0054
2419.0,0.0054
2418.0,0.0054
2417.0,0.0054
2416.0,0.0054
2415.0,0.0054
2414.0,0.0054
2413.0,0.0054
2412.0,0.0054
2411.0,0.0054
2410.0,0.0055
2409.0,0.0055
2408.0,0.0056
2407.0,0.0056
2406.0,0.0056
2405.0,0.0057
2404.0,0.0057
2403.0,0.0057
2402.0,0.0058
2401.0,0.0057
2400.0,0.0057
2399.0,0.0056
2398.0,0.0056
2397.0,0.0056
2396.0,0.0056
2395.0,0.0057
2394.0,0.0057
2393.0,0.0057
2392.0,0.0057
2391.0,0.0057
2390.0,0.0055
2389.0,0.0053
2388.0,0.005
2387.0,0.0045
2386.0,0.0039
2385.0,0.0033
2384.0,0.0026
2383.0,0.0019
2382.0,0.0012
2381.0,0.0007
2380.0,0.0004
2379.0,0.0003
2378.0,0.0005
2377.0,0.0008
2376.0,0.0012
2375.0,0.0014
2374.0,0.0015
2373.0,0.0013
2372.0,0.0011
2371.0,0.0009
2370.0,0.0005
2369.0,-0.0
2368.0,-0.0005
2367.0,-0.0009
2366.0,-0.0011
2365.0,-0.0011
2364.0,-0.0006
2363.0,0.0006
2362.0,0.002
2361.0,0.0027
2360.0,0.002
2359.0,0.0005
2358.0,-0.0009
2357.0,-0.0012
2356.0,-0.0008
2355.0,-0.0002
2354.0,-0.0
2353.0,-0.0002
2352.0,-0.0003
2351.0,-0.0004
2350.0,-0.0003
2349.0,-0.0003
2348.0,-0.0002
2347.0,-0.0003
2346.0,-0.0004
2345.0,-0.0005
2344.0,-0.0007
2343.0,-0.0011
2342.0,-0.0011
2341.0,-0.0007
2340.0,-0.0002
2339.0,-0.0002
2338.0,-0.0004
2337.0,-0.0006
2336.0,-0.0006
2335.0,-0.0008
2334.0,-0.0008
2333.0,-0.0004
2332.0,0.0002
2331.0,0.0003
2330.0,-0.0002
2329.0,-0.0011
2328.0,-0.0019
2327.0,-0.0022
2326.0,-0.002
2325.0,-0.0014
2324.0,-0.0007
2323.0,-0.0002
2322.0,0.0
2321.0,-0.0
2320.0,-0.0
2319.0,-0.0
2318.0,-0.0
2317.0,-0.0002
2316.0,-0.0004
2315.0,-0.0007
2314.0,-0.0011
2313.0,-0.0016
2312.0,-0.0021
2311.0,-0.0024
2310.0,-0.0024
2309.0,-0.0022
2308.0,-0.0018
2307.0,-0.0012
2306.0,-0.0006
2305.0,-0.0002
2304.0,0.0
2303.0,0.0002
2302.0,0.0003
2301.0,0.0004
2300.0,0.0007
2299.0,0.0011
2298.0,0.0014
2297.0,0.0017
2296.0,0.002
2295.0,0.0023
2294.0,0.0026
2293.0,0.003
2292.0,0.0033
2291.0,0.0037
2290.0,0.004
2289.0,0.0043
2288.0,0.0045
2287.0,0.0048
2286.0,0.005
2285.0,0.0053
2284.0,0.0055
2283.0,0.0055
2282.0,0.0054
2281.0,0.0054
2280.0,0.0053
2279.0,0.0053
2278.0,0.0053
2277.0,0.0053
2276.0,0.0053
2275.0,0.0053
2274.0,0.0052
2273.0,0.0052
2272.0,0.0052
2271.0,0.0052
2270.0,0.0052
2269.0,0.0052
2268.0,0.0053
2267.0,0.0053
2266.0,0.0053
2265.0,0.0053
2264.0,0.0053
2263.0,0.0054
2262.0,0.0054
2261.0,0.0055
2260.0,0.0055
2259.0,0.0055
2258.0,0.0055
2257.0,0.0054
2256.0,0.0054
2255.0,0.0055
2254.0,0.0055
2253.0,0.0055
2252.0,0.0055
2251.0,0.0055
2250.0,0.0056
2249.0,0.0056
2248.0,0.0057
2247.0,0.0058
2246.0,0.0058
2245.0,0.0058
2244.0,0.0058
2243.0,0.0058
2242.0,0.0058
2241.0,0.0058
2240.0,0.0058
2239.0,0.0058
2238.0,0.0058
2237.0,0.0059
2236.0,0.0059
2235.0,0.0059
2234.0,0.0059
2233.0,0.0059
2232.0,0.0058
2231.0,0.0058
2230.0,0.0058
2229.0,0.0059
2228.0,0.0059
2227.0,0.0059
2226.0,0.0059
2225.0,0.0059
2224.0,0.0059
2223.0,0.0059
2222.0,0.0059
2221.0,0.0059
2220.0,0.0058
2219.0,0.0058
2218.0,0.0058
2217.0,0.0058
2216.0,0.0058
2215.0,0.0058
2214.0,0.0058
2213.0,0.0058
2212.0,0.0059
2211.0,0.0059
2210.0,0.0059
2209.0,0.0059
2208.0,0.0059
2207.0,0.0058
2206.0,0.0057
2205.0,0.0057
2204.0,0.0056
2203.0,0.0056
2202.0,0.0056
2201.0,0.0056
2200.0,0.0056
2199.0,0.0056
2198.0,0.0055
2197.0,0.0055
2196.0,0.0055
2195.0,0.0054
2194.0,0.0054
2193.0,0.0054
2192.0,0.0054
2191.0,0.0054
2190.0,0.0055
2189.0,0.0054
2188.0,0.0054
2187.0,0.0053
2186.0,0.0052
2185.0,0.0052
2184.0,0.0052
2183.0,0.0053
2182.0,0.0053
2181.0,0.0054
2180.0,0.0054
2179.0,0.0054
2178.0,0.0054
2177.0,0.0053
2176.0,0.0053
2175.0,0.0052
2174.0,0.0052
2173.0,0.0052
2172.0,0.0053
2171.0,0.0053
2170.0,0.0052
2169.0,0.0052
2168.0,0.0053
2167.0,0.0053
2166.0,0.0053
2165.0,0.0053
2164.0,0.0053
2163.0,0.0053
2162.0,0.0053
2161.0,0.0053
2160.0,0.0053
2159.0,0.0053
2158.0,0.0053
2157.0,0.0053
2156.0,0.0053
2155.0,0.0053
2154.0,0.0053
2153.0,0.0053
2152.0,0.0053
2151.0,0.0053
2150.0,0.0053
2149.0,0.0053
2148.0,0.0053
2147.0,0.0053
2146.0,0.0053
2145.0,0.0054
2144.0,0.0053
2143.0,0.0053
2142.0,0.0053
2141.0,0.0054
2140.0,0.0054
2139.0,0.0055
2138.0,0.0055
2137.0,0.0055
2136.0,0.0055
2135.0,0.0055
2134.0,0.0055
2133.0,0.0054
2132.0,0.0054
2131.0,0.0054
2130.0,0.0054
2129.0,0.0054
2128.0,0.0054
2127.0,0.0054
2126.0,0.0055
2125.0,0.0055
2124.0,0.0056
2123.0,0.0055
2122.0,0.0055
2121.0,0.0055
2120.0,0.0055
2119.0,0.0055
2118.0,0.0056
2117.0,0.0055
2116.0,0.0055
2115.0,0.0054
2114.0,0.0054
2113.0,0.0053
2112.0,0.0053
2111.0,0.0053
2110.0,0.0053
2109.0,0.0052
2108.0,0.0052
2107.0,0.0051
2106.0,0.0051
2105.0,0.0051
2104.0,0.0051
2103.0,0.0051
2102.0,0.0051
2101.0,0.0051
2100.0,0.005
2099.0,0.005
2098.0,0.0049
2097.0,0.0049
2096.0,0.0049
2095.0,0.005
2094.0,0.005
2093.0,0.0049
2092.0,0.0048
2091.0,0.0047
2090.0,0.0047
2089.0,0.0047
2088.0,0.0047
2087.0,0.0046
2086.0,0.0046
2085.0,0.0045
2084.0,0.0045
2083.0,0.0045
2082.0,0.0045
2081.0,0.0044
2080.0,0.0043
2079.0,0.0043
2078.0,0.0042
2077.0,0.0041
2076.0,0.0041
2075.0,0.0041
2074.0,0.0041
2073.0,0.004
2072.0,0.004
2071.0,0.0039
2070.0,0.0038
2069.0,0.0037
2068.0,0.0037
2067.0,0.0037
2066.0,0.0037
2065.0,0.0036
2064.0,0.0036
2063.0,0.0035
2062.0,0.0034
2061.0,0.0033
2060.0,0.0033
2059.0,0.0033
2058.0,0.0033
2057.0,0.0032
2056.0,0.0031
2055.0,0.0031
2054.0,0.003
2053.0,0.003
2052.0,0.003
2051.0,0.0029
2050.0,0.0028
2049.0,0.0028
2048.0,0.0027
2047.0,0.0027
2046.0,0.0027
2045.0,0.0026
2044.0,0.0024
2043.0,0.0023
2042.0,0.0023
2041.0,0.0022
2040.0,0.0022
2039.0,0.0022
2038.0,0.0022
2037.0,0.0022
2036.0,0.0022
2035.0,0.0021
2034.0,0.002
2033.0,0.002
2032.0,0.002
2031.0,0.002
2030.0,0.002
2029.0,0.002
2028.0,0.0019
2027.0,0.0019
2026.0,0.0019
2025.0,0.0018
2024.0,0.0018
2023.0,0.0018
2022.0,0.0019
2021.0,0.0019
2020.0,0.0018
2019.0,0.0018
2018.0,0.0017
2017.0,0.0016
2016.0,0.0016
2015.0,0.0016
2014.0,0.0016
2013.0,0.0015
2012.0,0.0015
2011.0,0.0015
2010.0,0.0015
2009.0,0.0016
2008.0,0.0016
2007.0,0.0015
2006.0,0.0014
2005.0,0.0014
2004.0,0.0013
2003.0,0.0014
2002.0,0.0014
2001.0,0.0013
2000.0,0.0013
1999.0,0.0013
1998.0,0.0013
1997.0,0.0013
1996.0,0.0013
1995.0,0.0013
1994.0,0.0013
1993.0,0.0012
1992.0,0.0012
1991.0,0.0012
1990.0,0.0011
1989.0,0.0011
1988.0,0.0011
1987.0,0.0011
1986.0,0.0011
1985.0,0.0011
1984.0,0.001
1983.0,0.001
1982.0,0.001
1981.0,0.001
1980.0,0.001
1979.0,0.001
1978.0,0.0009
1977.0,0.0009
1976.0,0.0009
1975.0,0.0009
1974.0,0.0008
1973.0,0.0009
1972.0,0.0009
1971.0,0.001
1970.0,0.001
1969.0,0.001
1968.0,0.001
1967.0,0.0009
1966.0,0.0008
1965.0,0.0008
1964.0,0.0009
1963.0,0.0009
1962.0,0.001
1961.0,0.001
1960.0,0.001
1959.0,0.0011
1958.0,0.0011
1957.0,0.0011
1956.0,0.0011
1955.0,0.0011
1954.0,0.0011
1953.0,0.0011
1952.0,0.0011
1951.0,0.0011
1950.0,0.0011
1949.0,0.0011
1948.0,0.0011
1947.0,0.0012
1946.0,0.0012
1945.0,0.0012
1944.0,0.0011
1943.0,0.0009
1942.0,0.0007
1941.0,0.0006
1940.0,0.0006
1939.0,0.0006
1938.0,0.0005
1937.0,0.0005
1936.0,0.0004
1935.0,0.0004
1934.0,0.0003
1933.0,0.0003
1932.0,0.0002
1931.0,0.0001
1930.0,0.0001
1929.0,0.0
1928.0,0.0
1927.0,0.0
1926.0,0.0
1925.0,-0.0
1924.0,-0.0001
1923.0,-0.0002
1922.0,-0.0003
1921.0,-0.0004
1920.0,-0.0004
1919.0,-0.0005
1918.0,-0.0007
1917.0,-0.0008
1916.0,-0.0009
1915.0,-0.0009
1914.0,-0.0009
1913.0,-0.0009
1912.0,-0.0009
1911.0,-0.001
1910.0,-0.001
1909.0,-0.0011
1908.0,-0.0011
1907.0,-0.0011
1906.0,-0.0012
1905.0,-0.0012
1904.0,-0.0013
1903.0,-0.0014
1902.0,-0.0014
1901.0,-0.0015
1900.0,-0.0015
1899.0,-0.0015
1898.0,-0.0015
1897.0,-0.0016
1896.0,-0.0017
1895.0,-0.0018
1894.0,-0.0019
1893.0,-0.0019
1892.0,-0.0019
1891.0,-0.0019
1890.0,-0.002
1889.0,-0.0021
1888.0,-0.0022
1887.0,-0.0022
1886.0,-0.0023
1885.0,-0.0024
1884.0,-0.0024
1883.0,-0.0025
1882.0,-0.0025
1881.0,-0.0025
1880.0,-0.0026
1879.0,-0.0026
1878.0,-0.0027
1877.0,-0.0028
1876.0,-0.0029
1875.0,-0.003
1874.0,-0.003
1873.0,-0.003
1872.0,-0.0029
1871.0,-0.0029
1870.0,-0.003
1869.0,-0.0032
1868.0,-0.0034
1867.0,-0.0034
1866.0,-0.0034
1865.0,-0.0035
1864.0,-0.0035
1863.0,-0.0036
1862.0,-0.0036
1861.0,-0.0037
1860.0,-0.0037
1859.0,-0.0037
1858.0,-0.0038
1857.0,-0.0038
1856.0,-0.0039
1855.0,-0.0039
1854.0,-0.0039
1853.0,-0.004
1852.0,-0.004
1851.0,-0.004
1850.0,-0.004
1849.0,-0.004
1848.0,-0.004
1847.0,-0.004
1846.0,-0.004
1845.0,-0.0042
1844.0,-0.0045
1843.0,-0.0046
1842.0,-0.0046
1841.0,-0.0045
1840.0,-0.0045
1839.0,-0.0044
1838.0,-0.0045
1837.0,-0.0045
1836.0,-0.0046
1835.0,-0.0046
1834.0,-0.0045
1833.0,-0.0045
1832.0,-0.0044
1831.0,-0.0044
1830.0,-0.0046
1829.0,-0.0048
1828.0,-0.0049
1827.0,-0.0049
1826.0,-0.005
1825.0,-0.0052
1824.0,-0.0054
1823.0,-0.0054
1822.0,-0.0054
1821.0,-0.0055
1820.0,-0.0056
1819.0,-0.0057
1818.0,-0.0058
1817.0,-0.0059
1816.0,-0.006
1815.0,-0.0061
1814.0,-0.0061
1813.0,-0.0062
1812.0,-0.0064
1811.0,-0.0065
1810.0,-0.0067
1809.0,-0.0069
1808.0,-0.007
1807.0,-0.0071
1806.0,-0.0072
1805.0,-0.0073
1804.0,-0.0074
1803.0,-0.0075
1802.0,-0.0077
1801.0,-0.0079
1800.0,-0.0081
1799.0,-0.0083
1798.0,-0.0085
1797.0,-0.0086
1796.0,-0.0087
1795.0,-0.0087
1794.0,-0.0088
1793.0,-0.0092
1792.0,-0.0097
1791.0,-0.0099
1790.0,-0.0101
1789.0,-0.0102
1788.0,-0.0103
1787.0,-0.0104
1786.0,-0.0106
1785.0,-0.0108
1784.0,-0.011
1783.0,-0.0111
1782.0,-0.0112
1781.0,-0.0115
1780.0,-0.0118
1779.0,-0.0119
1778.0,-0.012
1777.0,-0.0121
1776.0,-0.0122
1775.0,-0.0121
1774.0,-0.0122
1773.0,-0.0126
1772.0,-0.0131
1771.0,-0.0133
1770.0,-0.0133
1769.0,-0.0135
1768.0,-0.0136
1767.0,-0.0136
1766.0,-0.0134
1765.0,-0.0132
1764.0,-0.013
1763.0,-0.0129
1762.0,-0.0128
1761.0,-0.0127
1760.0,-0.0124
1759.0,-0.0119
1758.0,-0.0114
1757.0,-0.0109
1756.0,-0.0103
1755.0,-0.0095
1754.0,-0.0086
1753.0,-0.0077
1752.0,-0.0066
1751.0,-0.0052
1750.0,-0.0034
1749.0,-0.0015
1748.0,0.0007
1747.0,0.0031
1746.0,0.0058
1745.0,0.0089
1744.0,0.0125
1743.0,0.0164
1742.0,0.0205
1741.0,0.0252
1740.0,0.0308
1739.0,0.0366
1738.0,0.0412
1737.0,0.0447
1736.0,0.0485
1735.0,0.0551
1734.0,0.0643
1733.0,0.0717
1732.0,0.0768
1731.0,0.0819
1730.0,0.0875
1729.0,0.0931
1728.0,0.0983
1727.0,0.1031
1726.0,0.1078
1725.0,0.1128
1724.0,0.1181
1723.0,0.1231
1722.0,0.1271
1721.0,0.1298
1720.0,0.132
1719.0,0.1348
1718.0,0.139
1717.0,0.1428
1716.0,0.1445
1715.0,0.1447
1714.0,0.1439
1713.0,0.1419
1712.0,0.1387
1711.0,0.1348
1710.0,0.1302
1709.0,0.1253
1708.0,0.12
1707.0,0.1139
1706.0,0.1071
1705.0,0.1011
1704.0,0.0965
1703.0,0.0927
1702.0,0.0885
1701.0,0.0834
1700.0,0.0785
1699.0,0.0751
1698.0,0.0728
1697.0,0.0706
1696.0,0.068
1695.0,0.0657
1694.0,0.0639
1693.0,0.0627
1692.0,0.0616
1691.0,0.0603
1690.0,0.0591
1689.0,0.0582
1688.0,0.0577
1687.0,0.057
1686.0,0.0563
1685.0,0.0559
1684.0,0.056
1683.0,0.0557
1682.0,0.0551
1681.0,0.0547
1680.0,0.0545
1679.0,0.0542
1678.0,0.0538
1677.0,0.0534
1676.0,0.0532
1675.0,0.0532
1674.0,0.0531
1673.0,0.0531
1672.0,0.0531
1671.0,0.0532
1670.0,0.0533
1669.0,0.0535
1668.0,0.0536
1667.0,0.0535
1666.0,0.0533
1665.0,0.0532
1664.0,0.0532
1663.0,0.0533
1662.0,0.0534
1661.0,0.0535
1660.0,0.0535
1659.0,0.0534
1658.0,0.0534
1657.0,0.0533
1656.0,0.0533
1655.0,0.0531
1654.0,0.0534
1653.0,0.0545
1652.0,0.0549
1651.0,0.0548
1650.0,0.0546
1649.0,0.0545
1648.0,0.0546
1647.0,0.055
1646.0,0.0554
1645.0,0.0554
1644.0,0.0555
1643.0,0.0555
1642.0,0.0555
1641.0,0.0555
1640.0,0.0556
1639.0,0.0556
1638.0,0.0554
1637.0,0.0553
1636.0,0.0556
1635.0,0.0558
1634.0,0.0555
1633.0,0.0552
1632.0,0.055
1631.0,0.0547
1630.0,0.0543
1629.0,0.054
1628.0,0.0538
1627.0,0.0536
1626.0,0.0531
1625.0,0.0526
1624.0,0.0522
1623.0,0.0519
1622.0,0.0515
1621.0,0.0512
1620.0,0.051
1619.0,0.0507
1618.0,0.0503
1617.0,0.0499
1616.0,0.0497
1615.0,0.0494
1614.0,0.0489
1613.0,0.0482
1612.0,0.0474
1611.0,0.0464
1610.0,0.0453
1609.0,0.0441
1608.0,0.0429
1607.0,0.0417
1606.0,0.0404
1605.0,0.0392
1604.0,0.038
1603.0,0.0368
1602.0,0.0357
1601.0,0.0345
1600.0,0.0334
1599.0,0.0324
1598.0,0.0314
1597.0,0.0305
1596.0,0.0296
1595.0,0.0288
1594.0,0.028
1593.0,0.0272
1592.0,0.0265
1591.0,0.0258
1590.0,0.0252
1589.0,0.0248
1588.0,0.0243
1587.0,0.0239
1586.0,0.0237
1585.0,0.0237
1584.0,0.0241
1583.0,0.0247
1582.0,0.0256
1581.0,0.0265
1580.0,0.0273
1579.0,0.0278
1578.0,0.0279
1577.0,0.0273
1576.0,0.0263
1575.0,0.0252
1574.0,0.0244
1573.0,0.0238
1572.0,0.0231
1571.0,0.0223
1570.0,0.0212
1569.0,0.0204
1568.0,0.0198
1567.0,0.0194
1566.0,0.019
1565.0,0.0186
1564.0,0.0182
1563.0,0.0179
1562.0,0.0178
1561.0,0.0177
1560.0,0.0174
1559.0,0.0166
1558.0,0.0159
1557.0,0.0155
1556.0,0.0153
1555.0,0.0151
1554.0,0.0149
1553.0,0.0147
1552.0,0.0145
1551.0,0.0144
1550.0,0.0141
1549.0,0.0139
1548.0,0.0137
1547.0,0.0137
1546.0,0.0136
1545.0,0.0134
1544.0,0.0132
1543.0,0.0129
1542.0,0.0128
1541.0,0.0127
1540.0,0.0126
1539.0,0.0122
1538.0,0.0119
1537.0,0.0119
1536.0,0.012
1535.0,0.0119
1534.0,0.0118
1533.0,0.0117
1532.0,0.0116
1531.0,0.0116
1530.0,0.0116
1529.0,0.0116
1528.0,0.0116
1527.0,0.0114
1526.0,0.0113
1525.0,0.0112
1524.0,0.0112
1523.0,0.0109
1522.0,0.0105
1521.0,0.0102
1520.0,0.01
1519.0,0.0101
1518.0,0.0101
1517.0,0.0101
1516.0,0.0099
1515.0,0.0098
1514.0,0.0098
1513.0,0.0099
1512.0,0.0102
1511.0,0.0106
1510.0,0.0114
1509.0,0.0123
1508.0,0.0146
1507.0,0.0185
1506.0,0.021
1505.0,0.0213
1504.0,0.0209
1503.0,0.0199
1502.0,0.0187
1501.0,0.0172
1500.0,0.0157
1499.0,0.0143
1498.0,0.013
1497.0,0.0119
1496.0,0.011
1495.0,0.0105
1494.0,0.0102
1493.0,0.01
1492.0,0.0098
1491.0,0.0095
1490.0,0.0091
1489.0,0.0089
1488.0,0.0089
1487.0,0.0088
1486.0,0.0087
1485.0,0.0087
1484.0,0.0088
1483.0,0.0088
1482.0,0.0088
1481.0,0.0088
1480.0,0.009
1479.0,0.0091
1478.0,0.0092
1477.0,0.0093
1476.0,0.0094
1475.0,0.0094
1474.0,0.0092
1473.0,0.0091
1472.0,0.0092
1471.0,0.0092
1470.0,0.0094
1469.0,0.0097
1468.0,0.0101
1467.0,0.0105
1466.0,0.011
1465.0,0.0117
1464.0,0.0125
1463.0,0.0133
1462.0,0.0141
1461.0,0.015
1460.0,0.0159
1459.0,0.0167
1458.0,0.0179
1457.0,0.0192
1456.0,0.0201
1455.0,0.0206
1454.0,0.021
1453.0,0.0213
1452.0,0.0214
1451.0,0.0214
1450.0,0.0213
1449.0,0.0212
1448.0,0.021
1447.0,0.0209
1446.0,0.0208
1445.0,0.0209
1444.0,0.021
1443.0,0.021
1442.0,0.0209
1441.0,0.0209
1440.0,0.0207
1439.0,0.0203
1438.0,0.0197
1437.0,0.0188
1436.0,0.0177
1435.0,0.0167
1434.0,0.0159
1433.0,0.0151
1432.0,0.014
1431.0,0.0128
1430.0,0.0116
1429.0,0.0105
1428.0,0.0096
1427.0,0.0089
1426.0,0.0083
1425.0,0.0077
1424.0,0.0072
1423.0,0.0068
1422.0,0.0067
1421.0,0.0067
1420.0,0.0071
1419.0,0.0082
1418.0,0.01
1417.0,0.0126
1416.0,0.0159
1415.0,0.0202
1414.0,0.0255
1413.0,0.0318
1412.0,0.0386
1411.0,0.0448
1410.0,0.0493
1409.0,0.0516
1408.0,0.0519
1407.0,0.0503
1406.0,0.0472
1405.0,0.0434
1404.0,0.0399
1403.0,0.037
1402.0,0.0347
1401.0,0.0327
1400.0,0.0306
1399.0,0.0286
1398.0,0.027
1397.0,0.0257
1396.0,0.0244
1395.0,0.023
1394.0,0.0216
1393.0,0.0204
1392.0,0.0195
1391.0,0.0187
1390.0,0.0179
1389.0,0.017
1388.0,0.016
1387.0,0.0152
1386.0,0.0146
1385.0,0.0144
1384.0,0.0143
1383.0,0.0143
1382.0,0.0144
1381.0,0.0147
1380.0,0.0153
1379.0,0.016
1378.0,0.0168
1377.0,0.0176
1376.0,0.0186
1375.0,0.0197
1374.0,0.0207
1373.0,0.0216
1372.0,0.0222
1371.0,0.0225
1370.0,0.0224
1369.0,0.0219
1368.0,0.021
1367.0,0.0197
1366.0,0.0182
1365.0,0.0165
1364.0,0.0144
1363.0,0.0121
1362.0,0.0099
1361.0,0.0082
1360.0,0.0069
1359.0,0.0058
1358.0,0.0049
1357.0,0.0041
1356.0,0.0034
1355.0,0.0029
1354.0,0.0026
1353.0,0.0023
1352.0,0.0023
1351.0,0.0023
1350.0,0.0026
1349.0,0.003
1348.0,0.0037
1347.0,0.0045
1346.0,0.0055
1345.0,0.0066
1344.0,0.0078
1343.0,0.0089
1342.0,0.0098
1341.0,0.0105
1340.0,0.0107
1339.0,0.0103
1338.0,0.0095
1337.0,0.0083
1336.0,0.0069
1335.0,0.0054
1334.0,0.0041
1333.0,0.0029
1332.0,0.0019
1331.0,0.0013
1330.0,0.001
1329.0,0.0009
1328.0,0.0011
1327.0,0.0014
1326.0,0.002
1325.0,0.0026
1324.0,0.0034
1323.0,0.0042
1322.0,0.0051
1321.0,0.006
1320.0,0.007
1319.0,0.0079
1318.0,0.0089
1317.0,0.0099
1316.0,0.0109
1315.0,0.012
1314.0,0.0131
1313.0,0.0144
1312.0,0.0157
1311.0,0.0171
1310.0,0.0186
1309.0,0.0201
1308.0,0.0217
1307.0,0.0232
1306.0,0.0247
1305.0,0.0263
1304.0,0.028
1303.0,0.0299
1302.0,0.0321
1301.0,0.0347
1300.0,0.0377
1299.0,0.041
1298.0,0.0446
1297.0,0.0483
1296.0,0.0521
1295.0,0.0559
1294.0,0.0596
1293.0,0.0631
1292.0,0.0667
1291.0,0.07
1290.0,0.0731
1289.0,0.0761
1288.0,0.0789
1287.0,0.0814
1286.0,0.0837
1285.0,0.0857
1284.0,0.0875
1283.0,0.089
1282.0,0.0903
1281.0,0.0914
1280.0,0.0924
1279.0,0.0933
1278.0,0.0941
1277.0,0.0951
1276.0,0.0963
1275.0,0.0979
1274.0,0.0999
1273.0,0.1026
1272.0,0.1059
1271.0,0.1098
1270.0,0.1141
1269.0,0.1187
1268.0,0.1235
1267.0,0.1282
1266.0,0.1326
1265.0,0.1368
1264.0,0.1408
1263.0,0.1441
1262.0,0.1469
1261.0,0.149
1260.0,0.1506
1259.0,0.1515
1258.0,0.1519
1257.0,0.1521
1256.0,0.1522
1255.0,0.1525
1254.0,0.153
1253.0,0.1538
1252.0,0.1551
1251.0,0.1567
1250.0,0.1584
1249.0,0.1604
1248.0,0.1627
1247.0,0.165
1246.0,0.1674
1245.0,0.1697
1244.0,0.1718
1243.0,0.1737
1242.0,0.175
1241.0,0.1758
1240.0,0.1761
1239.0,0.1756
1238.0,0.174
1237.0,0.1717
1236.0,0.1686
1235.0,0.1647
1234.0,0.1601
1233.0,0.1553
1232.0,0.1503
1231.0,0.1453
1230.0,0.1403
1229.0,0.1355
1228.0,0.131
1227.0,0.1266
1226.0,0.1224
1225.0,0.1185
1224.0,0.1149
1223.0,0.1115
1222.0,0.1082
1221.0,0.1052
1220.0,0.1024
1219.0,0.0999
1218.0,0.0975
1217.0,0.0953
1216.0,0.0933
1215.0,0.0915
1214.0,0.0897
1213.0,0.0882
1212.0,0.0868
1211.0,0.0856
1210.0,0.0845
1209.0,0.0834
1208.0,0.0825
1207.0,0.0817
1206.0,0.0809
1205.0,0.0801
1204.0,0.0795
1203.0,0.0789
1202.0,0.0783
1201.0,0.0778
1200.0,0.0774
1199.0,0.077
1198.0,0.0767
1197.0,0.0764
1196.0,0.0762
1195.0,0.076
1194.0,0.0758
1193.0,0.0757
1192.0,0.0757
1191.0,0.0757
1190.0,0.0758
1189.0,0.0759
1188.0,0.0762
1187.0,0.0765
1186.0,0.0769
1185.0,0.0775
1184.0,0.0784
1183.0,0.0794
1182.0,0.0806
1181.0,0.082
1180.0,0.0835
1179.0,0.0851
1178.0,0.0866
1177.0,0.0882
1176.0,0.0899
1175.0,0.0915
1174.0,0.0929
1173.0,0.0941
1172.0,0.0952
1171.0,0.096
1170.0,0.0965
1169.0,0.0969
1168.0,0.0973
1167.0,0.0977
1166.0,0.098
1165.0,0.0984
1164.0,0.099
1163.0,0.0996
1162.0,0.1002
1161.0,0.1009
1160.0,0.1017
1159.0,0.1025
1158.0,0.1034
1157.0,0.1044
1156.0,0.1055
1155.0,0.1066
1154.0,0.1078
1153.0,0.1093
1152.0,0.111
1151.0,0.1129
1150.0,0.1149
1149.0,0.1172
1148.0,0.1198
1147.0,0.1225
1146.0,0.1253
1145.0,0.1284
1144.0,0.1317
1143.0,0.1351
1142.0,0.1385
1141.0,0.142
1140.0,0.1456
1139.0,0.1491
1138.0,0.1523
1137.0,0.1554
1136.0,0.1584
1135.0,0.1612
1134.0,0.1639
1133.0,0.1666
1132.0,0.1695
1131.0,0.1722
1130.0,0.175
1129.0,0.178
1128.0,0.1815
1127.0,0.1853
1126.0,0.1895
1125.0,0.1942
1124.0,0.1995
1123.0,0.205
1122.0,0.2104
1121.0,0.2159
1120.0,0.221
1119.0,0.2255
1118.0,0.229
1117.0,0.2317
1116.0,0.2338
1115.0,0.2349
1114.0,0.2351
1113.0,0.235
1112.0,0.2349
1111.0,0.2352
1110.0,0.2362
1109.0,0.2386
1108.0,0.2426
1107.0,0.2478
1106.0,0.2541
1105.0,0.2616
1104.0,0.2703
1103.0,0.2795
1102.0,0.289
1101.0,0.2991
1100.0,0.3098
1099.0,0.3204
1098.0,0.3305
1097.0,0.3403
1096.0,0.3496
1095.0,0.3577
1094.0,0.3645
1093.0,0.3705
1092.0,0.3758
1091.0,0.3798
1090.0,0.3824
1089.0,0.3842
1088.0,0.3856
1087.0,0.3862
1086.0,0.3859
1085.0,0.3857
1084.0,0.3853
1083.0,0.384
1082.0,0.3814
1081.0,0.3781
1080.0,0.3744
1079.0,0.3696
1078.0,0.3639
1077.0,0.358
1076.0,0.352
1075.0,0.3453
1074.0,0.3379
1073.0,0.3304
1072.0,0.3231
1071.0,0.3154
1070.0,0.3072
1069.0,0.2992
1068.0,0.2913
1067.0,0.2833
1066.0,0.2749
1065.0,0.2664
1064.0,0.258
1063.0,0.2495
1062.0,0.241
1061.0,0.233
1060.0,0.2254
1059.0,0.2181
1058.0,0.2111
1057.0,0.205
1056.0,0.1998
1055.0,0.1952
1054.0,0.1913
1053.0,0.1883
1052.0,0.1861
1051.0,0.1845
1050.0,0.1831
1049.0,0.1823
1048.0,0.1817
1047.0,0.1813
1046.0,0.1807
1045.0,0.1802
1044.0,0.1794
1043.0,0.1783
1042.0,0.1768
1041.0,0.1749
1040.0,0.1729
1039.0,0.1706
1038.0,0.168
1037.0,0.1653
1036.0,0.1627
1035.0,0.1601
1034.0,0.1576
1033.0,0.1552
1032.0,0.153
1031.0,0.1507
1030.0,0.1484
1029.0,0.1462
1028.0,0.1443
1027.0,0.1428
1026.0,0.1422
1025.0,0.143
1024.0,0.1461
1023.0,0.152
1022.0,0.161
1021.0,0.1734
1020.0,0.1884
1019.0,0.2044
1018.0,0.2189
1017.0,0.2292
1016.0,0.2333
1015.0,0.2303
1014.0,0.2216
1013.0,0.21
1012.0,0.1982
1011.0,0.1876
1010.0,0.1789
1009.0,0.1719
1008.0,0.1662
1007.0,0.1614
1006.0,0.1572
1005.0,0.1536
1004.0,0.1504
1003.0,0.1474
1002.0,0.1442
1001.0,0.1411
1000.0,0.1381
999.0,0.1349
998.0,0.1318
997.0,0.1287
996.0,0.1257
995.0,0.1228
994.0,0.1199
993.0,0.1172
992.0,0.1147
991.0,0.1124
990.0,0.1103
989.0,0.1087
988.0,0.1076
987.0,0.107
986.0,0.1067
985.0,0.1064
984.0,0.1058
983.0,0.1048
982.0,0.1035
981.0,0.1022
980.0,0.1013
979.0,0.1006
978.0,0.1
977.0,0.0995
976.0,0.0992
975.0,0.0987
974.0,0.0982
973.0,0.0978
972.0,0.0973
971.0,0.0968
970.0,0.0962
969.0,0.0954
968.0,0.0946
967.0,0.0936
966.0,0.0925
965.0,0.0914
964.0,0.0903
963.0,0.0892
962.0,0.0882
961.0,0.0873
960.0,0.0864
959.0,0.0856
958.0,0.0847
957.0,0.084
956.0,0.0833
955.0,0.0827
954.0,0.0821
953.0,0.0815
952.0,0.0809
951.0,0.0802
950.0,0.0796
949.0,0.079
948.0,0.0786
947.0,0.0782
946.0,0.0778
945.0,0.0775
944.0,0.0772
943.0,0.0768
942.0,0.0764
941.0,0.076
940.0,0.0757
939.0,0.0754
938.0,0.0751
937.0,0.0748
936.0,0.0746
935.0,0.0743
934.0,0.0739
933.0,0.0736
932.0,0.0733
931.0,0.073
930.0,0.0726
929.0,0.0723
928.0,0.0719
927.0,0.0715
926.0,0.0711
925.0,0.0706
924.0,0.0702
923.0,0.0697
922.0,0.0693
921.0,0.0689
920.0,0.0687
919.0,0.0684
918.0,0.0683
917.0,0.0681
916.0,0.0681
915.0,0.0681
914.0,0.0682
913.0,0.0684
912.0,0.0689
911.0,0.0695
910.0,0.0704
909.0,0.0715
908.0,0.0728
907.0,0.0743
906.0,0.0759
905.0,0.0775
904.0,0.0791
903.0,0.0807
902.0,0.0822
901.0,0.0837
900.0,0.0849
899.0,0.0859
898.0,0.0866
897.0,0.0871
896.0,0.0875
895.0,0.0877
894.0,0.0878
893.0,0.0879
892.0,0.0881
891.0,0.0883
890.0,0.0884
889.0,0.0886
888.0,0.089
887.0,0.0896
886.0,0.0906
885.0,0.0918
884.0,0.0934
883.0,0.0953
882.0,0.0976
881.0,0.1003
880.0,0.1037
879.0,0.1074
878.0,0.1116
877.0,0.1159
876.0,0.1203
875.0,0.1242
874.0,0.1273
873.0,0.1294
872.0,0.1303
871.0,0.1298
870.0,0.1279
869.0,0.125
868.0,0.1215
867.0,0.1178
866.0,0.114
865.0,0.1106
864.0,0.1076
863.0,0.1051
862.0,0.103
861.0,0.1015
860.0,0.1003
859.0,0.0993
858.0,0.0986
857.0,0.0981
856.0,0.0978
855.0,0.0976
854.0,0.0973
853.0,0.0972
852.0,0.0972
851.0,0.0974
850.0,0.0974
849.0,0.0975
848.0,0.0976
847.0,0.0977
846.0,0.0978
845.0,0.098
844.0,0.0983
843.0,0.0986
842.0,0.0987
841.0,0.0989
840.0,0.0989
839.0,0.0988
838.0,0.0985
837.0,0.0982
836.0,0.0979
835.0,0.0976
834.0,0.0971
833.0,0.0966
832.0,0.0961
831.0,0.0956
830.0,0.0951
829.0,0.0947
828.0,0.0944
827.0,0.0942
826.0,0.094
825.0,0.0938
824.0,0.0935
823.0,0.0933
822.0,0.0931
821.0,0.0931
820.0,0.0931
819.0,0.0932
818.0,0.0932
817.0,0.0932
816.0,0.0932
815.0,0.0931
814.0,0.0931
813.0,0.0931
812.0,0.0933
811.0,0.0935
810.0,0.0937
809.0,0.094
808.0,0.0943
807.0,0.0943
806.0,0.0942
805.0,0.0941
804.0,0.0941
803.0,0.0939
802.0,0.0936
801.0,0.0932
800.0,0.0931
799.0,0.0934
798.0,0.0943
797.0,0.0961
796.0,0.0986
795.0,0.1012
794.0,0.1035
793.0,0.1051
792.0,0.1061
791.0,0.1062
790.0,0.1057
789.0,0.1047
788.0,0.1036
787.0,0.1023
786.0,0.1008
785.0,0.0992
784.0,0.0979
783.0,0.0967
782.0,0.0958
781.0,0.0951
780.0,0.0945
779.0,0.0938
778.0,0.0931
777.0,0.0925
776.0,0.092
775.0,0.0914
774.0,0.0908
773.0,0.0902
772.0,0.0898
771.0,0.0892
770.0,0.0884
769.0,0.0875
768.0,0.0866
767.0,0.0856
766.0,0.0846
765.0,0.0838
764.0,0.0831
763.0,0.0822
762.0,0.0811
761.0,0.0801
760.0,0.079
759.0,0.0777
758.0,0.0762
757.0,0.0748
756.0,0.0736
755.0,0.0724
754.0,0.071
753.0,0.0694
752.0,0.0677
751.0,0.0657
750.0,0.0636
749.0,0.0617
748.0,0.0601
747.0,0.0585
746.0,0.0571
745.0,0.0562
744.0,0.0561
743.0,0.0568
742.0,0.0591
741.0,0.0634
740.0,0.0702
739.0,0.0791
738.0,0.0899
737.0,0.1023
736.0,0.116
735.0,0.1301
734.0,0.1443
733.0,0.1593
732.0,0.1757
731.0,0.1936
730.0,0.213
729.0,0.2345
728.0,0.2584
727.0,0.2833
726.0,0.3067
725.0,0.3257
724.0,0.337
723.0,0.338
722.0,0.3292
721.0,0.3139
720.0,0.2963
719.0,0.2793
718.0,0.2638
717.0,0.2502
716.0,0.2384
715.0,0.2285
714.0,0.2201
713.0,0.2135
712.0,0.2082
711.0,0.2037
710.0,0.1998
709.0,0.1964
708.0,0.1935
707.0,0.1906
706.0,0.1876
705.0,0.1849
704.0,0.1828
703.0,0.1808
702.0,0.1787
701.0,0.1765
700.0,0.1741
699.0,0.1713
698.0,0.1682
697.0,0.1654
696.0,0.1635
695.0,0.1621
694.0,0.1605
693.0,0.1585
692.0,0.156
691.0,0.1533
690.0,0.1508
689.0,0.1494
688.0,0.1491
687.0,0.149
686.0,0.1484
685.0,0.1478
684.0,0.1477
683.0,0.1481
682.0,0.1488
681.0,0.1493
680.0,0.1497
679.0,0.1494
678.0,0.1487
677.0,0.1482
676.0,0.1479
675.0,0.1474
674.0,0.1465
673.0,0.1456
672.0,0.1456
671.0,0.1469
670.0,0.1506
669.0,0.1588
668.0,0.1698
667.0,0.1729
666.0,0.1678
665.0,0.1625
664.0,0.1604
663.0,0.1605
662.0,0.1609
661.0,0.1612
660.0,0.1619
659.0,0.1631
658.0,0.1646
657.0,0.1664
656.0,0.168
655.0,0.1686
654.0,0.1688
653.0,0.1699
652.0,0.1723
651.0,0.1742
650.0,0.1745
649.0,0.1742
648.0,0.174
647.0,0.1734
646.0,0.1721
645.0,0.1709
644.0,0.1703
643.0,0.1696
642.0,0.1686
641.0,0.1686
640.0,0.1702
639.0,0.1726
638.0,0.1755
637.0,0.1794
636.0,0.1839
635.0,0.1872
634.0,0.1878
633.0,0.1874
632.0,0.1873
631.0,0.186
630.0,0.1828
629.0,0.179
628.0,0.176
627.0,0.1736
626.0,0.1718
625.0,0.1713
624.0,0.1722
623.0,0.1734
622.0,0.1736
621.0,0.1733
620.0,0.1728
619.0,0.1714
618.0,0.1692
617.0,0.1675
616.0,0.1677
615.0,0.1694
614.0,0.1718
613.0,0.1746
612.0,0.1768
611.0,0.1771
610.0,0.176
609.0,0.1758
608.0,0.1782
607.0,0.1815
606.0,0.1841
605.0,0.1859
604.0,0.1877
603.0,0.1891
602.0,0.1907
601.0,0.1951
600.0,0.2024
