cm-1,A
4000.0,0.0126
3999.0,0.0125
3998.0,0.0125
3997.0,0.0124
3996.0,0.0124
3995.0,0.0124
3994.0,0.0125
3993.0,0.0126
3992.0,0.0126
3991.0,0.0126
3990.0,0.0125
3989.0,0.0124
3988.0,0.0124
3987.0,0.0124
3986.0,0.0125
3985.0,0.0125
3984.0,0.0126
3983.0,0.0126
3982.0,0.0126
3981.0,0.0126
3980.0,0.0126
3979.0,0.0126
3978.0,0.0127
3977.0,0.0127
3976.0,0.0126
3975.0,0.0126
3974.0,0.0126
3973.0,0.0126
3972.0,0.0126
3971.0,0.0127
3970.0,0.0127
3969.0,0.0128
3968.0,0.0128
3967.0,0.0128
3966.0,0.0127
3965.0,0.0127
3964.0,0.0126
3963.0,0.0126
3962.0,0.0128
3961.0,0.0129
3960.0,0.013
3959.0,0.013
3958.0,0.0129
3957.0,0.0128
3956.0,0.0127
3955.0,0.0127
3954.0,0.0128
3953.0,0.0128
3952.0,0.0129
3951.0,0.0129
3950.0,0.0128
3949.0,0.0128
3948.0,0.0127
3947.0,0.0127
3946.0,0.0128
3945.0,0.0128
3944.0,0.0129
3943.0,0.013
3942.0,0.0131
3941.0,0.0131
3940.0,0.013
3939.0,0.0129
3938.0,0.0128
3937.0,0.0128
3936.0,0.0128
3935.0,0.0128
3934.0,0.0129
3933.0,0.0129
3932.0,0.0129
3931.0,0.0129
3930.0,0.013
3929.0,0.0131
3928.0,0.0132
3927.0,0.0132
3926.0,0.0132
3925.0,0.0131
3924.0,0.0132
3923.0,0.0133
3922.0,0.0134
3921.0,0.0134
3920.0,0.0134
3919.0,0.0133
3918.0,0.0133
3917.0,0.0132
3916.0,0.0131
3915.0,0.013
3914.0,0.013
3913.0,0.013
3912.0,0.013
3911.0,0.013
3910.0,0.013
3909.0,0.0131
3908.0,0.0133
3907.0,0.0134
3906.0,0.0133
3905.0,0.0132
3904.0,0.0131
3903.0,0.0131
3902.0,0.0132
3901.0,0.0133
3900.0,0.0133
3899.0,0.0132
3898.0,0.0131
3897.0,0.013
3896.0,0.0129
3895.0,0.0129
3894.0,0.0128
3893.0,0.0128
3892.0,0.0128
3891.0,0.0129
3890.0,0.0129
3889.0,0.013
3888.0,0.0132
3887.0,0.0132
3886.0,0.0132
3885.0,0.0133
3884.0,0.0135
3883.0,0.0137
3882.0,0.0138
3881.0,0.0139
3880.0,0.0138
3879.0,0.0137
3878.0,0.0137
3877.0,0.0137
3876.0,0.0137
3875.0,0.0135
3874.0,0.0134
3873.0,0.0135
3872.0,0.0135
3871.0,0.0134
3870.0,0.0133
3869.0,0.0133
3868.0,0.0134
3867.0,0.0134
3866.0,0.0134
3865.0,0.0133
3864.0,0.0133
3863.0,0.0134
3862.0,0.0135
3861.0,0.0134
3860.0,0.0134
3859.0,0.0134
3858.0,0.0134
3857.0,0.0134
3856.0,0.0135
3855.0,0.0134
3854.0,0.0133
3853.0,0.0134
3852.0,0.0135
3851.0,0.0135
3850.0,0.0134
3849.0,0.0134
3848.0,0.0133
3847.0,0.0133
3846.0,0.0133
3845.0,0.0134
3844.0,0.0135
3843.0,0.0136
3842.0,0.0137
3841.0,0.0137
3840.0,0.0137
3839.0,0.0138
3838.0,0.0138
3837.0,0.0138
3836.0,0.0138
3835.0,0.0137
3834.0,0.0137
3833.0,0.0136
3832.0,0.0135
3831.0,0.0135
3830.0,0.0136
3829.0,0.0137
3828.0,0.0137
3827.0,0.0137
3826.0,0.0136
3825.0,0.0137
3824.0,0.0138
3823.0,0.0139
3822.0,0.0138
3821.0,0.0138
3820.0,0.0138
3819.0,0.0138
3818.0,0.0137
3817.0,0.0136
3816.0,0.0136
3815.0,0.0136
3814.0,0.0137
3813.0,0.0137
3812.0,0.0137
3811.0,0.0137
3810.0,0.0138
3809.0,0.0139
3808.0,0.0139
3807.0,0.0139
3806.0,0.0139
3805.0,0.0141
3804.0,0.0143
3803.0,0.0143
3802.0,0.0142
3801.0,0.0142
3800.0,0.0142
3799.0,0.0141
3798.0,0.0139
3797.0,0.0137
3796.0,0.0137
3795.0,0.0137
3794.0,0.0137
3793.0,0.0138
3792.0,0.0138
3791.0,0.0138
3790.0,0.0138
3789.0,0.0139
3788.0,0.0139
3787.0,0.0139
3786.0,0.014
3785.0,0.014
3784.0,0.014
3783.0,0.0141
3782.0,0.0142
3781.0,0.0142
3780.0,0.0141
3779.0,0.014
3778.0,0.014
3777.0,0.014
3776.0,0.014
3775.0,0.0139
3774.0,0.0139
3773.0,0.0139
3772.0,0.014
3771.0,0.014
3770.0,0.0139
3769.0,0.014
3768.0,0.014
3767.0,0.014
3766.0,0.014
3765.0,0.014
3764.0,0.0141
3763.0,0.0142
3762.0,0.0143
3761.0,0.0143
3760.0,0.0143
3759.0,0.0144
3758.0,0.0144
3757.0,0.0143
3756.0,0.0142
3755.0,0.0142
3754.0,0.0141
3753.0,0.0139
3752.0,0.0136
3751.0,0.0135
3750.0,0.0136
3749.0,0.0136
3748.0,0.0136
3747.0,0.0139
3746.0,0.0141
3745.0,0.014
3744.0,0.0137
3743.0,0.0135
3742.0,0.0133
3741.0,0.0132
3740.0,0.0131
3739.0,0.0131
3738.0,0.0131
3737.0,0.0129
3736.0,0.0128
3735.0,0.0129
3734.0,0.013
3733.0,0.0129
3732.0,0.0127
3731.0,0.0125
3730.0,0.0124
3729.0,0.0124
3728.0,0.0123
3727.0,0.0124
3726.0,0.0125
3725.0,0.0127
3724.0,0.0128
3723.0,0.0129
3722.0,0.013
3721.0,0.0131
3720.0,0.0133
3719.0,0.0135
3718.0,0.0136
3717.0,0.0137
3716.0,0.0138
3715.0,0.0138
3714.0,0.0137
3713.0,0.0133
3712.0,0.0129
3711.0,0.0128
3710.0,0.0128
3709.0,0.0128
3708.0,0.0129
3707.0,0.0129
3706.0,0.013
3705.0,0.0132
3704.0,0.0134
3703.0,0.0135
3702.0,0.0135
3701.0,0.0135
3700.0,0.0134
3699.0,0.0134
3698.0,0.0133
3697.0,0.0133
3696.0,0.0134
3695.0,0.0134
3694.0,0.0135
3693.0,0.0136
3692.0,0.0137
3691.0,0.0138
3690.0,0.0141
3689.0,0.0143
3688.0,0.0143
3687.0,0.0142
3686.0,0.0142
3685.0,0.0142
3684.0,0.0142
3683.0,0.0143
3682.0,0.0144
3681.0,0.0145
3680.0,0.0146
3679.0,0.0146
3678.0,0.0147
3677.0,0.0148
3676.0,0.015
3675.0,0.0151
3674.0,0.0152
3673.0,0.0152
3672.0,0.0152
3671.0,0.015
3670.0,0.0151
3669.0,0.0152
3668.0,0.0152
3667.0,0.0152
3666.0,0.0152
3665.0,0.0151
3664.0,0.0151
3663.0,0.0151
3662.0,0.0151
3661.0,0.0151
3660.0,0.0152
3659.0,0.0153
3658.0,0.0154
3657.0,0.0155
3656.0,0.0156
3655.0,0.0156
3654.0,0.0158
3653.0,0.016
3652.0,0.0161
3651.0,0.016
3650.0,0.0161
3649.0,0.0164
3648.0,0.0166
3647.0,0.0165
3646.0,0.0163
3645.0,0.0161
3644.0,0.0159
3643.0,0.0158
3642.0,0.0157
3641.0,0.0156
3640.0,0.0156
3639.0,0.0156
3638.0,0.0156
3637.0,0.0156
3636.0,0.0157
3635.0,0.0157
3634.0,0.0157
3633.0,0.0157
3632.0,0.0157
3631.0,0.0157
3630.0,0.0156
3629.0,0.0156
3628.0,0.0157
3627.0,0.0157
3626.0,0.0157
3625.0,0.0156
3624.0,0.0155
3623.0,0.0156
3622.0,0.0158
3621.0,0.016
3620.0,0.0162
3619.0,0.0164
3618.0,0.0166
3617.0,0.0167
3616.0,0.0168
3615.0,0.0168
3614.0,0.0167
3613.0,0.0165
3612.0,0.0163
3611.0,0.0161
3610.0,0.0159
3609.0,0.0159
3608.0,0.0159
3607.0,0.016
3606.0,0.0161
3605.0,0.0161
3604.0,0.0161
3603.0,0.0161
3602.0,0.016
3601.0,0.016
3600.0,0.0159
3599.0,0.016
3598.0,0.016
3597.0,0.016
3596.0,0.016
3595.0,0.016
3594.0,0.0161
3593.0,0.0162
3592.0,0.0164
3591.0,0.0166
3590.0,0.0167
3589.0,0.0168
3588.0,0.0168
3587.0,0.0169
3586.0,0.0169
3585.0,0.0169
3584.0,0.0169
3583.0,0.0169
3582.0,0.0169
3581.0,0.017
3580.0,0.017
3579.0,0.0171
3578.0,0.0171
3577.0,0.017
3576.0,0.017
3575.0,0.0171
3574.0,0.0172
3573.0,0.0173
3572.0,0.0175
3571.0,0.0176
3570.0,0.0177
3569.0,0.0177
3568.0,0.0177
3567.0,0.0178
3566.0,0.018
3565.0,0.0181
3564.0,0.0182
3563.0,0.0183
3562.0,0.0183
3561.0,0.0183
3560.0,0.0182
3559.0,0.0182
3558.0,0.0182
3557.0,0.0182
3556.0,0.0182
3555.0,0.0183
3554.0,0.0184
3553.0,0.0185
3552.0,0.0186
3551.0,0.0186
3550.0,0.0186
3549.0,0.0185
3548.0,0.0185
3547.0,0.0185
3546.0,0.0185
3545.0,0.0186
3544.0,0.0186
3543.0,0.0186
3542.0,0.0187
3541.0,0.0188
3540.0,0.0188
3539.0,0.0187
3538.0,0.0186
3537.0,0.0185
3536.0,0.0184
3535.0,0.0183
3534.0,0.0184
3533.0,0.0184
3532.0,0.0185
3531.0,0.0185
3530.0,0.0186
3529.0,0.0187
3528.0,0.0187
3527.0,0.0188
3526.0,0.0187
3525.0,0.0186
3524.0,0.0185
3523.0,0.0184
3522.0,0.0184
3521.0,0.0183
3520.0,0.0183
3519.0,0.0183
3518.0,0.0183
3517.0,0.0184
3516.0,0.0185
3515.0,0.0185
3514.0,0.0185
3513.0,0.0185
3512.0,0.0185
3511.0,0.0185
3510.0,0.0185
3509.0,0.0185
3508.0,0.0185
3507.0,0.0185
3506.0,0.0185
3505.0,0.0185
3504.0,0.0184
3503.0,0.0184
3502.0,0.0184
3501.0,0.0184
3500.0,0.0184
3499.0,0.0184
3498.0,0.0183
3497.0,0.0182
3496.0,0.0182
3495.0,0.0182
3494.0,0.0182
3493.0,0.0182
3492.0,0.0182
3491.0,0.0182
3490.0,0.0182
3489.0,0.0182
3488.0,0.0182
3487.0,0.0182
3486.0,0.0183
3485.0,0.0183
3484.0,0.0183
3483.0,0.0183
3482.0,0.0183
3481.0,0.0184
3480.0,0.0185
3479.0,0.0186
3478.0,0.0186
3477.0,0.0185
3476.0,0.0185
3475.0,0.0186
3474.0,0.0186
3473.0,0.0187
3472.0,0.0187
3471.0,0.0186
3470.0,0.0185
3469.0,0.0185
3468.0,0.0185
3467.0,0.0186
3466.0,0.0187
3465.0,0.0187
3464.0,0.0187
3463.0,0.0187
3462.0,0.0187
3461.0,0.0188
3460.0,0.0188
3459.0,0.019
3458.0,0.0191
3457.0,0.0192
3456.0,0.0193
3455.0,0.0193
3454.0,0.0193
3453.0,0.0193
3452.0,0.0193
3451.0,0.0194
3450.0,0.0196
3449.0,0.0198
3448.0,0.02
3447.0,0.0202
3446.0,0.0203
3445.0,0.0204
3444.0,0.0204
3443.0,0.0203
3442.0,0.0204
3441.0,0.0204
3440.0,0.0205
3439.0,0.0205
3438.0,0.0205
3437.0,0.0205
3436.0,0.0206
3435.0,0.0207
3434.0,0.0208
3433.0,0.0209
3432.0,0.021
3431.0,0.0211
3430.0,0.0212
3429.0,0.0212
3428.0,0.0212
3427.0,0.0211
3426.0,0.0209
3425.0,0.0208
3424.0,0.0207
3423.0,0.0207
3422.0,0.0207
3421.0,0.0207
3420.0,0.0207
3419.0,0.0206
3418.0,0.0205
3417.0,0.0203
3416.0,0.0202
3415.0,0.02
3414.0,0.0198
3413.0,0.0196
3412.0,0.0195
3411.0,0.0195
3410.0,0.0195
3409.0,0.0195
3408.0,0.0194
3407.0,0.0193
3406.0,0.0192
3405.0,0.0191
3404.0,0.019
3403.0,0.0189
3402.0,0.0188
3401.0,0.0188
3400.0,0.0187
3399.0,0.0188
3398.0,0.0188
3397.0,0.0189
3396.0,0.0189
3395.0,0.0189
3394.0,0.0189
3393.0,0.0189
3392.0,0.0189
3391.0,0.0189
3390.0,0.0189
3389.0,0.0189
3388.0,0.0189
3387.0,0.0189
3386.0,0.0188
3385.0,0.0187
3384.0,0.0186
3383.0,0.0186
3382.0,0.0186
3381.0,0.0187
3380.0,0.0187
3379.0,0.0187
3378.0,0.0187
3377.0,0.0186
3376.0,0.0186
3375.0,0.0186
3374.0,0.0185
3373.0,0.0184
3372.0,0.0183
3371.0,0.0182
3370.0,0.0182
3369.0,0.0182
3368.0,0.0183
3367.0,0.0184
3366.0,0.0185
3365.0,0.0185
3364.0,0.0186
3363.0,0.0186
3362.0,0.0186
3361.0,0.0186
3360.0,0.0186
3359.0,0.0186
3358.0,0.0185
3357.0,0.0184
3356.0,0.0184
3355.0,0.0184
3354.0,0.0183
3353.0,0.0183
3352.0,0.0182
3351.0,0.018
3350.0,0.018
3349.0,0.018
3348.0,0.0182
3347.0,0.0183
3346.0,0.0184
3345.0,0.0184
3344.0,0.0184
3343.0,0.0184
3342.0,0.0184
3341.0,0.0184
3340.0,0.0183
3339.0,0.0183
3338.0,0.0184
3337.0,0.0184
3336.0,0.0184
3335.0,0.0184
3334.0,0.0184
3333.0,0.0183
3332.0,0.0183
3331.0,0.0183
3330.0,0.0184
3329.0,0.0184
3328.0,0.0184
3327.0,0.0183
3326.0,0.0182
3325.0,0.0181
3324.0,0.0181
3323.0,0.0182
3322.0,0.0182
3321.0,0.0182
3320.0,0.0182
3319.0,0.0183
3318.0,0.0184
3317.0,0.0184
3316.0,0.0183
3315.0,0.0182
3314.0,0.0181
3313.0,0.018
3312.0,0.0179
3311.0,0.0178
3310.0,0.0178
3309.0,0.0179
3308.0,0.018
3307.0,0.018
3306.0,0.018
3305.0,0.0181
3304.0,0.0181
3303.0,0.0182
3302.0,0.0182
3301.0,0.0181
3300.0,0.018
3299.0,0.018
3298.0,0.018
3297.0,0.018
3296.0,0.0178
3295.0,0.0177
3294.0,0.0176
3293.0,0.0177
3292.0,0.0179
3291.0,0.0181
3290.0,0.0182
3289.0,0.0183
3288.0,0.0183
3287.0,0.0182
3286.0,0.018
3285.0,0.0179
3284.0,0.0177
3283.0,0.0177
3282.0,0.0177
3281.0,0.0178
3280.0,0.0179
3279.0,0.0179
3278.0,0.0179
3277.0,0.0178
3276.0,0.0177
3275.0,0.0176
3274.0,0.0176
3273.0,0.0175
3272.0,0.0175
3271.0,0.0174
3270.0,0.0174
3269.0,0.0175
3268.0,0.0175
3267.0,0.0176
3266.0,0.0175
3265.0,0.0175
3264.0,0.0175
3263.0,0.0175
3262.0,0.0175
3261.0,0.0174
3260.0,0.0173
3259.0,0.0173
3258.0,0.0173
3257.0,0.0173
3256.0,0.0173
3255.0,0.0174
3254.0,0.0174
3253.0,0.0173
3252.0,0.0173
3251.0,0.0173
3250.0,0.0174
3249.0,0.0174
3248.0,0.0175
3247.0,0.0175
3246.0,0.0174
3245.0,0.0174
3244.0,0.0175
3243.0,0.0175
3242.0,0.0175
3241.0,0.0175
3240.0,0.0175
3239.0,0.0176
3238.0,0.0175
3237.0,0.0175
3236.0,0.0174
3235.0,0.0174
3234.0,0.0173
3233.0,0.0172
3232.0,0.0171
3231.0,0.0172
3230.0,0.0173
3229.0,0.0173
3228.0,0.0172
3227.0,0.0171
3226.0,0.017
3225.0,0.017
3224.0,0.0171
3223.0,0.0171
3222.0,0.0171
3221.0,0.017
3220.0,0.017
3219.0,0.017
3218.0,0.0171
3217.0,0.0172
3216.0,0.0172
3215.0,0.0172
3214.0,0.0172
3213.0,0.0172
3212.0,0.0171
3211.0,0.0171
3210.0,0.0171
3209.0,0.0171
3208.0,0.0171
3207.0,0.0171
3206.0,0.017
3205.0,0.0169
3204.0,0.0168
3203.0,0.0168
3202.0,0.0168
3201.0,0.0168
3200.0,0.0167
3199.0,0.0167
3198.0,0.0167
3197.0,0.0168
3196.0,0.0169
3195.0,0.017
3194.0,0.0171
3193.0,0.0172
3192.0,0.0172
3191.0,0.0171
3190.0,0.0171
3189.0,0.017
3188.0,0.0169
3187.0,0.0168
3186.0,0.0168
3185.0,0.0167
3184.0,0.0167
3183.0,0.0166
3182.0,0.0165
3181.0,0.0165
3180.0,0.0165
3179.0,0.0166
3178.0,0.0167
3177.0,0.0168
3176.0,0.0167
3175.0,0.0167
3174.0,0.0166
3173.0,0.0165
3172.0,0.0165
3171.0,0.0164
3170.0,0.0164
3169.0,0.0165
3168.0,0.0166
3167.0,0.0166
3166.0,0.0165
3165.0,0.0164
3164.0,0.0164
3163.0,0.0164
3162.0,0.0165
3161.0,0.0166
3160.0,0.0166
3159.0,0.0167
3158.0,0.0166
3157.0,0.0165
3156.0,0.0165
3155.0,0.0164
3154.0,0.0164
3153.0,0.0164
3152.0,0.0165
3151.0,0.0165
3150.0,0.0166
3149.0,0.0166
3148.0,0.0166
3147.0,0.0165
3146.0,0.0165
3145.0,0.0165
3144.0,0.0165
3143.0,0.0165
3142.0,0.0165
3141.0,0.0165
3140.0,0.0164
3139.0,0.0164
3138.0,0.0165
3137.0,0.0166
3136.0,0.0168
3135.0,0.0169
3134.0,0.017
3133.0,0.017
3132.0,0.017
3131.0,0.017
3130.0,0.0169
3129.0,0.0169
3128.0,0.017
3127.0,0.0171
3126.0,0.0171
3125.0,0.0171
3124.0,0.017
3123.0,0.0169
3122.0,0.0168
3121.0,0.0168
3120.0,0.0168
3119.0,0.017
3118.0,0.0171
3117.0,0.0171
3116.0,0.017
3115.0,0.017
3114.0,0.0171
3113.0,0.0171
3112.0,0.0172
3111.0,0.0172
3110.0,0.0173
3109.0,0.0174
3108.0,0.0175
3107.0,0.0176
3106.0,0.0176
3105.0,0.0176
3104.0,0.0176
3103.0,0.0175
3102.0,0.0175
3101.0,0.0175
3100.0,0.0175
3099.0,0.0175
3098.0,0.0176
3097.0,0.0176
3096.0,0.0176
3095.0,0.0176
3094.0,0.0175
3093.0,0.0174
3092.0,0.0174
3091.0,0.0174
3090.0,0.0175
3089.0,0.0176
3088.0,0.0177
3087.0,0.0179
3086.0,0.0181
3085.0,0.0183
3084.0,0.0183
3083.0,0.0182
3082.0,0.0182
3081.0,0.0182
3080.0,0.0182
3079.0,0.0182
3078.0,0.0181
3077.0,0.0181
3076.0,0.018
3075.0,0.018
3074.0,0.0181
3073.0,0.0182
3072.0,0.0182
3071.0,0.0183
3070.0,0.0183
3069.0,0.0184
3068.0,0.0183
3067.0,0.0183
3066.0,0.0183
3065.0,0.0182
3064.0,0.0182
3063.0,0.0182
3062.0,0.0181
3061.0,0.018
3060.0,0.0181
3059.0,0.0181
3058.0,0.0183
3057.0,0.0185
3056.0,0.0186
3055.0,0.0187
3054.0,0.0186
3053.0,0.0186
3052.0,0.0184
3051.0,0.0182
3050.0,0.018
3049.0,0.0177
3048.0,0.0174
3047.0,0.0172
3046.0,0.0169
3045.0,0.0167
3044.0,0.0166
3043.0,0.0165
3042.0,0.0164
3041.0,0.0163
3040.0,0.0162
3039.0,0.0161
3038.0,0.0161
3037.0,0.0161
3036.0,0.0161
3035.0,0.0161
3034.0,0.0162
3033.0,0.0162
3032.0,0.0162
3031.0,0.0162
3030.0,0.0163
3029.0,0.0163
3028.0,0.0163
3027.0,0.0164
3026.0,0.0165
3025.0,0.0166
3024.0,0.0167
3023.0,0.0169
3022.0,0.0171
3021.0,0.0173
3020.0,0.0175
3019.0,0.0177
3018.0,0.0178
3017.0,0.018
3016.0,0.0181
3015.0,0.0183
3014.0,0.0186
3013.0,0.0188
3012.0,0.019
3011.0,0.0192
3010.0,0.0194
3009.0,0.0196
3008.0,0.0199
3007.0,0.0201
3006.0,0.0203
3005.0,0.0205
3004.0,0.0207
3003.0,0.0209
3002.0,0.0211
3001.0,0.0213
3000.0,0.0215
2999.0,0.0217
2998.0,0.0218
2997.0,0.022
2996.0,0.0221
2995.0,0.0223
2994.0,0.0225
2993.0,0.0227
2992.0,0.0229
2991.0,0.0231
2990.0,0.0234
2989.0,0.0236
2988.0,0.0238
2987.0,0.024
2986.0,0.0242
2985.0,0.0245
2984.0,0.0248
2983.0,0.0252
2982.0,0.0257
2981.0,0.0262
2980.0,0.0266
2979.0,0.027
2978.0,0.0274
2977.0,0.0279
2976.0,0.0284
2975.0,0.0289
2974.0,0.0293
2973.0,0.0297
2972.0,0.0299
2971.0,0.03
2970.0,0.0301
2969.0,0.0302
2968.0,0.0304
2967.0,0.0305
2966.0,0.0306
2965.0,0.0306
2964.0,0.0305
2963.0,0.0303
2962.0,0.03
2961.0,0.0298
2960.0,0.0296
2959.0,0.0294
2958.0,0.0291
2957.0,0.0288
2956.0,0.0284
2955.0,0.028
2954.0,0.0276
2953.0,0.0271
2952.0,0.0267
2951.0,0.0262
2950.0,0.0258
2949.0,0.0254
2948.0,0.025
2947.0,0.0246
2946.0,0.0242
2945.0,0.0238
2944.0,0.0234
2943.0,0.0231
2942.0,0.0227
2941.0,0.0224
2940.0,0.0222
2939.0,0.0219
2938.0,0.0217
2937.0,0.0215
2936.0,0.0214
2935.0,0.0213
2934.0,0.0212
2933.0,0.0212
2932.0,0.0211
2931.0,0.0211
2930.0,0.021
2929.0,0.0209
2928.0,0.0208
2927.0,0.0208
2926.0,0.0208
2925.0,0.0209
2924.0,0.0209
2923.0,0.021
2922.0,0.0211
2921.0,0.0212
2920.0,0.0212
2919.0,0.0213
2918.0,0.0215
2917.0,0.0217
2916.0,0.022
2915.0,0.0223
2914.0,0.0226
2913.0,0.0228
2912.0,0.0231
2911.0,0.0234
2910.0,0.0236
2909.0,0.0238
2908.0,0.0238
2907.0,0.0238
2906.0,0.0236
2905.0,0.0234
2904.0,0.023
2903.0,0.0227
2902.0,0.0224
2901.0,0.0221
2900.0,0.0219
2899.0,0.0218
2898.0,0.0216
2897.0,0.0215
2896.0,0.0214
2895.0,0.0214
2894.0,0.0213
2893.0,0.0213
2892.0,0.0212
2891.0,0.0211
2890.0,0.021
2889.0,0.0209
2888.0,0.0208
2887.0,0.0207
2886.0,0.0207
2885.0,0.0206
2884.0,0.0205
2883.0,0.0204
2882.0,0.0203
2881.0,0.0202
2880.0,0.0202
2879.0,0.0201
2878.0,0.0201
2877.0,0.02
2876.0,0.0199
2875.0,0.0198
2874.0,0.0197
2873.0,0.0197
2872.0,0.0197
2871.0,0.0196
2870.0,0.0196
2869.0,0.0195
2868.0,0.0195
2867.0,0.0194
2866.0,0.0193
2865.0,0.0193
2864.0,0.0193
2863.0,0.0193
2862.0,0.0193
2861.0,0.0193
2860.0,0.0192
2859.0,0.0192
2858.0,0.0191
2857.0,0.0191
2856.0,0.019
2855.0,0.019
2854.0,0.0189
2853.0,0.0188
2852.0,0.0187
2851.0,0.0186
2850.0,0.0184
2849.0,0.0183
2848.0,0.0182
2847.0,0.0181
2846.0,0.018
2845.0,0.0179
2844.0,0.0178
2843.0,0.0177
2842.0,0.0176
2841.0,0.0175
2840.0,0.0174
2839.0,0.0173
2838.0,0.0172
2837.0,0.0171
2836.0,0.017
2835.0,0.017
2834.0,0.0169
2833.0,0.0169
2832.0,0.0169
2831.0,0.0168
2830.0,0.0167
2829.0,0.0167
2828.0,0.0166
2827.0,0.0166
2826.0,0.0166
2825.0,0.0167
2824.0,0.0167
2823.0,0.0167
2822.0,0.0167
2821.0,0.0167
2820.0,0.0166
2819.0,0.0166
2818.0,0.0166
2817.0,0.0166
2816.0,0.0166
2815.0,0.0166
2814.0,0.0165
2813.0,0.0164
2812.0,0.0164
2811.0,0.0165
2810.0,0.0165
2809.0,0.0166
2808.0,0.0167
2807.0,0.0167
2806.0,0.0167
2805.0,0.0167
2804.0,0.0166
2803.0,0.0165
2802.0,0.0165
2801.0,0.0164
2800.0,0.0163
2799.0,0.0162
2798.0,0.0162
2797.0,0.0161
2796.0,0.0161
2795.0,0.0161
2794.0,0.0161
2793.0,0.0161
2792.0,0.016
2791.0,0.016
2790.0,0.016
2789.0,0.016
2788.0,0.016
2787.0,0.016
2786.0,0.016
2785.0,0.0159
2784.0,0.0159
2783.0,0.0159
2782.0,0.0159
2781.0,0.0158
2780.0,0.0158
2779.0,0.0158
2778.0,0.0158
2777.0,0.0158
2776.0,0.0158
2775.0,0.0158
2774.0,0.0158
2773.0,0.0158
2772.0,0.0157
2771.0,0.0156
2770.0,0.0156
2769.0,0.0155
2768.0,0.0156
2767.0,0.0156
2766.0,0.0156
2765.0,0.0156
2764.0,0.0156
2763.0,0.0156
2762.0,0.0156
2761.0,0.0156
2760.0,0.0155
2759.0,0.0155
2758.0,0.0155
2757.0,0.0155
2756.0,0.0155
2755.0,0.0155
2754.0,0.0155
2753.0,0.0155
2752.0,0.0154
2751.0,0.0154
2750.0,0.0153
2749.0,0.0153
2748.0,0.0153
2747.0,0.0154
2746.0,0.0154
2745.0,0.0155
2744.0,0.0155
2743.0,0.0155
2742.0,0.0155
2741.0,0.0154
2740.0,0.0154
2739.0,0.0153
2738.0,0.0154
2737.0,0.0154
2736.0,0.0154
2735.0,0.0154
2734.0,0.0154
2733.0,0.0153
2732.0,0.0153
2731.0,0.0152
2730.0,0.0152
2729.0,0.0151
2728.0,0.0151
2727.0,0.0151
2726.0,0.0151
2725.0,0.0151
2724.0,0.0151
2723.0,0.0151
2722.0,0.0151
2721.0,0.0151
2720.0,0.015
2719.0,0.015
2718.0,0.015
2717.0,0.0149
2716.0,0.0149
2715.0,0.0149
2714.0,0.0149
2713.0,0.0149
2712.0,0.0149
2711.0,0.0149
2710.0,0.0149
2709.0,0.0149
2708.0,0.0149
2707.0,0.0149
2706.0,0.0148
2705.0,0.0148
2704.0,0.0148
2703.0,0.0148
2702.0,0.0147
2701.0,0.0146
2700.0,0.0146
2699.0,0.0146
2698.0,0.0146
2697.0,0.0146
2696.0,0.0146
2695.0,0.0147
2694.0,0.0147
2693.0,0.0147
2692.0,0.0148
2691.0,0.0148
2690.0,0.0148
2689.0,0.0148
2688.0,0.0148
2687.0,0.0148
2686.0,0.0148
2685.0,0.0148
2684.0,0.0147
2683.0,0.0147
2682.0,0.0148
2681.0,0.0148
2680.0,0.0148
2679.0,0.0148
2678.0,0.0148
2677.0,0.0148
2676.0,0.0148
2675.0,0.0148
2674.0,0.0147
2673.0,0.0147
2672.0,0.0146
2671.0,0.0146
2670.0,0.0146
2669.0,0.0146
2668.0,0.0146
2667.0,0.0145
2666.0,0.0145
2665.0,0.0145
2664.0,0.0145
2663.0,0.0145
2662.0,0.0146
2661.0,0.0146
2660.0,0.0146
2659.0,0.0145
2658.0,0.0145
2657.0,0.0145
2656.0,0.0145
2655.0,0.0146
2654.0,0.0146
2653.0,0.0145
2652.0,0.0144
2651.0,0.0144
2650.0,0.0143
2649.0,0.0143
2648.0,0.0143
2647.0,0.0144
2646.0,0.0143
2645.0,0.0143
2644.0,0.0143
2643.0,0.0143
2642.0,0.0143
2641.0,0.0143
2640.0,0.0143
2639.0,0.0144
2638.0,0.0144
2637.0,0.0144
2636.0,0.0144
2635.0,0.0144
2634.0,0.0143
2633.0,0.0144
2632.0,0.0144
2631.0,0.0145
2630.0,0.0145
2629.0,0.0146
2628.0,0.0146
2627.0,0.0146
2626.0,0.0145
2625.0,0.0145
2624.0,0.0144
2623.0,0.0144
2622.0,0.0144
2621.0,0.0144
2620.0,0.0144
2619.0,0.0143
2618.0,0.0143
2617.0,0.0143
2616.0,0.0143
2615.0,0.0143
2614.0,0.0143
2613.0,0.0142
2612.0,0.0142
2611.0,0.0142
2610.0,0.0143
2609.0,0.0143
2608.0,0.0143
2607.0,0.0143
2606.0,0.0143
2605.0,0.0143
2604.0,0.0143
2603.0,0.0144
2602.0,0.0144
2601.0,0.0144
2600.0,0.0145
2599.0,0.0145
2598.0,0.0145
2597.0,0.0145
2596.0,0.0145
2595.0,0.0145
2594.0,0.0145
2593.0,0.0145
2592.0,0.0145
2591.0,0.0146
2590.0,0.0146
2589.0,0.0146
2588.0,0.0146
2587.0,0.0146
2586.0,0.0146
2585.0,0.0145
2584.0,0.0145
2583.0,0.0145
2582.0,0.0145
2581.0,0.0145
2580.0,0.0145
2579.0,0.0145
2578.0,0.0145
2577.0,0.0144
2576.0,0.0145
2575.0,0.0145
2574.0,0.0145
2573.0,0.0145
2572.0,0.0144
2571.0,0.0144
2570.0,0.0144
2569.0,0.0144
2568.0,0.0145
2567.0,0.0145
2566.0,0.0145
2565.0,0.0145
2564.0,0.0144
2563.0,0.0144
2562.0,0.0144
2561.0,0.0144
2560.0,0.0144
2559.0,0.0144
2558.0,0.0144
2557.0,0.0144
2556.0,0.0144
2555.0,0.0145
2554.0,0.0145
2553.0,0.0145
2552.0,0.0146
2551.0,0.0145
2550.0,0.0145
2549.0,0.0145
2548.0,0.0145
2547.0,0.0144
2546.0,0.0144
2545.0,0.0144
2544.0,0.0143
2543.0,0.0143
2542.0,0.0143
2541.0,0.0142
2540.0,0.0142
2539.0,0.0142
2538.0,0.0142
2537.0,0.0142
2536.0,0.0142
2535.0,0.0142
2534.0,0.0142
2533.0,0.0142
2532.0,0.0141
2531.0,0.0141
2530.0,0.0141
2529.0,0.0142
2528.0,0.0142
2527.0,0.0142
2526.0,0.0142
2525.0,0.0142
2524.0,0.0142
2523.0,0.0142
2522.0,0.0141
2521.0,0.0141
2520.0,0.014
2519.0,0.014
2518.0,0.0139
2517.0,0.0139
2516.0,0.0139
2515.0,0.0139
2514.0,0.0139
2513.0,0.0139
2512.0,0.0139
2511.0,0.0139
2510.0,0.0139
2509.0,0.0138
2508.0,0.0138
2507.0,0.0138
2506.0,0.0138
2505.0,0.0138
2504.0,0.0138
2503.0,0.0138
2502.0,0.0138
2501.0,0.0138
2500.0,0.0138
2499.0,0.0137
2498.0,0.0137
2497.0,0.0137
2496.0,0.0136
2495.0,0.0136
2494.0,0.0136
2493.0,0.0136
2492.0,0.0135
2491.0,0.0135
2490.0,0.0135
2489.0,0.0135
2488.0,0.0135
2487.0,0.0134
2486.0,0.0134
2485.0,0.0133
2484.0,0.0133
2483.0,0.0134
2482.0,0.0134
2481.0,0.0134
2480.0,0.0134
2479.0,0.0133
2478.0,0.0132
2477.0,0.0132
2476.0,0.0131
2475.0,0.0131
2474.0,0.0131
2473.0,0.0131
2472.0,0.013
2471.0,0.013
2470.0,0.013
2469.0,0.013
2468.0,0.0129
2467.0,0.0129
2466.0,0.0129
2465.0,0.0129
2464.0,0.0129
2463.0,0.0129
2462.0,0.0129
2461.0,0.0129
2460.0,0.0129
2459.0,0.0128
2458.0,0.0128
2457.0,0.0128
2456.0,0.0127
2455.0,0.0127
2454.0,0.0127
2453.0,0.0127
2452.0,0.0127
2451.0,0.0127
2450.0,0.0127
2449.0,0.0127
2448.0,0.0127
2447.0,0.0126
2446.0,0.0126
2445.0,0.0126
2444.0,0.0126
2443.0,0.0126
2442.0,0.0126
2441.0,0.0126
2440.0,0.0126
2439.0,0.0126
2438.0,0.0126
2437.0,0.0126
2436.0,0.0126
2435.0,0.0126
2434.0,0.0126
2433.0,0.0125
2432.0,0.0125
2431.0,0.0126
2430.0,0.0126
2429.0,0.0127
2428.0,0.0127
2427.0,0.0126
2426.0,0.0126
2425.0,0.0126
2424.0,0.0126
2423.0,0.0127
2422.0,0.0127
2421.0,0.0127
2420.0,0.0127
2419.0,0.0127
2418.0,0.0127
2417.0,0.0127
2416.0,0.0128
2415.0,0.0128
2414.0,0.0128
2413.0,0.0128
2412.0,0.0128
2411.0,0.0129
2410.0,0.0129
2409.0,0.0129
2408.0,0.0129
2407.0,0.0129
2406.0,0.0129
2405.0,0.0129
2404.0,0.0129
2403.0,0.0129
2402.0,0.013
2401.0,0.013
2400.0,0.0129
2399.0,0.0129
2398.0,0.0129
2397.0,0.0129
2396.0,0.0129
2395.0,0.0129
2394.0,0.0129
2393.0,0.013
2392.0,0.0129
2391.0,0.0129
2390.0,0.0127
2389.0,0.0125
2388.0,0.0121
2387.0,0.0117
2386.0,0.0112
2385.0,0.0106
2384.0,0.0099
2383.0,0.0093
2382.0,0.0088
2381.0,0.0084
2380.0,0.008
2379.0,0.0079
2378.0,0.008
2377.0,0.0082
2376.0,0.0085
2375.0,0.0087
2374.0,0.0088
2373.0,0.0088
2372.0,0.0087
2371.0,0.0086
2370.0,0.0082
2369.0,0.0077
2368.0,0.0074
2367.0,0.008
2366.0,0.0092
2365.0,0.0106
2364.0,0.0115
2363.0,0.0117
2362.0,0.0107
2361.0,0.009
2360.0,0.0072
2359.0,0.0057
2358.0,0.0048
2357.0,0.0048
2356.0,0.0057
2355.0,0.0064
2354.0,0.0064
2353.0,0.0062
2352.0,0.0061
2351.0,0.006
2350.0,0.0059
2349.0,0.0058
2348.0,0.0058
2347.0,0.0059
2346.0,0.0059
2345.0,0.0056
2344.0,0.0046
2343.0,0.0037
2342.0,0.0033
2341.0,0.0038
2340.0,0.0045
2339.0,0.0049
2338.0,0.005
2337.0,0.0046
2336.0,0.0041
2335.0,0.0036
2334.0,0.0033
2333.0,0.0033
2332.0,0.0038
2331.0,0.0045
2330.0,0.0052
2329.0,0.0053
2328.0,0.005
2327.0,0.0047
2326.0,0.0049
2325.0,0.0054
2324.0,0.0061
2323.0,0.0065
2322.0,0.0065
2321.0,0.0062
2320.0,0.006
2319.0,0.0059
2318.0,0.0059
2317.0,0.0057
2316.0,0.0053
2315.0,0.0048
2314.0,0.0043
2313.0,0.0038
2312.0,0.0035
2311.0,0.0033
2310.0,0.0034
2309.0,0.0037
2308.0,0.0043
2307.0,0.005
2306.0,0.0056
2305.0,0.0059
2304.0,0.006
2303.0,0.0061
2302.0,0.0062
2301.0,0.0063
2300.0,0.0066
2299.0,0.0069
2298.0,0.0071
2297.0,0.0074
2296.0,0.0077
2295.0,0.0081
2294.0,0.0084
2293.0,0.0087
2292.0,0.0091
2291.0,0.0094
2290.0,0.0097
2289.0,0.01
2288.0,0.0103
2287.0,0.0106
2286.0,0.0107
2285.0,0.0108
2284.0,0.0109
2283.0,0.0109
2282.0,0.0109
2281.0,0.0108
2280.0,0.0108
2279.0,0.0108
2278.0,0.0108
2277.0,0.0108
2276.0,0.0107
2275.0,0.0107
2274.0,0.0106
2273.0,0.0106
2272.0,0.0106
2271.0,0.0106
2270.0,0.0106
2269.0,0.0106
2268.0,0.0106
2267.0,0.0106
2266.0,0.0105
2265.0,0.0105
2264.0,0.0104
2263.0,0.0104
2262.0,0.0104
2261.0,0.0105
2260.0,0.0106
2259.0,0.0106
2258.0,0.0107
2257.0,0.0107
2256.0,0.0108
2255.0,0.0108
2254.0,0.0108
2253.0,0.0108
2252.0,0.0108
2251.0,0.0108
2250.0,0.0108
2249.0,0.0108
2248.0,0.0108
2247.0,0.0108
2246.0,0.0108
2245.0,0.0107
2244.0,0.0107
2243.0,0.0107
2242.0,0.0106
2241.0,0.0106
2240.0,0.0105
2239.0,0.0105
2238.0,0.0105
2237.0,0.0105
2236.0,0.0106
2235.0,0.0106
2234.0,0.0105
2233.0,0.0105
2232.0,0.0105
2231.0,0.0105
2230.0,0.0105
2229.0,0.0105
2228.0,0.0105
2227.0,0.0104
2226.0,0.0104
2225.0,0.0104
2224.0,0.0104
2223.0,0.0104
2222.0,0.0103
2221.0,0.0103
2220.0,0.0102
2219.0,0.0101
2218.0,0.0101
2217.0,0.0101
2216.0,0.0101
2215.0,0.01
2214.0,0.01
2213.0,0.01
2212.0,0.01
2211.0,0.01
2210.0,0.01
2209.0,0.01
2208.0,0.0099
2207.0,0.0099
2206.0,0.0099
2205.0,0.0098
2204.0,0.0098
2203.0,0.0098
2202.0,0.0098
2201.0,0.0097
2200.0,0.0097
2199.0,0.0097
2198.0,0.0097
2197.0,0.0096
2196.0,0.0096
2195.0,0.0096
2194.0,0.0096
2193.0,0.0096
2192.0,0.0095
2191.0,0.0095
2190.0,0.0095
2189.0,0.0095
2188.0,0.0095
2187.0,0.0095
2186.0,0.0094
2185.0,0.0094
2184.0,0.0093
2183.0,0.0093
2182.0,0.0093
2181.0,0.0093
2180.0,0.0093
2179.0,0.0093
2178.0,0.0093
2177.0,0.0093
2176.0,0.0092
2175.0,0.0092
2174.0,0.0092
2173.0,0.0092
2172.0,0.0092
2171.0,0.0092
2170.0,0.0093
2169.0,0.0093
2168.0,0.0094
2167.0,0.0094
2166.0,0.0094
2165.0,0.0094
2164.0,0.0094
2163.0,0.0094
2162.0,0.0094
2161.0,0.0094
2160.0,0.0094
2159.0,0.0094
2158.0,0.0094
2157.0,0.0094
2156.0,0.0093
2155.0,0.0093
2154.0,0.0094
2153.0,0.0094
2152.0,0.0094
2151.0,0.0095
2150.0,0.0095
2149.0,0.0095
2148.0,0.0095
2147.0,0.0095
2146.0,0.0095
2145.0,0.0095
2144.0,0.0095
2143.0,0.0095
2142.0,0.0095
2141.0,0.0095
2140.0,0.0096
2139.0,0.0096
2138.0,0.0096
2137.0,0.0096
2136.0,0.0096
2135.0,0.0095
2134.0,0.0095
2133.0,0.0095
2132.0,0.0096
2131.0,0.0096
2130.0,0.0096
2129.0,0.0096
2128.0,0.0096
2127.0,0.0097
2126.0,0.0097
2125.0,0.0097
2124.0,0.0097
2123.0,0.0097
2122.0,0.0097
2121.0,0.0096
2120.0,0.0096
2119.0,0.0097
2118.0,0.0097
2117.0,0.0098
2116.0,0.0099
2115.0,0.0099
2114.0,0.01
2113.0,0.01
2112.0,0.0099
2111.0,0.0099
2110.0,0.0099
2109.0,0.0098
2108.0,0.0098
2107.0,0.0098
2106.0,0.0098
2105.0,0.0098
2104.0,0.0098
2103.0,0.0097
2102.0,0.0097
2101.0,0.0097
2100.0,0.0096
2099.0,0.0096
2098.0,0.0095
2097.0,0.0095
2096.0,0.0095
2095.0,0.0095
2094.0,0.0095
2093.0,0.0095
2092.0,0.0095
2091.0,0.0095
2090.0,0.0094
2089.0,0.0094
2088.0,0.0093
2087.0,0.0092
2086.0,0.0092
2085.0,0.0092
2084.0,0.0092
2083.0,0.0092
2082.0,0.0091
2081.0,0.0091
2080.0,0.0091
2079.0,0.009
2078.0,0.0089
2077.0,0.0089
2076.0,0.0088
2075.0,0.0088
2074.0,0.0088
2073.0,0.0087
2072.0,0.0087
2071.0,0.0087
2070.0,0.0086
2069.0,0.0085
2068.0,0.0083
2067.0,0.0083
2066.0,0.0082
2065.0,0.0082
2064.0,0.0081
2063.0,0.0081
2062.0,0.0081
2061.0,0.008
2060.0,0.0079
2059.0,0.0078
2058.0,0.0077
2057.0,0.0076
2056.0,0.0075
2055.0,0.0075
2054.0,0.0075
2053.0,0.0074
2052.0,0.0074
2051.0,0.0073
2050.0,0.0073
2049.0,0.0072
2048.0,0.0072
2047.0,0.0071
2046.0,0.0071
2045.0,0.007
2044.0,0.007
2043.0,0.007
2042.0,0.007
2041.0,0.0069
2040.0,0.0069
2039.0,0.0068
2038.0,0.0068
2037.0,0.0067
2036.0,0.0067
2035.0,0.0067
2034.0,0.0067
2033.0,0.0067
2032.0,0.0068
2031.0,0.0068
2030.0,0.0068
2029.0,0.0067
2028.0,0.0066
2027.0,0.0066
2026.0,0.0066
2025.0,0.0066
2024.0,0.0066
2023.0,0.0066
2022.0,0.0066
2021.0,0.0065
2020.0,0.0065
2019.0,0.0065
2018.0,0.0065
2017.0,0.0065
2016.0,0.0065
2015.0,0.0065
2014.0,0.0065
2013.0,0.0065
2012.0,0.0065
2011.0,0.0065
2010.0,0.0065
2009.0,0.0065
2008.0,0.0066
2007.0,0.0066
2006.0,0.0066
2005.0,0.0066
2004.0,0.0066
2003.0,0.0066
2002.0,0.0067
2001.0,0.0067
2000.0,0.0068
1999.0,0.0068
1998.0,0.0068
1997.0,0.0069
1996.0,0.0069
1995.0,0.0069
1994.0,0.0069
1993.0,0.0069
1992.0,0.0069
1991.0,0.007
1990.0,0.0071
1989.0,0.0071
1988.0,0.0071
1987.0,0.0072
1986.0,0.0072
1985.0,0.0072
1984.0,0.0072
1983.0,0.0072
1982.0,0.0073
1981.0,0.0073
1980.0,0.0073
1979.0,0.0073
1978.0,0.0073
1977.0,0.0073
1976.0,0.0074
1975.0,0.0075
1974.0,0.0076
1973.0,0.0076
1972.0,0.0077
1971.0,0.0078
1970.0,0.0079
1969.0,0.008
1968.0,0.008
1967.0,0.0082
1966.0,0.0084
1965.0,0.0085
1964.0,0.0086
1963.0,0.0087
1962.0,0.0088
1961.0,0.0089
1960.0,0.009
1959.0,0.0091
1958.0,0.0092
1957.0,0.0093
1956.0,0.0093
1955.0,0.0094
1954.0,0.0094
1953.0,0.0093
1952.0,0.0092
1951.0,0.0091
1950.0,0.009
1949.0,0.0089
1948.0,0.0089
1947.0,0.0088
1946.0,0.0087
1945.0,0.0086
1944.0,0.0084
1943.0,0.0083
1942.0,0.0081
1941.0,0.0078
1940.0,0.0076
1939.0,0.0074
1938.0,0.0073
1937.0,0.0071
1936.0,0.0069
1935.0,0.0068
1934.0,0.0066
1933.0,0.0064
1932.0,0.0062
1931.0,0.0061
1930.0,0.0059
1929.0,0.0058
1928.0,0.0057
1927.0,0.0056
1926.0,0.0055
1925.0,0.0054
1924.0,0.0053
1923.0,0.0052
1922.0,0.0051
1921.0,0.0049
1920.0,0.0047
1919.0,0.0045
1918.0,0.0043
1917.0,0.0043
1916.0,0.0042
1915.0,0.0042
1914.0,0.0042
1913.0,0.0041
1912.0,0.0041
1911.0,0.004
1910.0,0.0039
1909.0,0.0037
1908.0,0.0036
1907.0,0.0036
1906.0,0.0035
1905.0,0.0034
1904.0,0.0033
1903.0,0.0033
1902.0,0.0032
1901.0,0.0031
1900.0,0.003
1899.0,0.0029
1898.0,0.0028
1897.0,0.0027
1896.0,0.0025
1895.0,0.0024
1894.0,0.0024
1893.0,0.0024
1892.0,0.0024
1891.0,0.0023
1890.0,0.0022
1889.0,0.0021
1888.0,0.002
1887.0,0.002
1886.0,0.0019
1885.0,0.0018
1884.0,0.0017
1883.0,0.0016
1882.0,0.0015
1881.0,0.0014
1880.0,0.0012
1879.0,0.0012
1878.0,0.0012
1877.0,0.0011
1876.0,0.0011
1875.0,0.0011
1874.0,0.0011
1873.0,0.001
1872.0,0.0009
1871.0,0.0009
1870.0,0.0009
1869.0,0.0008
1868.0,0.0008
1867.0,0.0008
1866.0,0.0008
1865.0,0.0007
1864.0,0.0006
1863.0,0.0005
1862.0,0.0005
1861.0,0.0004
1860.0,0.0004
1859.0,0.0004
1858.0,0.0004
1857.0,0.0004
1856.0,0.0004
1855.0,0.0004
1854.0,0.0005
1853.0,0.0005
1852.0,0.0006
1851.0,0.0006
1850.0,0.0007
1849.0,0.0007
1848.0,0.0007
1847.0,0.0007
1846.0,0.0006
1845.0,0.0005
1844.0,0.0004
1843.0,0.0006
1842.0,0.0009
1841.0,0.0011
1840.0,0.0012
1839.0,0.0013
1838.0,0.0014
1837.0,0.0014
1836.0,0.0015
1835.0,0.0015
1834.0,0.0016
1833.0,0.0017
1832.0,0.0018
1831.0,0.0019
1830.0,0.0021
1829.0,0.0021
1828.0,0.0021
1827.0,0.0022
1826.0,0.0022
1825.0,0.0021
1824.0,0.002
1823.0,0.002
1822.0,0.0021
1821.0,0.002
1820.0,0.002
1819.0,0.002
1818.0,0.002
1817.0,0.0019
1816.0,0.0017
1815.0,0.0017
1814.0,0.0017
1813.0,0.0016
1812.0,0.0015
1811.0,0.0015
1810.0,0.0014
1809.0,0.0012
1808.0,0.001
1807.0,0.0009
1806.0,0.0009
1805.0,0.0008
1804.0,0.0006
1803.0,0.0005
1802.0,0.0003
1801.0,0.0001
1800.0,-0.0
1799.0,-0.0001
1798.0,-0.0002
1797.0,-0.0004
1796.0,-0.0005
1795.0,-0.0006
1794.0,-0.0008
1793.0,-0.0011
1792.0,-0.0014
1791.0,-0.0014
1790.0,-0.0013
1789.0,-0.0013
1788.0,-0.0014
1787.0,-0.0015
1786.0,-0.0017
1785.0,-0.0019
1784.0,-0.002
1783.0,-0.0018
1782.0,-0.0017
1781.0,-0.0018
1780.0,-0.002
1779.0,-0.002
1778.0,-0.002
1777.0,-0.002
1776.0,-0.0021
1775.0,-0.002
1774.0,-0.002
1773.0,-0.0023
1772.0,-0.0025
1771.0,-0.0024
1770.0,-0.0023
1769.0,-0.0025
1768.0,-0.0025
1767.0,-0.0022
1766.0,-0.0017
1765.0,-0.0014
1764.0,-0.0012
1763.0,-0.0009
1762.0,-0.0004
1761.0,0.0
1760.0,0.0006
1759.0,0.0014
1758.0,0.0024
1757.0,0.0034
1756.0,0.0045
1755.0,0.006
1754.0,0.0075
1753.0,0.009
1752.0,0.011
1751.0,0.0143
1750.0,0.0185
1749.0,0.0231
1748.0,0.0281
1747.0,0.0338
1746.0,0.0401
1745.0,0.0473
1744.0,0.0557
1743.0,0.065
1742.0,0.0748
1741.0,0.0857
1740.0,0.0989
1739.0,0.1127
1738.0,0.1237
1737.0,0.132
1736.0,0.1411
1735.0,0.1576
1734.0,0.1818
1733.0,0.2024
1732.0,0.2174
1731.0,0.2328
1730.0,0.251
1729.0,0.2704
1728.0,0.2892
1727.0,0.308
1726.0,0.3281
1725.0,0.3503
1724.0,0.375
1723.0,0.4007
1722.0,0.4238
1721.0,0.4423
1720.0,0.4591
1719.0,0.4821
1718.0,0.5153
1717.0,0.5431
1716.0,0.5519
1715.0,0.5474
1714.0,0.5341
1713.0,0.5113
1712.0,0.4808
1711.0,0.4461
1710.0,0.4105
1709.0,0.3764
1708.0,0.3438
1707.0,0.3109
1706.0,0.2783
1705.0,0.2513
1704.0,0.2325
1703.0,0.2181
1702.0,0.2035
1701.0,0.1859
1700.0,0.1692
1699.0,0.1585
1698.0,0.1515
1697.0,0.1444
1696.0,0.1364
1695.0,0.1293
1694.0,0.1246
1693.0,0.1211
1692.0,0.1178
1691.0,0.114
1690.0,0.1103
1689.0,0.1075
1688.0,0.1053
1687.0,0.1029
1686.0,0.1001
1685.0,0.0973
1684.0,0.0953
1683.0,0.0933
1682.0,0.0913
1681.0,0.0893
1680.0,0.0873
1679.0,0.085
1678.0,0.0827
1677.0,0.0803
1676.0,0.078
1675.0,0.0758
1674.0,0.074
1673.0,0.0727
1672.0,0.0713
1671.0,0.0695
1670.0,0.0674
1669.0,0.0657
1668.0,0.0642
1667.0,0.0628
1666.0,0.0613
1665.0,0.0597
1664.0,0.058
1663.0,0.0562
1662.0,0.0546
1661.0,0.0535
1660.0,0.0524
1659.0,0.0513
1658.0,0.0503
1657.0,0.0494
1656.0,0.0485
1655.0,0.0472
1654.0,0.0459
1653.0,0.0452
1652.0,0.0447
1651.0,0.0444
1650.0,0.0441
1649.0,0.0436
1648.0,0.0428
1647.0,0.0419
1646.0,0.0412
1645.0,0.0407
1644.0,0.0404
1643.0,0.0399
1642.0,0.0395
1641.0,0.0392
1640.0,0.0389
1639.0,0.0385
1638.0,0.0378
1637.0,0.0372
1636.0,0.0369
1635.0,0.0365
1634.0,0.0361
1633.0,0.0359
1632.0,0.0356
1631.0,0.0352
1630.0,0.0347
1629.0,0.0345
1628.0,0.0342
1627.0,0.0339
1626.0,0.0335
1625.0,0.0331
1624.0,0.0329
1623.0,0.0327
1622.0,0.0326
1621.0,0.0327
1620.0,0.0326
1619.0,0.0325
1618.0,0.0327
1617.0,0.0335
1616.0,0.0345
1615.0,0.0349
1614.0,0.0349
1613.0,0.0347
1612.0,0.0343
1611.0,0.0337
1610.0,0.033
1609.0,0.0323
1608.0,0.0316
1607.0,0.0308
1606.0,0.0299
1605.0,0.0291
1604.0,0.0283
1603.0,0.0275
1602.0,0.0267
1601.0,0.0261
1600.0,0.0255
1599.0,0.025
1598.0,0.0245
1597.0,0.0242
1596.0,0.0239
1595.0,0.0237
1594.0,0.0234
1593.0,0.0233
1592.0,0.0233
1591.0,0.0232
1590.0,0.0232
1589.0,0.0233
1588.0,0.0235
1587.0,0.0238
1586.0,0.0243
1585.0,0.0252
1584.0,0.0264
1583.0,0.028
1582.0,0.0298
1581.0,0.0317
1580.0,0.0332
1579.0,0.0341
1578.0,0.0342
1577.0,0.0334
1576.0,0.032
1575.0,0.0306
1574.0,0.0294
1573.0,0.0283
1572.0,0.0272
1571.0,0.0258
1570.0,0.0244
1569.0,0.0233
1568.0,0.0226
1567.0,0.0221
1566.0,0.0215
1565.0,0.0211
1564.0,0.0207
1563.0,0.0203
1562.0,0.0198
1561.0,0.019
1560.0,0.0185
1559.0,0.0183
1558.0,0.0182
1557.0,0.0179
1556.0,0.0177
1555.0,0.0174
1554.0,0.0172
1553.0,0.0171
1552.0,0.0171
1551.0,0.0169
1550.0,0.0166
1549.0,0.0164
1548.0,0.0161
1547.0,0.0158
1546.0,0.0155
1545.0,0.0153
1544.0,0.0151
1543.0,0.0149
1542.0,0.0146
1541.0,0.0146
1540.0,0.0149
1539.0,0.0146
1538.0,0.0143
1537.0,0.0143
1536.0,0.0143
1535.0,0.0143
1534.0,0.0144
1533.0,0.0148
1532.0,0.0151
1531.0,0.0152
1530.0,0.0153
1529.0,0.0153
1528.0,0.0152
1527.0,0.0151
1526.0,0.015
1525.0,0.015
1524.0,0.0149
1523.0,0.0145
1522.0,0.0139
1521.0,0.0137
1520.0,0.0136
1519.0,0.0136
1518.0,0.0135
1517.0,0.0134
1516.0,0.0133
1515.0,0.0132
1514.0,0.0135
1513.0,0.0142
1512.0,0.0156
1511.0,0.0174
1510.0,0.0196
1509.0,0.0229
1508.0,0.0295
1507.0,0.0395
1506.0,0.0454
1505.0,0.0453
1504.0,0.0427
1503.0,0.0386
1502.0,0.0339
1501.0,0.0291
1500.0,0.0247
1499.0,0.021
1498.0,0.0178
1497.0,0.0154
1496.0,0.0139
1495.0,0.0129
1494.0,0.0123
1493.0,0.0121
1492.0,0.012
1491.0,0.0121
1490.0,0.0124
1489.0,0.0131
1488.0,0.014
1487.0,0.0148
1486.0,0.0158
1485.0,0.017
1484.0,0.0183
1483.0,0.0197
1482.0,0.0213
1481.0,0.0231
1480.0,0.0247
1479.0,0.026
1478.0,0.0272
1477.0,0.0286
1476.0,0.0299
1475.0,0.0308
1474.0,0.0313
1473.0,0.0319
1472.0,0.0322
1471.0,0.0321
1470.0,0.0317
1469.0,0.0314
1468.0,0.0312
1467.0,0.0311
1466.0,0.0313
1465.0,0.032
1464.0,0.0331
1463.0,0.034
1462.0,0.0349
1461.0,0.0357
1460.0,0.0363
1459.0,0.0367
1458.0,0.0372
1457.0,0.0383
1456.0,0.0393
1455.0,0.0397
1454.0,0.0398
1453.0,0.0395
1452.0,0.039
1451.0,0.0382
1450.0,0.0374
1449.0,0.0365
1448.0,0.0356
1447.0,0.0349
1446.0,0.0343
1445.0,0.0338
1444.0,0.0333
1443.0,0.0328
1442.0,0.0324
1441.0,0.0319
1440.0,0.0312
1439.0,0.0303
1438.0,0.0288
1437.0,0.0271
1436.0,0.0255
1435.0,0.0242
1434.0,0.023
1433.0,0.0217
1432.0,0.0201
1431.0,0.0184
1430.0,0.0168
1429.0,0.0155
1428.0,0.0145
1427.0,0.0139
1426.0,0.0136
1425.0,0.0134
1424.0,0.0136
1423.0,0.0141
1422.0,0.0148
1421.0,0.016
1420.0,0.0188
1419.0,0.0237
1418.0,0.0302
1417.0,0.0375
1416.0,0.0459
1415.0,0.0559
1414.0,0.0678
1413.0,0.0815
1412.0,0.096
1411.0,0.109
1410.0,0.1183
1409.0,0.123
1408.0,0.1229
1407.0,0.1179
1406.0,0.1088
1405.0,0.0977
1404.0,0.087
1403.0,0.078
1402.0,0.0707
1401.0,0.0643
1400.0,0.0581
1399.0,0.0524
1398.0,0.048
1397.0,0.0446
1396.0,0.0417
1395.0,0.0389
1394.0,0.0366
1393.0,0.035
1392.0,0.0339
1391.0,0.0329
1390.0,0.0321
1389.0,0.0314
1388.0,0.031
1387.0,0.0309
1386.0,0.031
1385.0,0.0312
1384.0,0.0316
1383.0,0.0319
1382.0,0.0323
1381.0,0.0327
1380.0,0.0333
1379.0,0.0339
1378.0,0.0345
1377.0,0.0353
1376.0,0.0362
1375.0,0.0371
1374.0,0.038
1373.0,0.0387
1372.0,0.039
1371.0,0.0388
1370.0,0.0382
1369.0,0.0372
1368.0,0.0357
1367.0,0.0338
1366.0,0.0317
1365.0,0.0295
1364.0,0.0272
1363.0,0.0248
1362.0,0.0229
1361.0,0.0215
1360.0,0.0208
1359.0,0.0204
1358.0,0.0203
1357.0,0.0205
1356.0,0.0211
1355.0,0.0221
1354.0,0.0235
1353.0,0.0254
1352.0,0.0279
1351.0,0.0311
1350.0,0.0352
1349.0,0.0405
1348.0,0.047
1347.0,0.055
1346.0,0.0646
1345.0,0.0759
1344.0,0.0882
1343.0,0.1008
1342.0,0.113
1341.0,0.1241
1340.0,0.1327
1339.0,0.1364
1338.0,0.1343
1337.0,0.1272
1336.0,0.1165
1335.0,0.1035
1334.0,0.0894
1333.0,0.0754
1332.0,0.0627
1331.0,0.052
1330.0,0.0436
1329.0,0.0373
1328.0,0.0329
1327.0,0.0301
1326.0,0.0284
1325.0,0.0276
1324.0,0.0274
1323.0,0.0277
1322.0,0.0284
1321.0,0.0293
1320.0,0.0305
1319.0,0.0318
1318.0,0.0332
1317.0,0.0347
1316.0,0.0363
1315.0,0.0381
1314.0,0.0401
1313.0,0.0424
1312.0,0.0448
1311.0,0.0474
1310.0,0.0501
1309.0,0.0529
1308.0,0.0558
1307.0,0.0586
1306.0,0.0613
1305.0,0.064
1304.0,0.0668
1303.0,0.0699
1302.0,0.0735
1301.0,0.0778
1300.0,0.0826
1299.0,0.088
1298.0,0.0937
1297.0,0.0998
1296.0,0.106
1295.0,0.1122
1294.0,0.1183
1293.0,0.1244
1292.0,0.1304
1291.0,0.1363
1290.0,0.1419
1289.0,0.1475
1288.0,0.153
1287.0,0.1582
1286.0,0.1631
1285.0,0.1679
1284.0,0.1726
1283.0,0.1772
1282.0,0.1817
1281.0,0.1864
1280.0,0.1913
1279.0,0.1965
1278.0,0.202
1277.0,0.2081
1276.0,0.2152
1275.0,0.2232
1274.0,0.2322
1273.0,0.2427
1272.0,0.255
1271.0,0.2686
1270.0,0.2834
1269.0,0.2994
1268.0,0.3163
1267.0,0.3337
1266.0,0.3511
1265.0,0.3683
1264.0,0.385
1263.0,0.4003
1262.0,0.4137
1261.0,0.4255
1260.0,0.4357
1259.0,0.4439
1258.0,0.4504
1257.0,0.4568
1256.0,0.464
1255.0,0.4723
1254.0,0.4818
1253.0,0.4934
1252.0,0.5073
1251.0,0.5226
1250.0,0.5388
1249.0,0.5559
1248.0,0.5732
1247.0,0.5887
1246.0,0.6012
1245.0,0.6106
1244.0,0.6162
1243.0,0.6162
1242.0,0.6099
1241.0,0.5983
1240.0,0.5821
1239.0,0.5614
1238.0,0.5375
1237.0,0.5123
1236.0,0.4869
1235.0,0.4616
1234.0,0.437
1233.0,0.414
1232.0,0.3929
1231.0,0.3732
1230.0,0.3549
1229.0,0.3382
1228.0,0.323
1227.0,0.3086
1226.0,0.2951
1225.0,0.2825
1224.0,0.2707
1223.0,0.2594
1222.0,0.2484
1221.0,0.2379
1220.0,0.2277
1219.0,0.2178
1218.0,0.208
1217.0,0.1987
1216.0,0.1899
1215.0,0.1816
1214.0,0.1737
1213.0,0.1664
1212.0,0.1598
1211.0,0.1536
1210.0,0.1478
1209.0,0.1425
1208.0,0.1375
1207.0,0.1327
1206.0,0.1281
1205.0,0.1238
1204.0,0.1198
1203.0,0.1159
1202.0,0.1122
1201.0,0.1086
1200.0,0.1052
1199.0,0.1019
1198.0,0.0986
1197.0,0.0956
1196.0,0.0927
1195.0,0.09
1194.0,0.0873
1193.0,0.0848
1192.0,0.0825
1191.0,0.0804
1190.0,0.0784
1189.0,0.0767
1188.0,0.0753
1187.0,0.0741
1186.0,0.0733
1185.0,0.0728
1184.0,0.0728
1183.0,0.0731
1182.0,0.0738
1181.0,0.0748
1180.0,0.076
1179.0,0.0774
1178.0,0.0787
1177.0,0.0799
1176.0,0.0807
1175.0,0.0809
1174.0,0.0806
1173.0,0.0796
1172.0,0.0779
1171.0,0.0755
1170.0,0.0727
1169.0,0.0699
1168.0,0.0671
1167.0,0.0648
1166.0,0.0629
1165.0,0.0615
1164.0,0.0606
1163.0,0.06
1162.0,0.0597
1161.0,0.0596
1160.0,0.0596
1159.0,0.0597
1158.0,0.0601
1157.0,0.0607
1156.0,0.0616
1155.0,0.0628
1154.0,0.0643
1153.0,0.0661
1152.0,0.0682
1151.0,0.0706
1150.0,0.0733
1149.0,0.0765
1148.0,0.0799
1147.0,0.0837
1146.0,0.0879
1145.0,0.0924
1144.0,0.0973
1143.0,0.1025
1142.0,0.1081
1141.0,0.1142
1140.0,0.1208
1139.0,0.1278
1138.0,0.1353
1137.0,0.1434
1136.0,0.1524
1135.0,0.1623
1134.0,0.1729
1133.0,0.1845
1132.0,0.1969
1131.0,0.2099
1130.0,0.2233
1129.0,0.2371
1128.0,0.2513
1127.0,0.2656
1126.0,0.2799
1125.0,0.2941
1124.0,0.3082
1123.0,0.3215
1122.0,0.3336
1121.0,0.3444
1120.0,0.3536
1119.0,0.3602
1118.0,0.3638
1117.0,0.3644
1116.0,0.3625
1115.0,0.3586
1114.0,0.3542
1113.0,0.3513
1112.0,0.3512
1111.0,0.3547
1110.0,0.3619
1109.0,0.3731
1108.0,0.3876
1107.0,0.4042
1106.0,0.4218
1105.0,0.44
1104.0,0.4579
1103.0,0.4743
1102.0,0.4883
1101.0,0.5003
1100.0,0.51
1099.0,0.5164
1098.0,0.5192
1097.0,0.5191
1096.0,0.5162
1095.0,0.5099
1094.0,0.5006
1093.0,0.4894
1092.0,0.4772
1091.0,0.4637
1090.0,0.4495
1089.0,0.4354
1088.0,0.4219
1087.0,0.4085
1086.0,0.3952
1085.0,0.3823
1084.0,0.3695
1083.0,0.3562
1082.0,0.3422
1081.0,0.3278
1080.0,0.3132
1079.0,0.2982
1078.0,0.2832
1077.0,0.2686
1076.0,0.2549
1075.0,0.2418
1074.0,0.2296
1073.0,0.2185
1072.0,0.2085
1071.0,0.1992
1070.0,0.1907
1069.0,0.1831
1068.0,0.1763
1067.0,0.1702
1066.0,0.1646
1065.0,0.1595
1064.0,0.1549
1063.0,0.1506
1062.0,0.1466
1061.0,0.143
1060.0,0.14
1059.0,0.1374
1058.0,0.1352
1057.0,0.1337
1056.0,0.1327
1055.0,0.1321
1054.0,0.1318
1053.0,0.1317
1052.0,0.1321
1051.0,0.1326
1050.0,0.1333
1049.0,0.134
1048.0,0.1348
1047.0,0.1353
1046.0,0.1356
1045.0,0.1357
1044.0,0.1356
1043.0,0.135
1042.0,0.1339
1041.0,0.1325
1040.0,0.1307
1039.0,0.1286
1038.0,0.1263
1037.0,0.124
1036.0,0.1217
1035.0,0.1194
1034.0,0.117
1033.0,0.1148
1032.0,0.113
1031.0,0.1115
1030.0,0.111
1029.0,0.112
1028.0,0.1155
1027.0,0.1224
1026.0,0.1332
1025.0,0.1483
1024.0,0.1676
1023.0,0.19
1022.0,0.2149
1021.0,0.2412
1020.0,0.2667
1019.0,0.2876
1018.0,0.2994
1017.0,0.2989
1016.0,0.2861
1015.0,0.264
1014.0,0.2379
1013.0,0.2126
1012.0,0.1907
1011.0,0.173
1010.0,0.159
1009.0,0.148
1008.0,0.1394
1007.0,0.1325
1006.0,0.1268
1005.0,0.1223
1004.0,0.1186
1003.0,0.1155
1002.0,0.1128
1001.0,0.1104
1000.0,0.1082
999.0,0.1062
998.0,0.1044
997.0,0.1028
996.0,0.1014
995.0,0.1001
994.0,0.099
993.0,0.0982
992.0,0.0976
991.0,0.0973
990.0,0.0971
989.0,0.097
988.0,0.097
987.0,0.0972
986.0,0.0976
985.0,0.0983
984.0,0.0993
983.0,0.1006
982.0,0.1022
981.0,0.1041
980.0,0.1063
979.0,0.1087
978.0,0.1111
977.0,0.1136
976.0,0.1159
975.0,0.1179
974.0,0.1194
973.0,0.1203
972.0,0.1207
971.0,0.1203
970.0,0.1192
969.0,0.1176
968.0,0.1156
967.0,0.1132
966.0,0.1106
965.0,0.1078
964.0,0.1049
963.0,0.1021
962.0,0.0994
961.0,0.097
960.0,0.0947
959.0,0.0925
958.0,0.0904
957.0,0.0884
956.0,0.0865
955.0,0.0848
954.0,0.0832
953.0,0.0817
952.0,0.0805
951.0,0.0793
950.0,0.0782
949.0,0.0773
948.0,0.0763
947.0,0.0754
946.0,0.0745
945.0,0.0737
944.0,0.073
943.0,0.0722
942.0,0.0716
941.0,0.0711
940.0,0.0706
939.0,0.0701
938.0,0.0696
937.0,0.069
936.0,0.0685
935.0,0.068
934.0,0.0675
933.0,0.067
932.0,0.0666
931.0,0.066
930.0,0.0655
929.0,0.0649
928.0,0.0644
927.0,0.0638
926.0,0.0632
925.0,0.0627
924.0,0.0623
923.0,0.0618
922.0,0.0613
921.0,0.0609
920.0,0.0605
919.0,0.0602
918.0,0.0599
917.0,0.0597
916.0,0.0595
915.0,0.0595
914.0,0.0596
913.0,0.0598
912.0,0.0602
911.0,0.0607
910.0,0.0613
909.0,0.0622
908.0,0.0633
907.0,0.0646
906.0,0.0659
905.0,0.0672
904.0,0.0685
903.0,0.0697
902.0,0.0707
901.0,0.0716
900.0,0.0724
899.0,0.0729
898.0,0.0731
897.0,0.0732
896.0,0.073
895.0,0.0726
894.0,0.072
893.0,0.0715
892.0,0.0712
891.0,0.071
890.0,0.0709
889.0,0.0712
888.0,0.0721
887.0,0.0736
886.0,0.0759
885.0,0.0793
884.0,0.0838
883.0,0.0896
882.0,0.0966
881.0,0.1048
880.0,0.1139
879.0,0.1238
878.0,0.1345
877.0,0.1461
876.0,0.1589
875.0,0.1719
874.0,0.1832
873.0,0.1896
872.0,0.1886
871.0,0.18
870.0,0.1667
869.0,0.1523
868.0,0.1395
867.0,0.1291
866.0,0.1211
865.0,0.1152
864.0,0.1109
863.0,0.1078
862.0,0.1055
861.0,0.1039
860.0,0.1028
859.0,0.1021
858.0,0.1016
857.0,0.1016
856.0,0.1019
855.0,0.1025
854.0,0.1033
853.0,0.1045
852.0,0.1061
851.0,0.108
850.0,0.1098
849.0,0.1113
848.0,0.1122
847.0,0.1122
846.0,0.1113
845.0,0.1098
844.0,0.108
843.0,0.106
842.0,0.1037
841.0,0.1013
840.0,0.099
839.0,0.0968
838.0,0.0947
837.0,0.0928
836.0,0.0909
835.0,0.0888
834.0,0.0865
833.0,0.0843
832.0,0.0823
831.0,0.0805
830.0,0.0789
829.0,0.0775
828.0,0.0763
827.0,0.0752
826.0,0.074
825.0,0.0729
824.0,0.0719
823.0,0.0709
822.0,0.07
821.0,0.0693
820.0,0.0688
819.0,0.0683
818.0,0.0679
817.0,0.0676
816.0,0.0674
815.0,0.0672
814.0,0.0668
813.0,0.0664
812.0,0.0661
811.0,0.0656
810.0,0.065
809.0,0.0646
808.0,0.0643
807.0,0.0639
806.0,0.0634
805.0,0.0627
804.0,0.062
803.0,0.0611
802.0,0.0603
801.0,0.0598
800.0,0.0599
799.0,0.0607
798.0,0.0626
797.0,0.0658
796.0,0.0696
795.0,0.0732
794.0,0.0757
793.0,0.0764
792.0,0.0755
791.0,0.0732
790.0,0.0702
789.0,0.0672
788.0,0.0644
787.0,0.0619
786.0,0.0594
785.0,0.0573
784.0,0.0554
783.0,0.0538
782.0,0.0523
781.0,0.051
780.0,0.0498
779.0,0.0487
778.0,0.0474
777.0,0.0462
776.0,0.045
775.0,0.044
774.0,0.0429
773.0,0.042
772.0,0.0409
771.0,0.0398
770.0,0.0386
769.0,0.0375
768.0,0.0365
767.0,0.0354
766.0,0.0343
765.0,0.0333
764.0,0.0324
763.0,0.0316
762.0,0.0308
761.0,0.0298
760.0,0.0288
759.0,0.0279
758.0,0.0271
757.0,0.0266
756.0,0.0262
755.0,0.0257
754.0,0.0252
753.0,0.0247
752.0,0.0243
751.0,0.024
750.0,0.024
749.0,0.0245
748.0,0.0253
747.0,0.0264
746.0,0.0277
745.0,0.0296
744.0,0.0324
743.0,0.0362
742.0,0.0419
741.0,0.0502
740.0,0.0619
739.0,0.077
738.0,0.0952
737.0,0.1164
736.0,0.1402
735.0,0.1657
734.0,0.1924
733.0,0.2204
732.0,0.25
731.0,0.2811
730.0,0.3142
729.0,0.3502
728.0,0.3889
727.0,0.4272
726.0,0.4596
725.0,0.4812
724.0,0.4891
723.0,0.4838
722.0,0.4692
721.0,0.4506
720.0,0.4311
719.0,0.4105
718.0,0.3886
717.0,0.3661
716.0,0.344
715.0,0.3227
714.0,0.3032
713.0,0.286
712.0,0.2713
711.0,0.2583
710.0,0.2468
709.0,0.2365
708.0,0.2271
707.0,0.2181
706.0,0.2094
705.0,0.2014
704.0,0.1943
703.0,0.1876
702.0,0.1805
701.0,0.1729
700.0,0.165
699.0,0.1572
698.0,0.1498
697.0,0.143
696.0,0.137
695.0,0.1318
694.0,0.1277
693.0,0.1246
692.0,0.1226
691.0,0.1209
690.0,0.1192
689.0,0.1171
688.0,0.1148
687.0,0.1125
686.0,0.1107
685.0,0.1093
684.0,0.1084
683.0,0.1081
682.0,0.1084
681.0,0.1088
680.0,0.1085
679.0,0.1069
678.0,0.1042
677.0,0.1013
676.0,0.0986
675.0,0.0965
674.0,0.0948
673.0,0.0933
672.0,0.0921
671.0,0.0919
670.0,0.0934
669.0,0.0973
668.0,0.1017
667.0,0.1006
666.0,0.0945
665.0,0.0887
664.0,0.0849
663.0,0.0825
662.0,0.0812
661.0,0.081
660.0,0.0816
659.0,0.0821
658.0,0.0821
657.0,0.0816
656.0,0.0808
655.0,0.0795
654.0,0.0777
653.0,0.0761
652.0,0.0753
651.0,0.0751
650.0,0.0753
649.0,0.0755
648.0,0.0753
647.0,0.0746
646.0,0.0734
645.0,0.072
644.0,0.0708
643.0,0.0703
642.0,0.0704
641.0,0.0711
640.0,0.0718
639.0,0.072
638.0,0.0719
637.0,0.0723
636.0,0.0735
635.0,0.0756
634.0,0.078
633.0,0.08
632.0,0.0802
631.0,0.0785
630.0,0.0756
629.0,0.0732
628.0,0.0717
627.0,0.0709
626.0,0.0707
625.0,0.0708
624.0,0.0711
623.0,0.0711
622.0,0.0709
621.0,0.0706
620.0,0.0701
619.0,0.0691
618.0,0.0677
617.0,0.0669
616.0,0.0666
615.0,0.0665
614.0,0.0664
613.0,0.0667
612.0,0.0675
611.0,0.0683
610.0,0.0684
609.0,0.0682
608.0,0.0678
607.0,0.0672
606.0,0.0661
605.0,0.0647
604.0,0.0634
603.0,0.0623
602.0,0.062
601.0,0.0626
600.0,0.0634
