cm-1,A
4000.0,-0.0001
3999.0,-0.0001
3998.0,-0.0002
3997.0,-0.0002
3996.0,-0.0002
3995.0,-0.0001
3994.0,-0.0
3993.0,0.0
3992.0,0.0
3991.0,0.0
3990.0,-0.0
3989.0,0.0
3988.0,0.0
3987.0,0.0
3986.0,-0.0
3985.0,-0.0
3984.0,-0.0001
3983.0,-0.0
3982.0,-0.0
3981.0,0.0
3980.0,0.0
3979.0,-0.0
3978.0,-0.0
3977.0,-0.0
3976.0,-0.0
3975.0,-0.0
3974.0,-0.0
3973.0,0.0
3972.0,0.0
3971.0,0.0
3970.0,-0.0
3969.0,-0.0001
3968.0,-0.0001
3967.0,-0.0002
3966.0,-0.0003
3965.0,-0.0003
3964.0,-0.0002
3963.0,-0.0001
3962.0,0.0
3961.0,0.0001
3960.0,0.0002
3959.0,0.0001
3958.0,0.0001
3957.0,-0.0
3956.0,-0.0001
3955.0,-0.0002
3954.0,-0.0001
3953.0,-0.0001
3952.0,0.0
3951.0,0.0001
3950.0,0.0001
3949.0,0.0001
3948.0,0.0001
3947.0,0.0
3946.0,0.0
3945.0,0.0
3944.0,0.0001
3943.0,0.0002
3942.0,0.0002
3941.0,0.0002
3940.0,0.0001
3939.0,0.0
3938.0,-0.0001
3937.0,-0.0001
3936.0,-0.0001
3935.0,0.0
3934.0,0.0001
3933.0,0.0002
3932.0,0.0001
3931.0,0.0001
3930.0,0.0
3929.0,-0.0
3928.0,0.0
3927.0,0.0001
3926.0,0.0001
3925.0,0.0002
3924.0,0.0003
3923.0,0.0003
3922.0,0.0003
3921.0,0.0003
3920.0,0.0002
3919.0,0.0002
3918.0,0.0001
3917.0,0.0001
3916.0,0.0001
3915.0,0.0001
3914.0,0.0
3913.0,0.0
3912.0,-0.0
3911.0,-0.0
3910.0,0.0
3909.0,0.0001
3908.0,0.0002
3907.0,0.0003
3906.0,0.0004
3905.0,0.0004
3904.0,0.0004
3903.0,0.0003
3902.0,0.0003
3901.0,0.0004
3900.0,0.0004
3899.0,0.0003
3898.0,0.0002
3897.0,0.0001
3896.0,-0.0
3895.0,-0.0
3894.0,-0.0
3893.0,0.0
3892.0,0.0001
3891.0,0.0002
3890.0,0.0002
3889.0,0.0003
3888.0,0.0004
3887.0,0.0005
3886.0,0.0005
3885.0,0.0004
3884.0,0.0004
3883.0,0.0005
3882.0,0.0006
3881.0,0.0007
3880.0,0.0006
3879.0,0.0005
3878.0,0.0004
3877.0,0.0004
3876.0,0.0004
3875.0,0.0004
3874.0,0.0004
3873.0,0.0004
3872.0,0.0004
3871.0,0.0005
3870.0,0.0005
3869.0,0.0004
3868.0,0.0004
3867.0,0.0004
3866.0,0.0003
3865.0,0.0003
3864.0,0.0003
3863.0,0.0003
3862.0,0.0003
3861.0,0.0003
3860.0,0.0003
3859.0,0.0003
3858.0,0.0002
3857.0,0.0002
3856.0,0.0002
3855.0,0.0003
3854.0,0.0003
3853.0,0.0002
3852.0,0.0002
3851.0,0.0002
3850.0,0.0002
3849.0,0.0002
3848.0,0.0002
3847.0,0.0002
3846.0,0.0002
3845.0,0.0002
3844.0,0.0003
3843.0,0.0004
3842.0,0.0004
3841.0,0.0004
3840.0,0.0003
3839.0,0.0003
3838.0,0.0004
3837.0,0.0004
3836.0,0.0005
3835.0,0.0005
3834.0,0.0005
3833.0,0.0005
3832.0,0.0004
3831.0,0.0004
3830.0,0.0004
3829.0,0.0005
3828.0,0.0005
3827.0,0.0006
3826.0,0.0006
3825.0,0.0005
3824.0,0.0006
3823.0,0.0007
3822.0,0.0007
3821.0,0.0006
3820.0,0.0003
3819.0,0.0001
3818.0,-0.0
3817.0,0.0
3816.0,0.0001
3815.0,0.0003
3814.0,0.0004
3813.0,0.0005
3812.0,0.0005
3811.0,0.0004
3810.0,0.0004
3809.0,0.0004
3808.0,0.0004
3807.0,0.0004
3806.0,0.0004
3805.0,0.0005
3804.0,0.0006
3803.0,0.0007
3802.0,0.0007
3801.0,0.0005
3800.0,0.0004
3799.0,0.0004
3798.0,0.0003
3797.0,0.0003
3796.0,0.0003
3795.0,0.0003
3794.0,0.0003
3793.0,0.0003
3792.0,0.0003
3791.0,0.0003
3790.0,0.0002
3789.0,0.0002
3788.0,0.0002
3787.0,0.0003
3786.0,0.0003
3785.0,0.0004
3784.0,0.0005
3783.0,0.0006
3782.0,0.0006
3781.0,0.0006
3780.0,0.0005
3779.0,0.0004
3778.0,0.0003
3777.0,0.0003
3776.0,0.0003
3775.0,0.0003
3774.0,0.0003
3773.0,0.0004
3772.0,0.0004
3771.0,0.0005
3770.0,0.0005
3769.0,0.0005
3768.0,0.0005
3767.0,0.0005
3766.0,0.0005
3765.0,0.0005
3764.0,0.0005
3763.0,0.0005
3762.0,0.0006
3761.0,0.0008
3760.0,0.0009
3759.0,0.001
3758.0,0.0009
3757.0,0.0008
3756.0,0.0007
3755.0,0.0005
3754.0,0.0004
3753.0,0.0003
3752.0,0.0003
3751.0,0.0003
3750.0,0.0003
3749.0,0.0004
3748.0,0.0005
3747.0,0.0006
3746.0,0.0007
3745.0,0.0006
3744.0,0.0005
3743.0,0.0005
3742.0,0.0005
3741.0,0.0006
3740.0,0.0007
3739.0,0.0007
3738.0,0.0007
3737.0,0.0006
3736.0,0.0004
3735.0,0.0004
3734.0,0.0005
3733.0,0.0005
3732.0,0.0005
3731.0,0.0005
3730.0,0.0004
3729.0,0.0004
3728.0,0.0005
3727.0,0.0005
3726.0,0.0006
3725.0,0.0007
3724.0,0.0008
3723.0,0.0007
3722.0,0.0005
3721.0,0.0004
3720.0,0.0003
3719.0,0.0003
3718.0,0.0002
3717.0,0.0002
3716.0,0.0003
3715.0,0.0003
3714.0,0.0004
3713.0,0.0004
3712.0,0.0004
3711.0,0.0003
3710.0,0.0002
3709.0,0.0002
3708.0,0.0003
3707.0,0.0004
3706.0,0.0006
3705.0,0.0007
3704.0,0.0009
3703.0,0.0009
3702.0,0.0009
3701.0,0.0008
3700.0,0.0006
3699.0,0.0006
3698.0,0.0006
3697.0,0.0006
3696.0,0.0006
3695.0,0.0006
3694.0,0.0006
3693.0,0.0006
3692.0,0.0006
3691.0,0.0007
3690.0,0.0007
3689.0,0.0006
3688.0,0.0005
3687.0,0.0004
3686.0,0.0004
3685.0,0.0004
3684.0,0.0005
3683.0,0.0006
3682.0,0.0007
3681.0,0.0008
3680.0,0.0008
3679.0,0.0008
3678.0,0.0007
3677.0,0.0007
3676.0,0.0007
3675.0,0.0007
3674.0,0.0007
3673.0,0.0007
3672.0,0.0007
3671.0,0.0007
3670.0,0.0006
3669.0,0.0006
3668.0,0.0005
3667.0,0.0004
3666.0,0.0004
3665.0,0.0005
3664.0,0.0005
3663.0,0.0005
3662.0,0.0005
3661.0,0.0005
3660.0,0.0005
3659.0,0.0005
3658.0,0.0006
3657.0,0.0006
3656.0,0.0006
3655.0,0.0007
3654.0,0.0008
3653.0,0.0009
3652.0,0.001
3651.0,0.0009
3650.0,0.0009
3649.0,0.0009
3648.0,0.001
3647.0,0.001
3646.0,0.001
3645.0,0.0009
3644.0,0.0008
3643.0,0.0007
3642.0,0.0007
3641.0,0.0007
3640.0,0.0007
3639.0,0.0007
3638.0,0.0008
3637.0,0.0008
3636.0,0.0009
3635.0,0.001
3634.0,0.0011
3633.0,0.0011
3632.0,0.001
3631.0,0.001
3630.0,0.0009
3629.0,0.0007
3628.0,0.0006
3627.0,0.0006
3626.0,0.0006
3625.0,0.0007
3624.0,0.0007
3623.0,0.0008
3622.0,0.0009
3621.0,0.001
3620.0,0.0011
3619.0,0.0012
3618.0,0.0013
3617.0,0.0013
3616.0,0.0013
3615.0,0.0013
3614.0,0.0012
3613.0,0.0011
3612.0,0.0009
3611.0,0.0008
3610.0,0.0008
3609.0,0.0008
3608.0,0.0008
3607.0,0.0008
3606.0,0.0008
3605.0,0.0008
3604.0,0.0008
3603.0,0.0008
3602.0,0.0008
3601.0,0.0008
3600.0,0.0007
3599.0,0.0007
3598.0,0.0008
3597.0,0.0008
3596.0,0.0009
3595.0,0.0009
3594.0,0.001
3593.0,0.001
3592.0,0.0009
3591.0,0.0009
3590.0,0.001
3589.0,0.001
3588.0,0.0011
3587.0,0.0011
3586.0,0.0011
3585.0,0.001
3584.0,0.001
3583.0,0.001
3582.0,0.0009
3581.0,0.0009
3580.0,0.001
3579.0,0.001
3578.0,0.001
3577.0,0.0009
3576.0,0.0008
3575.0,0.0007
3574.0,0.0007
3573.0,0.0007
3572.0,0.0008
3571.0,0.001
3570.0,0.0011
3569.0,0.0012
3568.0,0.0012
3567.0,0.0012
3566.0,0.0011
3565.0,0.001
3564.0,0.001
3563.0,0.0009
3562.0,0.0009
3561.0,0.0009
3560.0,0.0009
3559.0,0.0009
3558.0,0.001
3557.0,0.001
3556.0,0.001
3555.0,0.0011
3554.0,0.0011
3553.0,0.0011
3552.0,0.0011
3551.0,0.0011
3550.0,0.001
3549.0,0.0009
3548.0,0.0009
3547.0,0.0009
3546.0,0.0009
3545.0,0.0009
3544.0,0.0009
3543.0,0.0008
3542.0,0.0008
3541.0,0.0009
3540.0,0.0009
3539.0,0.001
3538.0,0.0009
3537.0,0.0009
3536.0,0.0008
3535.0,0.0009
3534.0,0.001
3533.0,0.0011
3532.0,0.0012
3531.0,0.0013
3530.0,0.0013
3529.0,0.0013
3528.0,0.0013
3527.0,0.0013
3526.0,0.0012
3525.0,0.0011
3524.0,0.001
3523.0,0.0009
3522.0,0.0009
3521.0,0.001
3520.0,0.001
3519.0,0.001
3518.0,0.0009
3517.0,0.0008
3516.0,0.0008
3515.0,0.0008
3514.0,0.0008
3513.0,0.0009
3512.0,0.0009
3511.0,0.0009
3510.0,0.0009
3509.0,0.0009
3508.0,0.001
3507.0,0.0011
3506.0,0.0012
3505.0,0.0011
3504.0,0.001
3503.0,0.0009
3502.0,0.0009
3501.0,0.0009
3500.0,0.0009
3499.0,0.0009
3498.0,0.0008
3497.0,0.0008
3496.0,0.0008
3495.0,0.0008
3494.0,0.0009
3493.0,0.0009
3492.0,0.001
3491.0,0.0009
3490.0,0.0009
3489.0,0.0008
3488.0,0.0007
3487.0,0.0007
3486.0,0.0008
3485.0,0.0009
3484.0,0.0009
3483.0,0.001
3482.0,0.001
3481.0,0.001
3480.0,0.001
3479.0,0.0011
3478.0,0.0011
3477.0,0.0011
3476.0,0.0012
3475.0,0.0012
3474.0,0.0012
3473.0,0.0012
3472.0,0.0011
3471.0,0.001
3470.0,0.0009
3469.0,0.0009
3468.0,0.001
3467.0,0.001
3466.0,0.001
3465.0,0.001
3464.0,0.0009
3463.0,0.0008
3462.0,0.0008
3461.0,0.0009
3460.0,0.001
3459.0,0.001
3458.0,0.0009
3457.0,0.0009
3456.0,0.0009
3455.0,0.0009
3454.0,0.0009
3453.0,0.0009
3452.0,0.0009
3451.0,0.001
3450.0,0.001
3449.0,0.0012
3448.0,0.0013
3447.0,0.0013
3446.0,0.0014
3445.0,0.0013
3444.0,0.0012
3443.0,0.001
3442.0,0.0009
3441.0,0.0009
3440.0,0.0009
3439.0,0.0009
3438.0,0.0009
3437.0,0.0009
3436.0,0.0009
3435.0,0.001
3434.0,0.0011
3433.0,0.0012
3432.0,0.0012
3431.0,0.0013
3430.0,0.0013
3429.0,0.0012
3428.0,0.0012
3427.0,0.0011
3426.0,0.001
3425.0,0.001
3424.0,0.0011
3423.0,0.0011
3422.0,0.0011
3421.0,0.0012
3420.0,0.0012
3419.0,0.0012
3418.0,0.0012
3417.0,0.0013
3416.0,0.0014
3415.0,0.0014
3414.0,0.0013
3413.0,0.0013
3412.0,0.0012
3411.0,0.0011
3410.0,0.001
3409.0,0.001
3408.0,0.001
3407.0,0.0011
3406.0,0.0011
3405.0,0.0011
3404.0,0.0011
3403.0,0.0011
3402.0,0.001
3401.0,0.001
3400.0,0.0009
3399.0,0.001
3398.0,0.0011
3397.0,0.0012
3396.0,0.0012
3395.0,0.0012
3394.0,0.0012
3393.0,0.0012
3392.0,0.0012
3391.0,0.0012
3390.0,0.0012
3389.0,0.0012
3388.0,0.0012
3387.0,0.0013
3386.0,0.0012
3385.0,0.0012
3384.0,0.0011
3383.0,0.001
3382.0,0.001
3381.0,0.0009
3380.0,0.001
3379.0,0.001
3378.0,0.0011
3377.0,0.0011
3376.0,0.0011
3375.0,0.0012
3374.0,0.0012
3373.0,0.0011
3372.0,0.0011
3371.0,0.001
3370.0,0.0009
3369.0,0.0009
3368.0,0.001
3367.0,0.0011
3366.0,0.0011
3365.0,0.0012
3364.0,0.0012
3363.0,0.0012
3362.0,0.0013
3361.0,0.0013
3360.0,0.0012
3359.0,0.0012
3358.0,0.0011
3357.0,0.0011
3356.0,0.001
3355.0,0.001
3354.0,0.0009
3353.0,0.0009
3352.0,0.0008
3351.0,0.0008
3350.0,0.0008
3349.0,0.0008
3348.0,0.0009
3347.0,0.001
3346.0,0.001
3345.0,0.0011
3344.0,0.0011
3343.0,0.0011
3342.0,0.001
3341.0,0.001
3340.0,0.001
3339.0,0.001
3338.0,0.0011
3337.0,0.0011
3336.0,0.0011
3335.0,0.0011
3334.0,0.001
3333.0,0.001
3332.0,0.0011
3331.0,0.0011
3330.0,0.0011
3329.0,0.0011
3328.0,0.001
3327.0,0.0009
3326.0,0.0009
3325.0,0.0009
3324.0,0.0009
3323.0,0.0009
3322.0,0.001
3321.0,0.001
3320.0,0.0011
3319.0,0.0012
3318.0,0.0012
3317.0,0.0011
3316.0,0.0011
3315.0,0.001
3314.0,0.001
3313.0,0.001
3312.0,0.001
3311.0,0.001
3310.0,0.001
3309.0,0.0009
3308.0,0.0009
3307.0,0.0008
3306.0,0.0009
3305.0,0.001
3304.0,0.0011
3303.0,0.0012
3302.0,0.0012
3301.0,0.0011
3300.0,0.001
3299.0,0.001
3298.0,0.0009
3297.0,0.0009
3296.0,0.0008
3295.0,0.0008
3294.0,0.0007
3293.0,0.0008
3292.0,0.001
3291.0,0.0012
3290.0,0.0013
3289.0,0.0013
3288.0,0.0011
3287.0,0.001
3286.0,0.0008
3285.0,0.0007
3284.0,0.0007
3283.0,0.0008
3282.0,0.0009
3281.0,0.001
3280.0,0.0011
3279.0,0.0011
3278.0,0.0012
3277.0,0.0012
3276.0,0.0012
3275.0,0.0012
3274.0,0.0012
3273.0,0.0012
3272.0,0.0011
3271.0,0.0011
3270.0,0.0011
3269.0,0.001
3268.0,0.0009
3267.0,0.0009
3266.0,0.0008
3265.0,0.0009
3264.0,0.0009
3263.0,0.001
3262.0,0.001
3261.0,0.0011
3260.0,0.0011
3259.0,0.0011
3258.0,0.001
3257.0,0.001
3256.0,0.0009
3255.0,0.0009
3254.0,0.0009
3253.0,0.0009
3252.0,0.001
3251.0,0.001
3250.0,0.0011
3249.0,0.0011
3248.0,0.0012
3247.0,0.0011
3246.0,0.0011
3245.0,0.001
3244.0,0.001
3243.0,0.001
3242.0,0.001
3241.0,0.0011
3240.0,0.0012
3239.0,0.0012
3238.0,0.0011
3237.0,0.001
3236.0,0.0009
3235.0,0.0009
3234.0,0.0009
3233.0,0.0009
3232.0,0.0009
3231.0,0.0009
3230.0,0.0009
3229.0,0.0009
3228.0,0.0009
3227.0,0.0009
3226.0,0.0009
3225.0,0.0008
3224.0,0.0008
3223.0,0.0008
3222.0,0.0008
3221.0,0.0008
3220.0,0.0008
3219.0,0.0009
3218.0,0.001
3217.0,0.0011
3216.0,0.0012
3215.0,0.0012
3214.0,0.0011
3213.0,0.001
3212.0,0.0009
3211.0,0.0008
3210.0,0.0009
3209.0,0.001
3208.0,0.0011
3207.0,0.0011
3206.0,0.0011
3205.0,0.0009
3204.0,0.0008
3203.0,0.0006
3202.0,0.0006
3201.0,0.0006
3200.0,0.0006
3199.0,0.0007
3198.0,0.0008
3197.0,0.0008
3196.0,0.0008
3195.0,0.0008
3194.0,0.0008
3193.0,0.0009
3192.0,0.001
3191.0,0.0012
3190.0,0.0012
3189.0,0.0012
3188.0,0.0011
3187.0,0.001
3186.0,0.0009
3185.0,0.0009
3184.0,0.0009
3183.0,0.0009
3182.0,0.0008
3181.0,0.0008
3180.0,0.0008
3179.0,0.0009
3178.0,0.001
3177.0,0.0011
3176.0,0.0012
3175.0,0.0012
3174.0,0.0012
3173.0,0.0011
3172.0,0.0011
3171.0,0.0011
3170.0,0.0011
3169.0,0.0011
3168.0,0.0011
3167.0,0.001
3166.0,0.0009
3165.0,0.0009
3164.0,0.0009
3163.0,0.0009
3162.0,0.0009
3161.0,0.001
3160.0,0.0011
3159.0,0.0012
3158.0,0.0012
3157.0,0.0012
3156.0,0.0011
3155.0,0.0011
3154.0,0.0011
3153.0,0.0011
3152.0,0.0011
3151.0,0.001
3150.0,0.001
3149.0,0.0011
3148.0,0.0011
3147.0,0.0011
3146.0,0.001
3145.0,0.001
3144.0,0.001
3143.0,0.0011
3142.0,0.0011
3141.0,0.0011
3140.0,0.001
3139.0,0.001
3138.0,0.001
3137.0,0.001
3136.0,0.001
3135.0,0.0011
3134.0,0.0012
3133.0,0.0012
3132.0,0.0012
3131.0,0.0012
3130.0,0.0012
3129.0,0.0011
3128.0,0.0011
3127.0,0.0012
3126.0,0.0012
3125.0,0.0012
3124.0,0.0011
3123.0,0.0011
3122.0,0.001
3121.0,0.0011
3120.0,0.0012
3119.0,0.0013
3118.0,0.0013
3117.0,0.0012
3116.0,0.0011
3115.0,0.001
3114.0,0.001
3113.0,0.0011
3112.0,0.0012
3111.0,0.0012
3110.0,0.0012
3109.0,0.0012
3108.0,0.0012
3107.0,0.0012
3106.0,0.0011
3105.0,0.0011
3104.0,0.0011
3103.0,0.0012
3102.0,0.0012
3101.0,0.0012
3100.0,0.0012
3099.0,0.0012
3098.0,0.0012
3097.0,0.0013
3096.0,0.0013
3095.0,0.0013
3094.0,0.0013
3093.0,0.0013
3092.0,0.0013
3091.0,0.0012
3090.0,0.0012
3089.0,0.0012
3088.0,0.0012
3087.0,0.0013
3086.0,0.0014
3085.0,0.0015
3084.0,0.0015
3083.0,0.0014
3082.0,0.0013
3081.0,0.0013
3080.0,0.0013
3079.0,0.0013
3078.0,0.0013
3077.0,0.0012
3076.0,0.0012
3075.0,0.0012
3074.0,0.0013
3073.0,0.0013
3072.0,0.0013
3071.0,0.0013
3070.0,0.0014
3069.0,0.0014
3068.0,0.0013
3067.0,0.0013
3066.0,0.0013
3065.0,0.0013
3064.0,0.0012
3063.0,0.0012
3062.0,0.0012
3061.0,0.0012
3060.0,0.0013
3059.0,0.0013
3058.0,0.0013
3057.0,0.0014
3056.0,0.0014
3055.0,0.0014
3054.0,0.0014
3053.0,0.0014
3052.0,0.0015
3051.0,0.0015
3050.0,0.0016
3049.0,0.0015
3048.0,0.0015
3047.0,0.0014
3046.0,0.0014
3045.0,0.0014
3044.0,0.0014
3043.0,0.0014
3042.0,0.0014
3041.0,0.0013
3040.0,0.0012
3039.0,0.0012
3038.0,0.0012
3037.0,0.0012
3036.0,0.0013
3035.0,0.0014
3034.0,0.0015
3033.0,0.0015
3032.0,0.0015
3031.0,0.0015
3030.0,0.0014
3029.0,0.0014
3028.0,0.0014
3027.0,0.0014
3026.0,0.0014
3025.0,0.0014
3024.0,0.0014
3023.0,0.0014
3022.0,0.0015
3021.0,0.0016
3020.0,0.0016
3019.0,0.0016
3018.0,0.0015
3017.0,0.0015
3016.0,0.0015
3015.0,0.0015
3014.0,0.0014
3013.0,0.0015
3012.0,0.0015
3011.0,0.0015
3010.0,0.0015
3009.0,0.0015
3008.0,0.0014
3007.0,0.0014
3006.0,0.0014
3005.0,0.0014
3004.0,0.0015
3003.0,0.0015
3002.0,0.0015
3001.0,0.0015
3000.0,0.0016
2999.0,0.0016
2998.0,0.0017
2997.0,0.0017
2996.0,0.0017
2995.0,0.0016
2994.0,0.0016
2993.0,0.0016
2992.0,0.0016
2991.0,0.0017
2990.0,0.0017
2989.0,0.0017
2988.0,0.0017
2987.0,0.0017
2986.0,0.0016
2985.0,0.0016
2984.0,0.0017
2983.0,0.0017
2982.0,0.0017
2981.0,0.0017
2980.0,0.0018
2979.0,0.0018
2978.0,0.0018
2977.0,0.0019
2976.0,0.002
2975.0,0.0021
2974.0,0.0022
2973.0,0.0023
2972.0,0.0023
2971.0,0.0023
2970.0,0.0022
2969.0,0.0021
2968.0,0.0021
2967.0,0.0021
2966.0,0.0022
2965.0,0.0024
2964.0,0.0024
2963.0,0.0024
2962.0,0.0024
2961.0,0.0023
2960.0,0.0023
2959.0,0.0024
2958.0,0.0024
2957.0,0.0024
2956.0,0.0024
2955.0,0.0024
2954.0,0.0024
2953.0,0.0024
2952.0,0.0024
2951.0,0.0024
2950.0,0.0023
2949.0,0.0023
2948.0,0.0023
2947.0,0.0024
2946.0,0.0023
2945.0,0.0023
2944.0,0.0022
2943.0,0.0021
2942.0,0.0021
2941.0,0.0021
2940.0,0.0021
2939.0,0.0021
2938.0,0.0021
2937.0,0.002
2936.0,0.002
2935.0,0.002
2934.0,0.002
2933.0,0.002
2932.0,0.002
2931.0,0.0019
2930.0,0.0019
2929.0,0.0019
2928.0,0.0019
2927.0,0.0019
2926.0,0.0019
2925.0,0.0019
2924.0,0.0019
2923.0,0.0019
2922.0,0.0019
2921.0,0.0019
2920.0,0.0018
2919.0,0.0018
2918.0,0.0018
2917.0,0.0019
2916.0,0.002
2915.0,0.002
2914.0,0.002
2913.0,0.0019
2912.0,0.0019
2911.0,0.0019
2910.0,0.002
2909.0,0.002
2908.0,0.0021
2907.0,0.0021
2906.0,0.0021
2905.0,0.0021
2904.0,0.0021
2903.0,0.0021
2902.0,0.0022
2901.0,0.0022
2900.0,0.0021
2899.0,0.0021
2898.0,0.0021
2897.0,0.002
2896.0,0.002
2895.0,0.002
2894.0,0.002
2893.0,0.002
2892.0,0.002
2891.0,0.002
2890.0,0.0019
2889.0,0.0019
2888.0,0.0019
2887.0,0.002
2886.0,0.002
2885.0,0.0021
2884.0,0.002
2883.0,0.002
2882.0,0.0019
2881.0,0.0019
2880.0,0.0019
2879.0,0.002
2878.0,0.002
2877.0,0.0021
2876.0,0.0021
2875.0,0.0021
2874.0,0.0021
2873.0,0.0021
2872.0,0.0021
2871.0,0.0021
2870.0,0.0021
2869.0,0.002
2868.0,0.002
2867.0,0.002
2866.0,0.002
2865.0,0.002
2864.0,0.002
2863.0,0.0021
2862.0,0.0021
2861.0,0.002
2860.0,0.002
2859.0,0.002
2858.0,0.002
2857.0,0.002
2856.0,0.002
2855.0,0.002
2854.0,0.002
2853.0,0.002
2852.0,0.0021
2851.0,0.0021
2850.0,0.0021
2849.0,0.002
2848.0,0.0019
2847.0,0.0019
2846.0,0.002
2845.0,0.002
2844.0,0.0021
2843.0,0.0021
2842.0,0.002
2841.0,0.0019
2840.0,0.0019
2839.0,0.0018
2838.0,0.0018
2837.0,0.0018
2836.0,0.0018
2835.0,0.0019
2834.0,0.0019
2833.0,0.0018
2832.0,0.0018
2831.0,0.0018
2830.0,0.0018
2829.0,0.0019
2828.0,0.0019
2827.0,0.0019
2826.0,0.002
2825.0,0.0021
2824.0,0.0021
2823.0,0.0021
2822.0,0.0021
2821.0,0.002
2820.0,0.0019
2819.0,0.0018
2818.0,0.0018
2817.0,0.0018
2816.0,0.0019
2815.0,0.0019
2814.0,0.0019
2813.0,0.0018
2812.0,0.0018
2811.0,0.0018
2810.0,0.0018
2809.0,0.0018
2808.0,0.0019
2807.0,0.0019
2806.0,0.002
2805.0,0.002
2804.0,0.002
2803.0,0.0019
2802.0,0.0019
2801.0,0.0019
2800.0,0.0018
2799.0,0.0018
2798.0,0.0017
2797.0,0.0017
2796.0,0.0017
2795.0,0.0018
2794.0,0.0019
2793.0,0.0019
2792.0,0.0019
2791.0,0.0018
2790.0,0.0018
2789.0,0.0018
2788.0,0.0018
2787.0,0.0018
2786.0,0.0019
2785.0,0.0019
2784.0,0.0019
2783.0,0.0019
2782.0,0.0019
2781.0,0.0019
2780.0,0.0019
2779.0,0.0019
2778.0,0.0019
2777.0,0.0018
2776.0,0.0018
2775.0,0.0018
2774.0,0.0019
2773.0,0.0019
2772.0,0.0018
2771.0,0.0018
2770.0,0.0018
2769.0,0.0018
2768.0,0.0019
2767.0,0.0019
2766.0,0.0019
2765.0,0.0019
2764.0,0.0019
2763.0,0.0019
2762.0,0.0019
2761.0,0.0019
2760.0,0.0019
2759.0,0.0019
2758.0,0.0019
2757.0,0.0019
2756.0,0.0019
2755.0,0.0019
2754.0,0.0019
2753.0,0.0018
2752.0,0.0018
2751.0,0.0018
2750.0,0.0018
2749.0,0.0018
2748.0,0.0018
2747.0,0.0018
2746.0,0.0017
2745.0,0.0017
2744.0,0.0017
2743.0,0.0018
2742.0,0.0018
2741.0,0.0017
2740.0,0.0018
2739.0,0.0018
2738.0,0.0019
2737.0,0.0019
2736.0,0.0019
2735.0,0.0019
2734.0,0.0019
2733.0,0.0019
2732.0,0.0018
2731.0,0.0018
2730.0,0.0018
2729.0,0.0018
2728.0,0.0018
2727.0,0.0019
2726.0,0.0019
2725.0,0.0018
2724.0,0.0018
2723.0,0.0018
2722.0,0.0018
2721.0,0.0018
2720.0,0.0018
2719.0,0.0018
2718.0,0.0018
2717.0,0.0018
2716.0,0.0018
2715.0,0.0018
2714.0,0.0018
2713.0,0.0018
2712.0,0.0018
2711.0,0.0018
2710.0,0.0018
2709.0,0.0018
2708.0,0.0018
2707.0,0.0018
2706.0,0.0018
2705.0,0.0018
2704.0,0.0017
2703.0,0.0017
2702.0,0.0017
2701.0,0.0017
2700.0,0.0018
2699.0,0.0018
2698.0,0.0019
2697.0,0.0019
2696.0,0.0019
2695.0,0.0019
2694.0,0.0019
2693.0,0.0019
2692.0,0.0019
2691.0,0.0018
2690.0,0.0018
2689.0,0.0018
2688.0,0.0019
2687.0,0.0019
2686.0,0.0019
2685.0,0.0019
2684.0,0.0019
2683.0,0.0019
2682.0,0.0018
2681.0,0.0019
2680.0,0.0019
2679.0,0.0019
2678.0,0.0019
2677.0,0.0019
2676.0,0.0018
2675.0,0.0018
2674.0,0.0018
2673.0,0.0018
2672.0,0.0018
2671.0,0.0018
2670.0,0.0018
2669.0,0.0018
2668.0,0.0018
2667.0,0.0018
2666.0,0.0017
2665.0,0.0018
2664.0,0.0018
2663.0,0.0019
2662.0,0.0019
2661.0,0.0019
2660.0,0.0018
2659.0,0.0018
2658.0,0.0017
2657.0,0.0017
2656.0,0.0018
2655.0,0.0018
2654.0,0.0018
2653.0,0.0018
2652.0,0.0018
2651.0,0.0018
2650.0,0.0019
2649.0,0.0019
2648.0,0.0019
2647.0,0.0019
2646.0,0.0019
2645.0,0.0019
2644.0,0.0018
2643.0,0.0018
2642.0,0.0017
2641.0,0.0017
2640.0,0.0017
2639.0,0.0017
2638.0,0.0018
2637.0,0.0018
2636.0,0.0018
2635.0,0.0018
2634.0,0.0017
2633.0,0.0017
2632.0,0.0018
2631.0,0.0018
2630.0,0.0018
2629.0,0.0019
2628.0,0.0019
2627.0,0.0019
2626.0,0.0019
2625.0,0.0018
2624.0,0.0018
2623.0,0.0019
2622.0,0.0019
2621.0,0.0019
2620.0,0.0018
2619.0,0.0018
2618.0,0.0018
2617.0,0.0018
2616.0,0.0018
2615.0,0.0018
2614.0,0.0018
2613.0,0.0018
2612.0,0.0018
2611.0,0.0018
2610.0,0.0017
2609.0,0.0017
2608.0,0.0017
2607.0,0.0017
2606.0,0.0018
2605.0,0.0018
2604.0,0.0018
2603.0,0.0018
2602.0,0.0018
2601.0,0.0018
2600.0,0.0018
2599.0,0.0018
2598.0,0.0018
2597.0,0.0018
2596.0,0.0018
2595.0,0.0018
2594.0,0.0018
2593.0,0.0018
2592.0,0.0018
2591.0,0.0018
2590.0,0.0018
2589.0,0.0018
2588.0,0.0018
2587.0,0.0018
2586.0,0.0018
2585.0,0.0018
2584.0,0.0018
2583.0,0.0018
2582.0,0.0018
2581.0,0.0018
2580.0,0.0018
2579.0,0.0017
2578.0,0.0017
2577.0,0.0017
2576.0,0.0017
2575.0,0.0017
2574.0,0.0017
2573.0,0.0018
2572.0,0.0018
2571.0,0.0018
2570.0,0.0018
2569.0,0.0018
2568.0,0.0018
2567.0,0.0019
2566.0,0.0019
2565.0,0.0019
2564.0,0.0019
2563.0,0.0019
2562.0,0.002
2561.0,0.002
2560.0,0.0019
2559.0,0.0019
2558.0,0.0018
2557.0,0.0018
2556.0,0.0018
2555.0,0.0018
2554.0,0.0019
2553.0,0.0019
2552.0,0.0018
2551.0,0.0018
2550.0,0.0018
2549.0,0.0018
2548.0,0.0018
2547.0,0.0018
2546.0,0.0019
2545.0,0.0019
2544.0,0.0019
2543.0,0.0019
2542.0,0.0019
2541.0,0.0019
2540.0,0.0018
2539.0,0.0017
2538.0,0.0017
2537.0,0.0018
2536.0,0.0019
2535.0,0.0019
2534.0,0.0018
2533.0,0.0018
2532.0,0.0017
2531.0,0.0017
2530.0,0.0018
2529.0,0.0018
2528.0,0.0018
2527.0,0.0019
2526.0,0.0019
2525.0,0.002
2524.0,0.002
2523.0,0.002
2522.0,0.002
2521.0,0.002
2520.0,0.0019
2519.0,0.0019
2518.0,0.0018
2517.0,0.0018
2516.0,0.0018
2515.0,0.0018
2514.0,0.0018
2513.0,0.0018
2512.0,0.0018
2511.0,0.0018
2510.0,0.0018
2509.0,0.0018
2508.0,0.0018
2507.0,0.0018
2506.0,0.0018
2505.0,0.0018
2504.0,0.0018
2503.0,0.0018
2502.0,0.0018
2501.0,0.0018
2500.0,0.0018
2499.0,0.0018
2498.0,0.0017
2497.0,0.0018
2496.0,0.0018
2495.0,0.0019
2494.0,0.0019
2493.0,0.0019
2492.0,0.0019
2491.0,0.0019
2490.0,0.0019
2489.0,0.0019
2488.0,0.0019
2487.0,0.0018
2486.0,0.0018
2485.0,0.0017
2484.0,0.0017
2483.0,0.0018
2482.0,0.0018
2481.0,0.0019
2480.0,0.0018
2479.0,0.0018
2478.0,0.0017
2477.0,0.0017
2476.0,0.0017
2475.0,0.0017
2474.0,0.0017
2473.0,0.0017
2472.0,0.0017
2471.0,0.0017
2470.0,0.0016
2469.0,0.0016
2468.0,0.0016
2467.0,0.0016
2466.0,0.0016
2465.0,0.0017
2464.0,0.0017
2463.0,0.0017
2462.0,0.0017
2461.0,0.0017
2460.0,0.0017
2459.0,0.0017
2458.0,0.0016
2457.0,0.0016
2456.0,0.0016
2455.0,0.0016
2454.0,0.0016
2453.0,0.0017
2452.0,0.0017
2451.0,0.0017
2450.0,0.0018
2449.0,0.0018
2448.0,0.0017
2447.0,0.0017
2446.0,0.0017
2445.0,0.0017
2444.0,0.0016
2443.0,0.0016
2442.0,0.0015
2441.0,0.0015
2440.0,0.0015
2439.0,0.0015
2438.0,0.0016
2437.0,0.0016
2436.0,0.0016
2435.0,0.0016
2434.0,0.0016
2433.0,0.0016
2432.0,0.0016
2431.0,0.0016
2430.0,0.0016
2429.0,0.0016
2428.0,0.0016
2427.0,0.0016
2426.0,0.0016
2425.0,0.0016
2424.0,0.0016
2423.0,0.0016
2422.0,0.0016
2421.0,0.0016
2420.0,0.0017
2419.0,0.0017
2418.0,0.0017
2417.0,0.0017
2416.0,0.0016
2415.0,0.0016
2414.0,0.0016
2413.0,0.0016
2412.0,0.0016
2411.0,0.0017
2410.0,0.0017
2409.0,0.0017
2408.0,0.0016
2407.0,0.0016
2406.0,0.0016
2405.0,0.0017
2404.0,0.0017
2403.0,0.0018
2402.0,0.0018
2401.0,0.0018
2400.0,0.0018
2399.0,0.0017
2398.0,0.0017
2397.0,0.0017
2396.0,0.0017
2395.0,0.0017
2394.0,0.0017
2393.0,0.0017
2392.0,0.0017
2391.0,0.0017
2390.0,0.0016
2389.0,0.0016
2388.0,0.0015
2387.0,0.0015
2386.0,0.0014
2385.0,0.0014
2384.0,0.0015
2383.0,0.0016
2382.0,0.0018
2381.0,0.0019
2380.0,0.0018
2379.0,0.0017
2378.0,0.0015
2377.0,0.0011
2376.0,0.0007
2375.0,0.0001
2374.0,-0.0005
2373.0,-0.0011
2372.0,-0.0011
2371.0,-0.0005
2370.0,0.0007
2369.0,0.0021
2368.0,0.0031
2367.0,0.0035
2366.0,0.0034
2365.0,0.0026
2364.0,0.0013
2363.0,0.0002
2362.0,0.0001
2361.0,0.0008
2360.0,0.001
2359.0,0.0005
2358.0,0.0001
2357.0,0.0004
2356.0,0.0008
2355.0,0.0009
2354.0,0.0009
2353.0,0.0011
2352.0,0.001
2351.0,0.0006
2350.0,0.0003
2349.0,0.0002
2348.0,0.0004
2347.0,0.0003
2346.0,-0.0003
2345.0,-0.0013
2344.0,-0.002
2343.0,-0.002
2342.0,-0.0013
2341.0,-0.0003
2340.0,0.0002
2339.0,-0.0
2338.0,-0.0006
2337.0,-0.001
2336.0,-0.0011
2335.0,-0.0011
2334.0,-0.001
2333.0,-0.0007
2332.0,-0.0002
2331.0,0.0003
2330.0,0.0006
2329.0,0.0005
2328.0,0.0002
2327.0,0.0002
2326.0,0.0004
2325.0,0.0006
2324.0,0.0008
2323.0,0.0008
2322.0,0.0007
2321.0,0.0006
2320.0,0.0006
2319.0,0.0005
2318.0,0.0005
2317.0,0.0006
2316.0,0.0006
2315.0,0.0006
2314.0,0.0006
2313.0,0.0007
2312.0,0.0007
2311.0,0.0007
2310.0,0.0007
2309.0,0.0008
2308.0,0.0009
2307.0,0.001
2306.0,0.001
2305.0,0.001
2304.0,0.001
2303.0,0.001
2302.0,0.001
2301.0,0.001
2300.0,0.001
2299.0,0.001
2298.0,0.001
2297.0,0.001
2296.0,0.001
2295.0,0.001
2294.0,0.001
2293.0,0.0011
2292.0,0.0011
2291.0,0.0011
2290.0,0.0012
2289.0,0.0012
2288.0,0.0013
2287.0,0.0013
2286.0,0.0013
2285.0,0.0013
2284.0,0.0013
2283.0,0.0012
2282.0,0.0012
2281.0,0.0012
2280.0,0.0013
2279.0,0.0013
2278.0,0.0013
2277.0,0.0013
2276.0,0.0013
2275.0,0.0012
2274.0,0.0012
2273.0,0.0012
2272.0,0.0013
2271.0,0.0014
2270.0,0.0014
2269.0,0.0015
2268.0,0.0015
2267.0,0.0014
2266.0,0.0014
2265.0,0.0013
2264.0,0.0012
2263.0,0.0012
2262.0,0.0012
2261.0,0.0012
2260.0,0.0012
2259.0,0.0013
2258.0,0.0013
2257.0,0.0013
2256.0,0.0012
2255.0,0.0012
2254.0,0.0012
2253.0,0.0012
2252.0,0.0012
2251.0,0.0012
2250.0,0.0013
2249.0,0.0013
2248.0,0.0013
2247.0,0.0013
2246.0,0.0013
2245.0,0.0013
2244.0,0.0013
2243.0,0.0014
2242.0,0.0014
2241.0,0.0014
2240.0,0.0013
2239.0,0.0012
2238.0,0.0012
2237.0,0.0012
2236.0,0.0012
2235.0,0.0012
2234.0,0.0012
2233.0,0.0012
2232.0,0.0012
2231.0,0.0012
2230.0,0.0012
2229.0,0.0013
2228.0,0.0013
2227.0,0.0013
2226.0,0.0013
2225.0,0.0013
2224.0,0.0013
2223.0,0.0013
2222.0,0.0013
2221.0,0.0012
2220.0,0.0011
2219.0,0.0011
2218.0,0.0011
2217.0,0.0011
2216.0,0.0012
2215.0,0.0013
2214.0,0.0013
2213.0,0.0013
2212.0,0.0012
2211.0,0.0011
2210.0,0.0011
2209.0,0.0011
2208.0,0.0011
2207.0,0.0011
2206.0,0.0011
2205.0,0.0012
2204.0,0.0012
2203.0,0.0012
2202.0,0.0012
2201.0,0.0013
2200.0,0.0013
2199.0,0.0013
2198.0,0.0013
2197.0,0.0013
2196.0,0.0013
2195.0,0.0013
2194.0,0.0012
2193.0,0.0012
2192.0,0.0012
2191.0,0.0012
2190.0,0.0012
2189.0,0.0012
2188.0,0.0011
2187.0,0.0011
2186.0,0.0011
2185.0,0.0011
2184.0,0.001
2183.0,0.001
2182.0,0.0009
2181.0,0.001
2180.0,0.001
2179.0,0.001
2178.0,0.0011
2177.0,0.0011
2176.0,0.0011
2175.0,0.0011
2174.0,0.001
2173.0,0.001
2172.0,0.001
2171.0,0.001
2170.0,0.001
2169.0,0.0011
2168.0,0.0011
2167.0,0.0011
2166.0,0.0011
2165.0,0.0011
2164.0,0.0011
2163.0,0.0011
2162.0,0.0011
2161.0,0.0011
2160.0,0.0011
2159.0,0.0011
2158.0,0.0011
2157.0,0.0011
2156.0,0.001
2155.0,0.001
2154.0,0.001
2153.0,0.001
2152.0,0.001
2151.0,0.001
2150.0,0.001
2149.0,0.0009
2148.0,0.001
2147.0,0.001
2146.0,0.001
2145.0,0.0011
2144.0,0.0011
2143.0,0.0011
2142.0,0.0011
2141.0,0.0011
2140.0,0.0011
2139.0,0.0011
2138.0,0.001
2137.0,0.001
2136.0,0.001
2135.0,0.001
2134.0,0.001
2133.0,0.001
2132.0,0.001
2131.0,0.001
2130.0,0.001
2129.0,0.001
2128.0,0.001
2127.0,0.001
2126.0,0.001
2125.0,0.001
2124.0,0.0009
2123.0,0.0009
2122.0,0.0009
2121.0,0.0009
2120.0,0.0009
2119.0,0.0009
2118.0,0.001
2117.0,0.001
2116.0,0.0011
2115.0,0.0011
2114.0,0.0011
2113.0,0.0011
2112.0,0.001
2111.0,0.001
2110.0,0.001
2109.0,0.001
2108.0,0.001
2107.0,0.001
2106.0,0.001
2105.0,0.001
2104.0,0.001
2103.0,0.001
2102.0,0.001
2101.0,0.001
2100.0,0.001
2099.0,0.001
2098.0,0.001
2097.0,0.001
2096.0,0.001
2095.0,0.001
2094.0,0.0009
2093.0,0.0009
2092.0,0.0009
2091.0,0.0009
2090.0,0.0009
2089.0,0.0009
2088.0,0.0008
2087.0,0.0008
2086.0,0.0008
2085.0,0.0009
2084.0,0.0009
2083.0,0.0009
2082.0,0.0009
2081.0,0.0009
2080.0,0.0009
2079.0,0.0009
2078.0,0.0009
2077.0,0.0009
2076.0,0.0009
2075.0,0.0009
2074.0,0.0009
2073.0,0.0009
2072.0,0.0009
2071.0,0.0009
2070.0,0.0008
2069.0,0.0008
2068.0,0.0007
2067.0,0.0007
2066.0,0.0007
2065.0,0.0007
2064.0,0.0007
2063.0,0.0007
2062.0,0.0007
2061.0,0.0007
2060.0,0.0007
2059.0,0.0007
2058.0,0.0007
2057.0,0.0007
2056.0,0.0006
2055.0,0.0006
2054.0,0.0006
2053.0,0.0006
2052.0,0.0006
2051.0,0.0005
2050.0,0.0006
2049.0,0.0006
2048.0,0.0006
2047.0,0.0005
2046.0,0.0005
2045.0,0.0005
2044.0,0.0005
2043.0,0.0006
2042.0,0.0006
2041.0,0.0005
2040.0,0.0005
2039.0,0.0004
2038.0,0.0004
2037.0,0.0004
2036.0,0.0003
2035.0,0.0003
2034.0,0.0004
2033.0,0.0004
2032.0,0.0005
2031.0,0.0005
2030.0,0.0004
2029.0,0.0004
2028.0,0.0004
2027.0,0.0004
2026.0,0.0004
2025.0,0.0004
2024.0,0.0004
2023.0,0.0004
2022.0,0.0004
2021.0,0.0003
2020.0,0.0003
2019.0,0.0003
2018.0,0.0003
2017.0,0.0004
2016.0,0.0004
2015.0,0.0004
2014.0,0.0004
2013.0,0.0003
2012.0,0.0003
2011.0,0.0002
2010.0,0.0002
2009.0,0.0003
2008.0,0.0003
2007.0,0.0003
2006.0,0.0003
2005.0,0.0003
2004.0,0.0003
2003.0,0.0002
2002.0,0.0002
2001.0,0.0002
2000.0,0.0002
1999.0,0.0003
1998.0,0.0003
1997.0,0.0003
1996.0,0.0002
1995.0,0.0002
1994.0,0.0002
1993.0,0.0001
1992.0,0.0001
1991.0,0.0002
1990.0,0.0002
1989.0,0.0003
1988.0,0.0003
1987.0,0.0003
1986.0,0.0003
1985.0,0.0003
1984.0,0.0003
1983.0,0.0003
1982.0,0.0003
1981.0,0.0003
1980.0,0.0003
1979.0,0.0002
1978.0,0.0001
1977.0,0.0001
1976.0,0.0001
1975.0,0.0002
1974.0,0.0002
1973.0,0.0002
1972.0,0.0002
1971.0,0.0002
1970.0,0.0002
1969.0,0.0002
1968.0,0.0001
1967.0,0.0002
1966.0,0.0002
1965.0,0.0003
1964.0,0.0003
1963.0,0.0003
1962.0,0.0003
1961.0,0.0003
1960.0,0.0003
1959.0,0.0003
1958.0,0.0002
1957.0,0.0003
1956.0,0.0003
1955.0,0.0004
1954.0,0.0004
1953.0,0.0004
1952.0,0.0003
1951.0,0.0003
1950.0,0.0003
1949.0,0.0003
1948.0,0.0003
1947.0,0.0004
1946.0,0.0005
1945.0,0.0005
1944.0,0.0004
1943.0,0.0004
1942.0,0.0003
1941.0,0.0002
1940.0,0.0002
1939.0,0.0002
1938.0,0.0001
1937.0,0.0001
1936.0,0.0001
1935.0,0.0001
1934.0,0.0001
1933.0,0.0001
1932.0,0.0
1931.0,-0.0
1930.0,-0.0
1929.0,-0.0001
1928.0,-0.0001
1927.0,-0.0001
1926.0,-0.0001
1925.0,-0.0001
1924.0,-0.0001
1923.0,-0.0001
1922.0,-0.0001
1921.0,-0.0001
1920.0,-0.0002
1919.0,-0.0002
1918.0,-0.0003
1917.0,-0.0003
1916.0,-0.0003
1915.0,-0.0004
1914.0,-0.0004
1913.0,-0.0004
1912.0,-0.0005
1911.0,-0.0005
1910.0,-0.0005
1909.0,-0.0006
1908.0,-0.0006
1907.0,-0.0005
1906.0,-0.0005
1905.0,-0.0006
1904.0,-0.0006
1903.0,-0.0006
1902.0,-0.0007
1901.0,-0.0007
1900.0,-0.0007
1899.0,-0.0006
1898.0,-0.0006
1897.0,-0.0007
1896.0,-0.0008
1895.0,-0.0008
1894.0,-0.0008
1893.0,-0.0008
1892.0,-0.0008
1891.0,-0.0007
1890.0,-0.0007
1889.0,-0.0007
1888.0,-0.0008
1887.0,-0.0009
1886.0,-0.0009
1885.0,-0.001
1884.0,-0.001
1883.0,-0.0011
1882.0,-0.0011
1881.0,-0.0012
1880.0,-0.0012
1879.0,-0.0013
1878.0,-0.0012
1877.0,-0.0012
1876.0,-0.0012
1875.0,-0.0012
1874.0,-0.0012
1873.0,-0.0012
1872.0,-0.0012
1871.0,-0.0012
1870.0,-0.0013
1869.0,-0.0013
1868.0,-0.0013
1867.0,-0.0013
1866.0,-0.0013
1865.0,-0.0013
1864.0,-0.0014
1863.0,-0.0014
1862.0,-0.0015
1861.0,-0.0015
1860.0,-0.0015
1859.0,-0.0015
1858.0,-0.0015
1857.0,-0.0015
1856.0,-0.0015
1855.0,-0.0015
1854.0,-0.0015
1853.0,-0.0016
1852.0,-0.0016
1851.0,-0.0016
1850.0,-0.0016
1849.0,-0.0016
1848.0,-0.0017
1847.0,-0.0017
1846.0,-0.0017
1845.0,-0.0018
1844.0,-0.0019
1843.0,-0.0019
1842.0,-0.0019
1841.0,-0.0018
1840.0,-0.0018
1839.0,-0.0018
1838.0,-0.0018
1837.0,-0.0018
1836.0,-0.0019
1835.0,-0.0019
1834.0,-0.0019
1833.0,-0.0019
1832.0,-0.0019
1831.0,-0.0018
1830.0,-0.0018
1829.0,-0.0019
1828.0,-0.0019
1827.0,-0.0018
1826.0,-0.0018
1825.0,-0.0019
1824.0,-0.002
1823.0,-0.002
1822.0,-0.0021
1821.0,-0.0021
1820.0,-0.0021
1819.0,-0.0021
1818.0,-0.0021
1817.0,-0.0022
1816.0,-0.0022
1815.0,-0.0022
1814.0,-0.0023
1813.0,-0.0023
1812.0,-0.0023
1811.0,-0.0024
1810.0,-0.0024
1809.0,-0.0025
1808.0,-0.0026
1807.0,-0.0026
1806.0,-0.0026
1805.0,-0.0026
1804.0,-0.0026
1803.0,-0.0026
1802.0,-0.0027
1801.0,-0.0028
1800.0,-0.0028
1799.0,-0.0029
1798.0,-0.003
1797.0,-0.003
1796.0,-0.0031
1795.0,-0.0031
1794.0,-0.0031
1793.0,-0.0031
1792.0,-0.0031
1791.0,-0.0032
1790.0,-0.0032
1789.0,-0.0032
1788.0,-0.0032
1787.0,-0.0033
1786.0,-0.0034
1785.0,-0.0035
1784.0,-0.0035
1783.0,-0.0035
1782.0,-0.0034
1781.0,-0.0034
1780.0,-0.0034
1779.0,-0.0035
1778.0,-0.0035
1777.0,-0.0035
1776.0,-0.0035
1775.0,-0.0035
1774.0,-0.0034
1773.0,-0.0035
1772.0,-0.0036
1771.0,-0.0036
1770.0,-0.0037
1769.0,-0.0037
1768.0,-0.0037
1767.0,-0.0037
1766.0,-0.0036
1765.0,-0.0035
1764.0,-0.0034
1763.0,-0.0034
1762.0,-0.0033
1761.0,-0.0033
1760.0,-0.0032
1759.0,-0.0031
1758.0,-0.0029
1757.0,-0.0028
1756.0,-0.0026
1755.0,-0.0023
1754.0,-0.0021
1753.0,-0.0018
1752.0,-0.0014
1751.0,-0.001
1750.0,-0.0005
1749.0,0.0001
1748.0,0.0007
1747.0,0.0014
1746.0,0.0022
1745.0,0.0031
1744.0,0.0042
1743.0,0.0055
1742.0,0.0068
1741.0,0.0082
1740.0,0.0099
1739.0,0.0115
1738.0,0.0129
1737.0,0.014
1736.0,0.0151
1735.0,0.0167
1734.0,0.0189
1733.0,0.0207
1732.0,0.022
1731.0,0.0233
1730.0,0.0247
1729.0,0.026
1728.0,0.0271
1727.0,0.0282
1726.0,0.0292
1725.0,0.0302
1724.0,0.0312
1723.0,0.0322
1722.0,0.0331
1721.0,0.0338
1720.0,0.0345
1719.0,0.0352
1718.0,0.036
1717.0,0.0368
1716.0,0.0374
1715.0,0.0378
1714.0,0.0381
1713.0,0.0381
1712.0,0.0378
1711.0,0.0373
1710.0,0.0367
1709.0,0.0359
1708.0,0.0349
1707.0,0.0337
1706.0,0.0322
1705.0,0.0308
1704.0,0.0298
1703.0,0.029
1702.0,0.028
1701.0,0.0266
1700.0,0.025
1699.0,0.0239
1698.0,0.0231
1697.0,0.0224
1696.0,0.0215
1695.0,0.0208
1694.0,0.0202
1693.0,0.0198
1692.0,0.0194
1691.0,0.0188
1690.0,0.0183
1689.0,0.0179
1688.0,0.0176
1687.0,0.0173
1686.0,0.0169
1685.0,0.0164
1684.0,0.016
1683.0,0.0157
1682.0,0.0154
1681.0,0.0152
1680.0,0.015
1679.0,0.0147
1678.0,0.0146
1677.0,0.0144
1676.0,0.0141
1675.0,0.0138
1674.0,0.0135
1673.0,0.0133
1672.0,0.0131
1671.0,0.0129
1670.0,0.0126
1669.0,0.0123
1668.0,0.012
1667.0,0.0117
1666.0,0.0115
1665.0,0.0113
1664.0,0.0111
1663.0,0.0108
1662.0,0.0105
1661.0,0.0103
1660.0,0.0101
1659.0,0.0099
1658.0,0.0098
1657.0,0.0097
1656.0,0.0097
1655.0,0.0095
1654.0,0.0093
1653.0,0.0091
1652.0,0.0089
1651.0,0.0088
1650.0,0.0087
1649.0,0.0087
1648.0,0.0084
1647.0,0.0081
1646.0,0.0079
1645.0,0.0077
1644.0,0.0077
1643.0,0.0076
1642.0,0.0075
1641.0,0.0075
1640.0,0.0074
1639.0,0.0074
1638.0,0.0073
1637.0,0.0072
1636.0,0.0072
1635.0,0.0071
1634.0,0.007
1633.0,0.0069
1632.0,0.0068
1631.0,0.0067
1630.0,0.0066
1629.0,0.0065
1628.0,0.0065
1627.0,0.0064
1626.0,0.0063
1625.0,0.0062
1624.0,0.0061
1623.0,0.0061
1622.0,0.006
1621.0,0.006
1620.0,0.0059
1619.0,0.0058
1618.0,0.0058
1617.0,0.0058
1616.0,0.0059
1615.0,0.006
1614.0,0.006
1613.0,0.006
1612.0,0.006
1611.0,0.0059
1610.0,0.0058
1609.0,0.0058
1608.0,0.0057
1607.0,0.0056
1606.0,0.0055
1605.0,0.0054
1604.0,0.0052
1603.0,0.005
1602.0,0.0049
1601.0,0.0048
1600.0,0.0047
1599.0,0.0046
1598.0,0.0045
1597.0,0.0044
1596.0,0.0043
1595.0,0.0042
1594.0,0.0041
1593.0,0.0041
1592.0,0.0041
1591.0,0.004
1590.0,0.004
1589.0,0.0039
1588.0,0.0039
1587.0,0.0039
1586.0,0.0039
1585.0,0.004
1584.0,0.0042
1583.0,0.0044
1582.0,0.0046
1581.0,0.0049
1580.0,0.0052
1579.0,0.0054
1578.0,0.0054
1577.0,0.0054
1576.0,0.0053
1575.0,0.0052
1574.0,0.0051
1573.0,0.005
1572.0,0.0049
1571.0,0.0047
1570.0,0.0045
1569.0,0.0043
1568.0,0.0041
1567.0,0.0039
1566.0,0.0038
1565.0,0.0037
1564.0,0.0036
1563.0,0.0035
1562.0,0.0035
1561.0,0.0034
1560.0,0.0032
1559.0,0.003
1558.0,0.003
1557.0,0.0029
1556.0,0.0029
1555.0,0.0028
1554.0,0.0027
1553.0,0.0027
1552.0,0.0027
1551.0,0.0026
1550.0,0.0025
1549.0,0.0025
1548.0,0.0024
1547.0,0.0024
1546.0,0.0024
1545.0,0.0023
1544.0,0.0023
1543.0,0.0022
1542.0,0.0021
1541.0,0.002
1540.0,0.002
1539.0,0.0019
1538.0,0.0018
1537.0,0.0017
1536.0,0.0017
1535.0,0.0018
1534.0,0.0018
1533.0,0.0018
1532.0,0.0018
1531.0,0.0018
1530.0,0.0018
1529.0,0.0018
1528.0,0.0018
1527.0,0.0018
1526.0,0.0018
1525.0,0.0018
1524.0,0.0018
1523.0,0.0017
1522.0,0.0016
1521.0,0.0015
1520.0,0.0015
1519.0,0.0014
1518.0,0.0013
1517.0,0.0012
1516.0,0.0011
1515.0,0.001
1514.0,0.0009
1513.0,0.001
1512.0,0.0011
1511.0,0.0013
1510.0,0.0015
1509.0,0.0019
1508.0,0.0028
1507.0,0.0043
1506.0,0.0054
1505.0,0.0055
1504.0,0.0052
1503.0,0.0048
1502.0,0.0043
1501.0,0.0037
1500.0,0.0031
1499.0,0.0026
1498.0,0.002
1497.0,0.0016
1496.0,0.0013
1495.0,0.0011
1494.0,0.0009
1493.0,0.0008
1492.0,0.0007
1491.0,0.0006
1490.0,0.0005
1489.0,0.0005
1488.0,0.0005
1487.0,0.0006
1486.0,0.0006
1485.0,0.0007
1484.0,0.0008
1483.0,0.001
1482.0,0.0011
1481.0,0.0012
1480.0,0.0014
1479.0,0.0016
1478.0,0.0017
1477.0,0.0018
1476.0,0.002
1475.0,0.002
1474.0,0.002
1473.0,0.0021
1472.0,0.0022
1471.0,0.0022
1470.0,0.0021
1469.0,0.0021
1468.0,0.0021
1467.0,0.0022
1466.0,0.0024
1465.0,0.0026
1464.0,0.0028
1463.0,0.003
1462.0,0.0032
1461.0,0.0034
1460.0,0.0035
1459.0,0.0036
1458.0,0.0038
1457.0,0.0041
1456.0,0.0044
1455.0,0.0045
1454.0,0.0046
1453.0,0.0046
1452.0,0.0045
1451.0,0.0044
1450.0,0.0043
1449.0,0.0042
1448.0,0.0041
1447.0,0.004
1446.0,0.004
1445.0,0.0039
1444.0,0.0038
1443.0,0.0037
1442.0,0.0037
1441.0,0.0036
1440.0,0.0035
1439.0,0.0034
1438.0,0.0032
1437.0,0.003
1436.0,0.0027
1435.0,0.0024
1434.0,0.0021
1433.0,0.0018
1432.0,0.0015
1431.0,0.0011
1430.0,0.0007
1429.0,0.0003
1428.0,0.0001
1427.0,-0.0001
1426.0,-0.0003
1425.0,-0.0004
1424.0,-0.0005
1423.0,-0.0005
1422.0,-0.0004
1421.0,-0.0003
1420.0,-0.0
1419.0,0.0005
1418.0,0.0013
1417.0,0.0022
1416.0,0.0033
1415.0,0.0047
1414.0,0.0063
1413.0,0.0083
1412.0,0.0104
1411.0,0.0124
1410.0,0.0139
1409.0,0.0148
1408.0,0.0152
1407.0,0.0149
1406.0,0.0141
1405.0,0.013
1404.0,0.0117
1403.0,0.0106
1402.0,0.0096
1401.0,0.0087
1400.0,0.0078
1399.0,0.0069
1398.0,0.0062
1397.0,0.0057
1396.0,0.0052
1395.0,0.0047
1394.0,0.0042
1393.0,0.0038
1392.0,0.0035
1391.0,0.0032
1390.0,0.003
1389.0,0.0028
1388.0,0.0026
1387.0,0.0025
1386.0,0.0024
1385.0,0.0024
1384.0,0.0024
1383.0,0.0024
1382.0,0.0024
1381.0,0.0026
1380.0,0.0027
1379.0,0.0029
1378.0,0.003
1377.0,0.0032
1376.0,0.0034
1375.0,0.0037
1374.0,0.004
1373.0,0.0042
1372.0,0.0043
1371.0,0.0043
1370.0,0.0042
1369.0,0.0041
1368.0,0.0038
1367.0,0.0035
1366.0,0.0031
1365.0,0.0027
1364.0,0.0022
1363.0,0.0016
1362.0,0.0012
1361.0,0.0009
1360.0,0.0006
1359.0,0.0004
1358.0,0.0003
1357.0,0.0002
1356.0,0.0003
1355.0,0.0003
1354.0,0.0005
1353.0,0.0008
1352.0,0.0011
1351.0,0.0014
1350.0,0.0019
1349.0,0.0025
1348.0,0.0033
1347.0,0.0041
1346.0,0.0052
1345.0,0.0063
1344.0,0.0075
1343.0,0.0088
1342.0,0.01
1341.0,0.0112
1340.0,0.0122
1339.0,0.0127
1338.0,0.0127
1337.0,0.0121
1336.0,0.0111
1335.0,0.0097
1334.0,0.0081
1333.0,0.0064
1332.0,0.0048
1331.0,0.0035
1330.0,0.0025
1329.0,0.0018
1328.0,0.0014
1327.0,0.0012
1326.0,0.0011
1325.0,0.0012
1324.0,0.0012
1323.0,0.0013
1322.0,0.0015
1321.0,0.0018
1320.0,0.0021
1319.0,0.0024
1318.0,0.0027
1317.0,0.003
1316.0,0.0032
1315.0,0.0035
1314.0,0.0039
1313.0,0.0043
1312.0,0.0048
1311.0,0.0053
1310.0,0.0058
1309.0,0.0063
1308.0,0.0069
1307.0,0.0074
1306.0,0.0079
1305.0,0.0084
1304.0,0.0089
1303.0,0.0095
1302.0,0.0101
1301.0,0.0109
1300.0,0.0118
1299.0,0.0128
1298.0,0.0139
1297.0,0.015
1296.0,0.0162
1295.0,0.0173
1294.0,0.0183
1293.0,0.0194
1292.0,0.0204
1291.0,0.0213
1290.0,0.0222
1289.0,0.0231
1288.0,0.0239
1287.0,0.0246
1286.0,0.0253
1285.0,0.0259
1284.0,0.0265
1283.0,0.0271
1282.0,0.0275
1281.0,0.028
1280.0,0.0285
1279.0,0.029
1278.0,0.0296
1277.0,0.0302
1276.0,0.0309
1275.0,0.0317
1274.0,0.0327
1273.0,0.0338
1272.0,0.035
1271.0,0.0364
1270.0,0.0378
1269.0,0.0392
1268.0,0.0406
1267.0,0.0419
1266.0,0.0431
1265.0,0.0441
1264.0,0.045
1263.0,0.0458
1262.0,0.0464
1261.0,0.0469
1260.0,0.0473
1259.0,0.0476
1258.0,0.0478
1257.0,0.0479
1256.0,0.048
1255.0,0.0482
1254.0,0.0485
1253.0,0.0489
1252.0,0.0494
1251.0,0.0501
1250.0,0.0507
1249.0,0.0515
1248.0,0.0523
1247.0,0.0532
1246.0,0.054
1245.0,0.055
1244.0,0.056
1243.0,0.0569
1242.0,0.0578
1241.0,0.0587
1240.0,0.0594
1239.0,0.06
1238.0,0.0603
1237.0,0.0605
1236.0,0.0604
1235.0,0.0602
1234.0,0.0597
1233.0,0.0591
1232.0,0.0583
1231.0,0.0574
1230.0,0.0563
1229.0,0.0552
1228.0,0.0541
1227.0,0.053
1226.0,0.0518
1225.0,0.0507
1224.0,0.0495
1223.0,0.0483
1222.0,0.0471
1221.0,0.0458
1220.0,0.0446
1219.0,0.0434
1218.0,0.0422
1217.0,0.041
1216.0,0.0399
1215.0,0.0387
1214.0,0.0376
1213.0,0.0366
1212.0,0.0357
1211.0,0.0347
1210.0,0.0338
1209.0,0.033
1208.0,0.0321
1207.0,0.0313
1206.0,0.0305
1205.0,0.0297
1204.0,0.029
1203.0,0.0282
1202.0,0.0275
1201.0,0.0268
1200.0,0.0261
1199.0,0.0253
1198.0,0.0246
1197.0,0.024
1196.0,0.0233
1195.0,0.0227
1194.0,0.022
1193.0,0.0213
1192.0,0.0207
1191.0,0.02
1190.0,0.0194
1189.0,0.0188
1188.0,0.0182
1187.0,0.0177
1186.0,0.0173
1185.0,0.0169
1184.0,0.0166
1183.0,0.0163
1182.0,0.0161
1181.0,0.0159
1180.0,0.0159
1179.0,0.016
1178.0,0.0161
1177.0,0.0161
1176.0,0.0161
1175.0,0.0161
1174.0,0.016
1173.0,0.0158
1172.0,0.0155
1171.0,0.015
1170.0,0.0144
1169.0,0.0138
1168.0,0.0131
1167.0,0.0125
1166.0,0.0119
1165.0,0.0113
1164.0,0.0109
1163.0,0.0105
1162.0,0.0101
1161.0,0.0098
1160.0,0.0096
1159.0,0.0094
1158.0,0.0093
1157.0,0.0092
1156.0,0.0092
1155.0,0.0092
1154.0,0.0092
1153.0,0.0094
1152.0,0.0096
1151.0,0.0098
1150.0,0.0102
1149.0,0.0107
1148.0,0.0112
1147.0,0.0119
1146.0,0.0126
1145.0,0.0133
1144.0,0.014
1143.0,0.0148
1142.0,0.0157
1141.0,0.0166
1140.0,0.0175
1139.0,0.0184
1138.0,0.0193
1137.0,0.0202
1136.0,0.0211
1135.0,0.0221
1134.0,0.0232
1133.0,0.0242
1132.0,0.0254
1131.0,0.0266
1130.0,0.0279
1129.0,0.0293
1128.0,0.0307
1127.0,0.0323
1126.0,0.0338
1125.0,0.0354
1124.0,0.037
1123.0,0.0386
1122.0,0.04
1121.0,0.0413
1120.0,0.0424
1119.0,0.0433
1118.0,0.0439
1117.0,0.0443
1116.0,0.0445
1115.0,0.0444
1114.0,0.0441
1113.0,0.0437
1112.0,0.0435
1111.0,0.0436
1110.0,0.0441
1109.0,0.0451
1108.0,0.0464
1107.0,0.0481
1106.0,0.0499
1105.0,0.0518
1104.0,0.0537
1103.0,0.0556
1102.0,0.0574
1101.0,0.059
1100.0,0.0606
1099.0,0.062
1098.0,0.0632
1097.0,0.0642
1096.0,0.0652
1095.0,0.066
1094.0,0.0665
1093.0,0.0669
1092.0,0.0671
1091.0,0.0671
1090.0,0.0669
1089.0,0.0666
1088.0,0.0664
1087.0,0.066
1086.0,0.0657
1085.0,0.0653
1084.0,0.0648
1083.0,0.0642
1082.0,0.0635
1081.0,0.0627
1080.0,0.0618
1079.0,0.0607
1078.0,0.0595
1077.0,0.0582
1076.0,0.0569
1075.0,0.0555
1074.0,0.0542
1073.0,0.0528
1072.0,0.0515
1071.0,0.0502
1070.0,0.0489
1069.0,0.0476
1068.0,0.0464
1067.0,0.0452
1066.0,0.0441
1065.0,0.0431
1064.0,0.0422
1063.0,0.0413
1062.0,0.0404
1061.0,0.0394
1060.0,0.0386
1059.0,0.0378
1058.0,0.0372
1057.0,0.0367
1056.0,0.0363
1055.0,0.036
1054.0,0.0357
1053.0,0.0355
1052.0,0.0354
1051.0,0.0352
1050.0,0.0352
1049.0,0.0352
1048.0,0.0354
1047.0,0.0355
1046.0,0.0356
1045.0,0.0358
1044.0,0.0359
1043.0,0.0359
1042.0,0.0359
1041.0,0.0357
1040.0,0.0355
1039.0,0.0352
1038.0,0.0348
1037.0,0.0343
1036.0,0.0338
1035.0,0.0332
1034.0,0.0326
1033.0,0.0319
1032.0,0.0314
1031.0,0.0308
1030.0,0.0301
1029.0,0.0295
1028.0,0.029
1027.0,0.0286
1026.0,0.0287
1025.0,0.0294
1024.0,0.0309
1023.0,0.0332
1022.0,0.0363
1021.0,0.0401
1020.0,0.0444
1019.0,0.0486
1018.0,0.0523
1017.0,0.055
1016.0,0.0563
1015.0,0.0562
1014.0,0.0548
1013.0,0.0526
1012.0,0.0501
1011.0,0.0476
1010.0,0.0454
1009.0,0.0434
1008.0,0.0418
1007.0,0.0404
1006.0,0.0392
1005.0,0.0381
1004.0,0.0372
1003.0,0.0365
1002.0,0.0358
1001.0,0.0351
1000.0,0.0346
999.0,0.0341
998.0,0.0336
997.0,0.0331
996.0,0.0327
995.0,0.0322
994.0,0.0318
993.0,0.0314
992.0,0.0311
991.0,0.0308
990.0,0.0305
989.0,0.0303
988.0,0.0301
987.0,0.0299
986.0,0.0298
985.0,0.0297
984.0,0.0296
983.0,0.0297
982.0,0.0298
981.0,0.0301
980.0,0.0304
979.0,0.0307
978.0,0.031
977.0,0.0314
976.0,0.0317
975.0,0.0321
974.0,0.0323
973.0,0.0326
972.0,0.0327
971.0,0.0329
970.0,0.0329
969.0,0.0328
968.0,0.0326
967.0,0.0323
966.0,0.032
965.0,0.0317
964.0,0.0314
963.0,0.031
962.0,0.0307
961.0,0.0304
960.0,0.0301
959.0,0.0297
958.0,0.0293
957.0,0.0288
956.0,0.0284
955.0,0.028
954.0,0.0277
953.0,0.0275
952.0,0.0272
951.0,0.027
950.0,0.0268
949.0,0.0265
948.0,0.0264
947.0,0.0262
946.0,0.0261
945.0,0.0259
944.0,0.0256
943.0,0.0253
942.0,0.0251
941.0,0.0248
940.0,0.0247
939.0,0.0247
938.0,0.0246
937.0,0.0245
936.0,0.0243
935.0,0.0241
934.0,0.0239
933.0,0.0238
932.0,0.0237
931.0,0.0236
930.0,0.0235
929.0,0.0234
928.0,0.0233
927.0,0.0231
926.0,0.0229
925.0,0.0226
924.0,0.0225
923.0,0.0224
922.0,0.0223
921.0,0.0222
920.0,0.022
919.0,0.0219
918.0,0.0217
917.0,0.0216
916.0,0.0214
915.0,0.0213
914.0,0.0211
913.0,0.021
912.0,0.021
911.0,0.0211
910.0,0.0213
909.0,0.0216
908.0,0.0219
907.0,0.0222
906.0,0.0225
905.0,0.0228
904.0,0.0231
903.0,0.0234
902.0,0.0236
901.0,0.0238
900.0,0.0241
899.0,0.0243
898.0,0.0245
897.0,0.0247
896.0,0.0247
895.0,0.0246
894.0,0.0244
893.0,0.0243
892.0,0.0242
891.0,0.0241
890.0,0.024
889.0,0.024
888.0,0.024
887.0,0.0242
886.0,0.0244
885.0,0.0248
884.0,0.0253
883.0,0.0259
882.0,0.0268
881.0,0.0279
880.0,0.0293
879.0,0.031
878.0,0.0328
877.0,0.0349
876.0,0.037
875.0,0.039
874.0,0.0406
873.0,0.0417
872.0,0.042
871.0,0.0414
870.0,0.0402
869.0,0.0386
868.0,0.0371
867.0,0.0356
866.0,0.0344
865.0,0.0334
864.0,0.0326
863.0,0.0319
862.0,0.0314
861.0,0.031
860.0,0.0307
859.0,0.0305
858.0,0.0303
857.0,0.03
856.0,0.0299
855.0,0.0299
854.0,0.03
853.0,0.0301
852.0,0.0302
851.0,0.0304
850.0,0.0306
849.0,0.0309
848.0,0.0311
847.0,0.0312
846.0,0.0311
845.0,0.0311
844.0,0.0312
843.0,0.0313
842.0,0.0314
841.0,0.0313
840.0,0.0312
839.0,0.031
838.0,0.0307
837.0,0.0305
836.0,0.0302
835.0,0.0298
834.0,0.0294
833.0,0.0289
832.0,0.0285
831.0,0.0283
830.0,0.028
829.0,0.0278
828.0,0.0276
827.0,0.0273
826.0,0.0269
825.0,0.0266
824.0,0.0263
823.0,0.026
822.0,0.0258
821.0,0.0256
820.0,0.0255
819.0,0.0253
818.0,0.0252
817.0,0.0251
816.0,0.0252
815.0,0.0252
814.0,0.0252
813.0,0.0251
812.0,0.025
811.0,0.0249
810.0,0.0248
809.0,0.0246
808.0,0.0245
807.0,0.0244
806.0,0.0243
805.0,0.0241
804.0,0.0239
803.0,0.0237
802.0,0.0234
801.0,0.0232
800.0,0.023
799.0,0.023
798.0,0.0234
797.0,0.0241
796.0,0.0251
795.0,0.0261
794.0,0.027
793.0,0.0274
792.0,0.0273
791.0,0.0268
790.0,0.0262
789.0,0.0256
788.0,0.0249
787.0,0.0243
786.0,0.0236
785.0,0.0231
784.0,0.0227
783.0,0.0223
782.0,0.022
781.0,0.0217
780.0,0.0213
779.0,0.0208
778.0,0.0204
777.0,0.02
776.0,0.0196
775.0,0.0191
774.0,0.0186
773.0,0.0181
772.0,0.0178
771.0,0.0175
770.0,0.0173
769.0,0.0171
768.0,0.0168
767.0,0.0166
766.0,0.0162
765.0,0.0158
764.0,0.0154
763.0,0.0149
762.0,0.0144
761.0,0.0139
760.0,0.0133
759.0,0.0127
758.0,0.0122
757.0,0.0119
756.0,0.0117
755.0,0.0115
754.0,0.0113
753.0,0.0108
752.0,0.0103
751.0,0.0099
750.0,0.0096
749.0,0.0095
748.0,0.0094
747.0,0.0093
746.0,0.0093
745.0,0.0096
744.0,0.0102
743.0,0.0112
742.0,0.0127
741.0,0.0153
740.0,0.0192
739.0,0.0241
738.0,0.0299
737.0,0.0364
736.0,0.0435
735.0,0.0509
734.0,0.0586
733.0,0.0666
732.0,0.0748
731.0,0.0833
730.0,0.0919
729.0,0.1005
728.0,0.1091
727.0,0.1169
726.0,0.1234
725.0,0.1277
724.0,0.1294
723.0,0.128
722.0,0.1237
721.0,0.1173
720.0,0.1098
719.0,0.1023
718.0,0.0956
717.0,0.0896
716.0,0.0843
715.0,0.0796
714.0,0.0756
713.0,0.0723
712.0,0.0699
711.0,0.068
710.0,0.0664
709.0,0.0649
708.0,0.0635
707.0,0.0622
706.0,0.061
705.0,0.0598
704.0,0.0589
703.0,0.0579
702.0,0.0568
701.0,0.0554
700.0,0.0539
699.0,0.0524
698.0,0.0509
697.0,0.0492
696.0,0.0474
695.0,0.046
694.0,0.0451
693.0,0.0447
692.0,0.0446
691.0,0.0445
690.0,0.0443
689.0,0.044
688.0,0.0435
687.0,0.0429
686.0,0.0423
685.0,0.0416
684.0,0.041
683.0,0.0407
682.0,0.0409
681.0,0.0413
680.0,0.0415
679.0,0.0412
678.0,0.0409
677.0,0.0405
676.0,0.04
675.0,0.0394
674.0,0.0387
673.0,0.038
672.0,0.0374
671.0,0.0366
670.0,0.0362
669.0,0.0373
668.0,0.039
667.0,0.0387
666.0,0.0374
665.0,0.0361
664.0,0.0349
663.0,0.034
662.0,0.0339
661.0,0.0343
660.0,0.0348
659.0,0.035
658.0,0.0352
657.0,0.0355
656.0,0.0357
655.0,0.0356
654.0,0.0349
653.0,0.0339
652.0,0.0328
651.0,0.032
650.0,0.0318
649.0,0.0321
648.0,0.0327
647.0,0.033
646.0,0.0329
645.0,0.0324
644.0,0.0315
643.0,0.0307
642.0,0.0303
641.0,0.0304
640.0,0.0307
639.0,0.0309
638.0,0.0306
637.0,0.0301
636.0,0.0299
635.0,0.0306
634.0,0.032
633.0,0.0335
632.0,0.0341
631.0,0.0338
630.0,0.0332
629.0,0.0328
628.0,0.0326
627.0,0.0322
626.0,0.0317
625.0,0.0315
624.0,0.0316
623.0,0.0318
622.0,0.0318
621.0,0.0316
620.0,0.0313
619.0,0.031
618.0,0.0308
617.0,0.0307
616.0,0.0308
615.0,0.031
614.0,0.0311
613.0,0.0312
612.0,0.0313
611.0,0.0314
610.0,0.0315
609.0,0.0316
608.0,0.0316
607.0,0.0313
606.0,0.0308
605.0,0.0301
604.0,0.0297
603.0,0.0299
602.0,0.031
601.0,0.0323
600.0,0.033
