cm-1,A
4000.0,0.0091
3999.0,0.0091
3998.0,0.009
3997.0,0.009
3996.0,0.0089
3995.0,0.0089
3994.0,0.0089
3993.0,0.0089
3992.0,0.0089
3991.0,0.0089
3990.0,0.0089
3989.0,0.0089
3988.0,0.0089
3987.0,0.009
3986.0,0.009
3985.0,0.009
3984.0,0.009
3983.0,0.009
3982.0,0.009
3981.0,0.009
3980.0,0.009
3979.0,0.009
3978.0,0.0089
3977.0,0.0089
3976.0,0.009
3975.0,0.009
3974.0,0.009
3973.0,0.0089
3972.0,0.0089
3971.0,0.0089
3970.0,0.0089
3969.0,0.009
3968.0,0.0091
3967.0,0.0091
3966.0,0.0091
3965.0,0.0091
3964.0,0.0091
3963.0,0.009
3962.0,0.009
3961.0,0.009
3960.0,0.009
3959.0,0.0091
3958.0,0.0091
3957.0,0.0091
3956.0,0.0091
3955.0,0.009
3954.0,0.009
3953.0,0.009
3952.0,0.009
3951.0,0.0091
3950.0,0.0091
3949.0,0.0092
3948.0,0.0092
3947.0,0.0091
3946.0,0.0091
3945.0,0.0091
3944.0,0.0091
3943.0,0.0092
3942.0,0.0092
3941.0,0.0092
3940.0,0.0093
3939.0,0.0093
3938.0,0.0092
3937.0,0.0092
3936.0,0.0091
3935.0,0.0091
3934.0,0.0091
3933.0,0.0091
3932.0,0.0092
3931.0,0.0092
3930.0,0.0092
3929.0,0.0092
3928.0,0.0092
3927.0,0.0092
3926.0,0.0091
3925.0,0.009
3924.0,0.009
3923.0,0.009
3922.0,0.0091
3921.0,0.0092
3920.0,0.0093
3919.0,0.0094
3918.0,0.0094
3917.0,0.0094
3916.0,0.0094
3915.0,0.0094
3914.0,0.0094
3913.0,0.0094
3912.0,0.0093
3911.0,0.0092
3910.0,0.0091
3909.0,0.0091
3908.0,0.0091
3907.0,0.0091
3906.0,0.0092
3905.0,0.0092
3904.0,0.0092
3903.0,0.0092
3902.0,0.0093
3901.0,0.0094
3900.0,0.0095
3899.0,0.0094
3898.0,0.0094
3897.0,0.0093
3896.0,0.0092
3895.0,0.0091
3894.0,0.0091
3893.0,0.0091
3892.0,0.0091
3891.0,0.0091
3890.0,0.0091
3889.0,0.0092
3888.0,0.0094
3887.0,0.0095
3886.0,0.0094
3885.0,0.0093
3884.0,0.0093
3883.0,0.0093
3882.0,0.0094
3881.0,0.0093
3880.0,0.0093
3879.0,0.0093
3878.0,0.0093
3877.0,0.0094
3876.0,0.0093
3875.0,0.0092
3874.0,0.0091
3873.0,0.0091
3872.0,0.0092
3871.0,0.0092
3870.0,0.0092
3869.0,0.0091
3868.0,0.0092
3867.0,0.0093
3866.0,0.0094
3865.0,0.0094
3864.0,0.0094
3863.0,0.0095
3862.0,0.0095
3861.0,0.0094
3860.0,0.0093
3859.0,0.0092
3858.0,0.0091
3857.0,0.009
3856.0,0.0089
3855.0,0.0089
3854.0,0.009
3853.0,0.0089
3852.0,0.0088
3851.0,0.009
3850.0,0.0092
3849.0,0.0093
3848.0,0.0092
3847.0,0.0092
3846.0,0.0091
3845.0,0.0091
3844.0,0.009
3843.0,0.0088
3842.0,0.0088
3841.0,0.0087
3840.0,0.0087
3839.0,0.0087
3838.0,0.0087
3837.0,0.0088
3836.0,0.0088
3835.0,0.009
3834.0,0.0091
3833.0,0.0093
3832.0,0.0094
3831.0,0.0095
3830.0,0.0096
3829.0,0.0096
3828.0,0.0096
3827.0,0.0095
3826.0,0.0093
3825.0,0.0093
3824.0,0.0093
3823.0,0.0092
3822.0,0.0091
3821.0,0.009
3820.0,0.0089
3819.0,0.0091
3818.0,0.0092
3817.0,0.0092
3816.0,0.0091
3815.0,0.0091
3814.0,0.0093
3813.0,0.0095
3812.0,0.0095
3811.0,0.0094
3810.0,0.0093
3809.0,0.0093
3808.0,0.0093
3807.0,0.0092
3806.0,0.0091
3805.0,0.0092
3804.0,0.0093
3803.0,0.0094
3802.0,0.0093
3801.0,0.0092
3800.0,0.0092
3799.0,0.0093
3798.0,0.0095
3797.0,0.0095
3796.0,0.0096
3795.0,0.0097
3794.0,0.0098
3793.0,0.0098
3792.0,0.0098
3791.0,0.0097
3790.0,0.0097
3789.0,0.0096
3788.0,0.0096
3787.0,0.0096
3786.0,0.0096
3785.0,0.0096
3784.0,0.0096
3783.0,0.0097
3782.0,0.0098
3781.0,0.0099
3780.0,0.0099
3779.0,0.0099
3778.0,0.0098
3777.0,0.0098
3776.0,0.0097
3775.0,0.0096
3774.0,0.0096
3773.0,0.0096
3772.0,0.0097
3771.0,0.0097
3770.0,0.0098
3769.0,0.0098
3768.0,0.0099
3767.0,0.0099
3766.0,0.0099
3765.0,0.0098
3764.0,0.0097
3763.0,0.0097
3762.0,0.0096
3761.0,0.0095
3760.0,0.0095
3759.0,0.0096
3758.0,0.0097
3757.0,0.0097
3756.0,0.0097
3755.0,0.0098
3754.0,0.0097
3753.0,0.0097
3752.0,0.0098
3751.0,0.0099
3750.0,0.0098
3749.0,0.0097
3748.0,0.0097
3747.0,0.0099
3746.0,0.01
3745.0,0.0101
3744.0,0.0101
3743.0,0.0101
3742.0,0.0103
3741.0,0.0104
3740.0,0.0103
3739.0,0.0102
3738.0,0.0101
3737.0,0.0101
3736.0,0.0101
3735.0,0.0101
3734.0,0.0102
3733.0,0.0103
3732.0,0.0105
3731.0,0.0105
3730.0,0.0106
3729.0,0.0107
3728.0,0.0106
3727.0,0.0105
3726.0,0.0103
3725.0,0.0103
3724.0,0.0104
3723.0,0.0104
3722.0,0.0105
3721.0,0.0105
3720.0,0.0104
3719.0,0.0103
3718.0,0.0102
3717.0,0.01
3716.0,0.0099
3715.0,0.0098
3714.0,0.0098
3713.0,0.01
3712.0,0.0104
3711.0,0.0106
3710.0,0.0106
3709.0,0.0105
3708.0,0.0104
3707.0,0.0103
3706.0,0.0103
3705.0,0.0102
3704.0,0.0102
3703.0,0.0102
3702.0,0.0101
3701.0,0.0101
3700.0,0.0102
3699.0,0.0103
3698.0,0.0104
3697.0,0.0104
3696.0,0.0103
3695.0,0.0103
3694.0,0.0102
3693.0,0.0102
3692.0,0.01
3691.0,0.0098
3690.0,0.0097
3689.0,0.0096
3688.0,0.0096
3687.0,0.0098
3686.0,0.0101
3685.0,0.0102
3684.0,0.0102
3683.0,0.0102
3682.0,0.0102
3681.0,0.0101
3680.0,0.01
3679.0,0.0099
3678.0,0.0099
3677.0,0.01
3676.0,0.01
3675.0,0.0098
3674.0,0.0097
3673.0,0.0098
3672.0,0.0099
3671.0,0.01
3670.0,0.01
3669.0,0.0099
3668.0,0.0099
3667.0,0.01
3666.0,0.0101
3665.0,0.0101
3664.0,0.01
3663.0,0.01
3662.0,0.01
3661.0,0.0099
3660.0,0.0099
3659.0,0.01
3658.0,0.01
3657.0,0.01
3656.0,0.01
3655.0,0.0099
3654.0,0.0099
3653.0,0.0098
3652.0,0.0096
3651.0,0.0094
3650.0,0.0096
3649.0,0.0097
3648.0,0.0098
3647.0,0.0099
3646.0,0.01
3645.0,0.0102
3644.0,0.0102
3643.0,0.0102
3642.0,0.0102
3641.0,0.0102
3640.0,0.0103
3639.0,0.0103
3638.0,0.0104
3637.0,0.0104
3636.0,0.0104
3635.0,0.0105
3634.0,0.0105
3633.0,0.0106
3632.0,0.0107
3631.0,0.0108
3630.0,0.0109
3629.0,0.0109
3628.0,0.0107
3627.0,0.0106
3626.0,0.0107
3625.0,0.0106
3624.0,0.0105
3623.0,0.0104
3622.0,0.0103
3621.0,0.0103
3620.0,0.0102
3619.0,0.0101
3618.0,0.0101
3617.0,0.0102
3616.0,0.0103
3615.0,0.0104
3614.0,0.0105
3613.0,0.0106
3612.0,0.0107
3611.0,0.0108
3610.0,0.0109
3609.0,0.0111
3608.0,0.0112
3607.0,0.0111
3606.0,0.011
3605.0,0.0108
3604.0,0.0107
3603.0,0.0107
3602.0,0.0107
3601.0,0.0107
3600.0,0.0107
3599.0,0.0107
3598.0,0.0106
3597.0,0.0106
3596.0,0.0106
3595.0,0.0107
3594.0,0.0108
3593.0,0.0109
3592.0,0.0108
3591.0,0.0107
3590.0,0.0107
3589.0,0.0108
3588.0,0.0109
3587.0,0.0109
3586.0,0.0109
3585.0,0.0108
3584.0,0.0107
3583.0,0.0107
3582.0,0.0106
3581.0,0.0105
3580.0,0.0105
3579.0,0.0105
3578.0,0.0105
3577.0,0.0106
3576.0,0.0107
3575.0,0.0109
3574.0,0.011
3573.0,0.0109
3572.0,0.0108
3571.0,0.0107
3570.0,0.0106
3569.0,0.0106
3568.0,0.0107
3567.0,0.0108
3566.0,0.0109
3565.0,0.0109
3564.0,0.0109
3563.0,0.0109
3562.0,0.0108
3561.0,0.0108
3560.0,0.0107
3559.0,0.0107
3558.0,0.0107
3557.0,0.0108
3556.0,0.0108
3555.0,0.0109
3554.0,0.011
3553.0,0.011
3552.0,0.011
3551.0,0.011
3550.0,0.011
3549.0,0.011
3548.0,0.0111
3547.0,0.0111
3546.0,0.0111
3545.0,0.0111
3544.0,0.011
3543.0,0.011
3542.0,0.011
3541.0,0.011
3540.0,0.011
3539.0,0.0111
3538.0,0.011
3537.0,0.011
3536.0,0.0109
3535.0,0.0109
3534.0,0.0109
3533.0,0.0109
3532.0,0.0109
3531.0,0.0109
3530.0,0.0109
3529.0,0.011
3528.0,0.0111
3527.0,0.0111
3526.0,0.0111
3525.0,0.0111
3524.0,0.0112
3523.0,0.0112
3522.0,0.0112
3521.0,0.0111
3520.0,0.0111
3519.0,0.0112
3518.0,0.0112
3517.0,0.0113
3516.0,0.0113
3515.0,0.0112
3514.0,0.0111
3513.0,0.0111
3512.0,0.0112
3511.0,0.0113
3510.0,0.0114
3509.0,0.0114
3508.0,0.0114
3507.0,0.0114
3506.0,0.0114
3505.0,0.0114
3504.0,0.0114
3503.0,0.0115
3502.0,0.0115
3501.0,0.0115
3500.0,0.0114
3499.0,0.0114
3498.0,0.0114
3497.0,0.0114
3496.0,0.0114
3495.0,0.0115
3494.0,0.0115
3493.0,0.0115
3492.0,0.0115
3491.0,0.0115
3490.0,0.0114
3489.0,0.0114
3488.0,0.0114
3487.0,0.0115
3486.0,0.0115
3485.0,0.0115
3484.0,0.0115
3483.0,0.0114
3482.0,0.0114
3481.0,0.0114
3480.0,0.0114
3479.0,0.0115
3478.0,0.0115
3477.0,0.0114
3476.0,0.0113
3475.0,0.0113
3474.0,0.0113
3473.0,0.0113
3472.0,0.0114
3471.0,0.0115
3470.0,0.0115
3469.0,0.0115
3468.0,0.0115
3467.0,0.0114
3466.0,0.0114
3465.0,0.0114
3464.0,0.0114
3463.0,0.0114
3462.0,0.0115
3461.0,0.0116
3460.0,0.0116
3459.0,0.0116
3458.0,0.0115
3457.0,0.0115
3456.0,0.0115
3455.0,0.0116
3454.0,0.0116
3453.0,0.0117
3452.0,0.0117
3451.0,0.0117
3450.0,0.0116
3449.0,0.0116
3448.0,0.0116
3447.0,0.0116
3446.0,0.0117
3445.0,0.0117
3444.0,0.0118
3443.0,0.0118
3442.0,0.0118
3441.0,0.0117
3440.0,0.0117
3439.0,0.0117
3438.0,0.0117
3437.0,0.0117
3436.0,0.0117
3435.0,0.0118
3434.0,0.0118
3433.0,0.0119
3432.0,0.0119
3431.0,0.0119
3430.0,0.0118
3429.0,0.0118
3428.0,0.0117
3427.0,0.0117
3426.0,0.0117
3425.0,0.0116
3424.0,0.0116
3423.0,0.0115
3422.0,0.0116
3421.0,0.0116
3420.0,0.0117
3419.0,0.0117
3418.0,0.0118
3417.0,0.0118
3416.0,0.0118
3415.0,0.0118
3414.0,0.0118
3413.0,0.0119
3412.0,0.0119
3411.0,0.0119
3410.0,0.0119
3409.0,0.012
3408.0,0.012
3407.0,0.0119
3406.0,0.0118
3405.0,0.0117
3404.0,0.0116
3403.0,0.0116
3402.0,0.0116
3401.0,0.0117
3400.0,0.0118
3399.0,0.0119
3398.0,0.0119
3397.0,0.0119
3396.0,0.0119
3395.0,0.0118
3394.0,0.0118
3393.0,0.0118
3392.0,0.0118
3391.0,0.0117
3390.0,0.0116
3389.0,0.0116
3388.0,0.0116
3387.0,0.0116
3386.0,0.0117
3385.0,0.0118
3384.0,0.0118
3383.0,0.0118
3382.0,0.0118
3381.0,0.0117
3380.0,0.0117
3379.0,0.0116
3378.0,0.0116
3377.0,0.0117
3376.0,0.0117
3375.0,0.0117
3374.0,0.0117
3373.0,0.0117
3372.0,0.0118
3371.0,0.0119
3370.0,0.012
3369.0,0.012
3368.0,0.0119
3367.0,0.0118
3366.0,0.0116
3365.0,0.0116
3364.0,0.0115
3363.0,0.0115
3362.0,0.0116
3361.0,0.0116
3360.0,0.0116
3359.0,0.0116
3358.0,0.0116
3357.0,0.0116
3356.0,0.0116
3355.0,0.0116
3354.0,0.0116
3353.0,0.0116
3352.0,0.0116
3351.0,0.0117
3350.0,0.0117
3349.0,0.0117
3348.0,0.0117
3347.0,0.0117
3346.0,0.0116
3345.0,0.0116
3344.0,0.0116
3343.0,0.0116
3342.0,0.0116
3341.0,0.0116
3340.0,0.0116
3339.0,0.0116
3338.0,0.0115
3337.0,0.0115
3336.0,0.0115
3335.0,0.0115
3334.0,0.0115
3333.0,0.0115
3332.0,0.0115
3331.0,0.0115
3330.0,0.0115
3329.0,0.0115
3328.0,0.0114
3327.0,0.0114
3326.0,0.0114
3325.0,0.0114
3324.0,0.0113
3323.0,0.0112
3322.0,0.0111
3321.0,0.0111
3320.0,0.0112
3319.0,0.0112
3318.0,0.0113
3317.0,0.0113
3316.0,0.0112
3315.0,0.0112
3314.0,0.0112
3313.0,0.0112
3312.0,0.0112
3311.0,0.0112
3310.0,0.0112
3309.0,0.0112
3308.0,0.0112
3307.0,0.0112
3306.0,0.0112
3305.0,0.0112
3304.0,0.0111
3303.0,0.0111
3302.0,0.0111
3301.0,0.0111
3300.0,0.0111
3299.0,0.0111
3298.0,0.011
3297.0,0.0109
3296.0,0.0109
3295.0,0.011
3294.0,0.0111
3293.0,0.0112
3292.0,0.0112
3291.0,0.011
3290.0,0.0109
3289.0,0.0109
3288.0,0.0109
3287.0,0.011
3286.0,0.011
3285.0,0.011
3284.0,0.011
3283.0,0.011
3282.0,0.011
3281.0,0.0109
3280.0,0.0109
3279.0,0.0108
3278.0,0.0108
3277.0,0.0107
3276.0,0.0107
3275.0,0.0107
3274.0,0.0107
3273.0,0.0107
3272.0,0.0106
3271.0,0.0106
3270.0,0.0105
3269.0,0.0105
3268.0,0.0106
3267.0,0.0106
3266.0,0.0107
3265.0,0.0106
3264.0,0.0106
3263.0,0.0106
3262.0,0.0106
3261.0,0.0106
3260.0,0.0106
3259.0,0.0106
3258.0,0.0105
3257.0,0.0105
3256.0,0.0104
3255.0,0.0104
3254.0,0.0104
3253.0,0.0104
3252.0,0.0103
3251.0,0.0103
3250.0,0.0103
3249.0,0.0103
3248.0,0.0104
3247.0,0.0105
3246.0,0.0105
3245.0,0.0105
3244.0,0.0105
3243.0,0.0105
3242.0,0.0104
3241.0,0.0104
3240.0,0.0104
3239.0,0.0104
3238.0,0.0104
3237.0,0.0103
3236.0,0.0103
3235.0,0.0103
3234.0,0.0104
3233.0,0.0104
3232.0,0.0104
3231.0,0.0104
3230.0,0.0103
3229.0,0.0102
3228.0,0.0102
3227.0,0.0103
3226.0,0.0104
3225.0,0.0105
3224.0,0.0104
3223.0,0.0104
3222.0,0.0103
3221.0,0.0103
3220.0,0.0104
3219.0,0.0105
3218.0,0.0105
3217.0,0.0105
3216.0,0.0105
3215.0,0.0105
3214.0,0.0105
3213.0,0.0106
3212.0,0.0106
3211.0,0.0105
3210.0,0.0105
3209.0,0.0104
3208.0,0.0104
3207.0,0.0103
3206.0,0.0104
3205.0,0.0104
3204.0,0.0104
3203.0,0.0104
3202.0,0.0105
3201.0,0.0104
3200.0,0.0104
3199.0,0.0103
3198.0,0.0103
3197.0,0.0103
3196.0,0.0104
3195.0,0.0104
3194.0,0.0103
3193.0,0.0103
3192.0,0.0103
3191.0,0.0103
3190.0,0.0103
3189.0,0.0103
3188.0,0.0102
3187.0,0.0101
3186.0,0.01
3185.0,0.0099
3184.0,0.0099
3183.0,0.01
3182.0,0.01
3181.0,0.01
3180.0,0.01
3179.0,0.0099
3178.0,0.0098
3177.0,0.0098
3176.0,0.0097
3175.0,0.0097
3174.0,0.0097
3173.0,0.0096
3172.0,0.0096
3171.0,0.0095
3170.0,0.0095
3169.0,0.0096
3168.0,0.0096
3167.0,0.0097
3166.0,0.0097
3165.0,0.0097
3164.0,0.0096
3163.0,0.0096
3162.0,0.0096
3161.0,0.0096
3160.0,0.0096
3159.0,0.0097
3158.0,0.0096
3157.0,0.0096
3156.0,0.0095
3155.0,0.0094
3154.0,0.0094
3153.0,0.0094
3152.0,0.0094
3151.0,0.0095
3150.0,0.0095
3149.0,0.0096
3148.0,0.0096
3147.0,0.0095
3146.0,0.0094
3145.0,0.0093
3144.0,0.0092
3143.0,0.0092
3142.0,0.0092
3141.0,0.0093
3140.0,0.0093
3139.0,0.0093
3138.0,0.0092
3137.0,0.0092
3136.0,0.0091
3135.0,0.009
3134.0,0.009
3133.0,0.0089
3132.0,0.0088
3131.0,0.0087
3130.0,0.0087
3129.0,0.0086
3128.0,0.0086
3127.0,0.0085
3126.0,0.0085
3125.0,0.0085
3124.0,0.0085
3123.0,0.0085
3122.0,0.0084
3121.0,0.0083
3120.0,0.0083
3119.0,0.0083
3118.0,0.0083
3117.0,0.0083
3116.0,0.0083
3115.0,0.0082
3114.0,0.0082
3113.0,0.0082
3112.0,0.0081
3111.0,0.0081
3110.0,0.008
3109.0,0.0079
3108.0,0.0078
3107.0,0.0078
3106.0,0.0077
3105.0,0.0077
3104.0,0.0077
3103.0,0.0077
3102.0,0.0077
3101.0,0.0077
3100.0,0.0077
3099.0,0.0077
3098.0,0.0076
3097.0,0.0076
3096.0,0.0075
3095.0,0.0074
3094.0,0.0074
3093.0,0.0073
3092.0,0.0072
3091.0,0.0072
3090.0,0.0072
3089.0,0.0072
3088.0,0.0072
3087.0,0.0072
3086.0,0.0071
3085.0,0.007
3084.0,0.0069
3083.0,0.0069
3082.0,0.0068
3081.0,0.0068
3080.0,0.0068
3079.0,0.0068
3078.0,0.0068
3077.0,0.0067
3076.0,0.0067
3075.0,0.0067
3074.0,0.0066
3073.0,0.0065
3072.0,0.0065
3071.0,0.0064
3070.0,0.0063
3069.0,0.0063
3068.0,0.0062
3067.0,0.0061
3066.0,0.006
3065.0,0.006
3064.0,0.006
3063.0,0.006
3062.0,0.0061
3061.0,0.006
3060.0,0.006
3059.0,0.0059
3058.0,0.0059
3057.0,0.0059
3056.0,0.0059
3055.0,0.0059
3054.0,0.0059
3053.0,0.0059
3052.0,0.0059
3051.0,0.0058
3050.0,0.0058
3049.0,0.0057
3048.0,0.0055
3047.0,0.0055
3046.0,0.0054
3045.0,0.0053
3044.0,0.0052
3043.0,0.0051
3042.0,0.005
3041.0,0.005
3040.0,0.0049
3039.0,0.0049
3038.0,0.0048
3037.0,0.0048
3036.0,0.0046
3035.0,0.0045
3034.0,0.0044
3033.0,0.0044
3032.0,0.0044
3031.0,0.0044
3030.0,0.0044
3029.0,0.0044
3028.0,0.0043
3027.0,0.0043
3026.0,0.0042
3025.0,0.0042
3024.0,0.0041
3023.0,0.004
3022.0,0.004
3021.0,0.004
3020.0,0.0039
3019.0,0.0039
3018.0,0.0038
3017.0,0.0038
3016.0,0.0038
3015.0,0.0037
3014.0,0.0037
3013.0,0.0036
3012.0,0.0036
3011.0,0.0036
3010.0,0.0035
3009.0,0.0035
3008.0,0.0035
3007.0,0.0035
3006.0,0.0036
3005.0,0.0036
3004.0,0.0036
3003.0,0.0036
3002.0,0.0036
3001.0,0.0037
3000.0,0.0037
2999.0,0.0038
2998.0,0.0039
2997.0,0.004
2996.0,0.0041
2995.0,0.0043
2994.0,0.0045
2993.0,0.0047
2992.0,0.005
2991.0,0.0053
2990.0,0.0057
2989.0,0.0061
2988.0,0.0066
2987.0,0.0071
2986.0,0.0078
2985.0,0.0086
2984.0,0.0095
2983.0,0.0106
2982.0,0.0119
2981.0,0.0133
2980.0,0.015
2979.0,0.0169
2978.0,0.0192
2977.0,0.0217
2976.0,0.0247
2975.0,0.028
2974.0,0.0318
2973.0,0.0362
2972.0,0.0411
2971.0,0.0466
2970.0,0.0528
2969.0,0.0597
2968.0,0.067
2967.0,0.0747
2966.0,0.0826
2965.0,0.0907
2964.0,0.0984
2963.0,0.1053
2962.0,0.1109
2961.0,0.115
2960.0,0.1178
2959.0,0.1197
2958.0,0.1212
2957.0,0.123
2956.0,0.1257
2955.0,0.1294
2954.0,0.1342
2953.0,0.1393
2952.0,0.144
2951.0,0.1471
2950.0,0.1479
2949.0,0.1458
2948.0,0.1408
2947.0,0.1333
2946.0,0.1243
2945.0,0.1146
2944.0,0.1051
2943.0,0.0966
2942.0,0.0896
2941.0,0.0841
2940.0,0.0804
2939.0,0.0782
2938.0,0.0775
2937.0,0.0781
2936.0,0.08
2935.0,0.0829
2934.0,0.0869
2933.0,0.0919
2932.0,0.0978
2931.0,0.1043
2930.0,0.1112
2929.0,0.1183
2928.0,0.1253
2927.0,0.1321
2926.0,0.1387
2925.0,0.145
2924.0,0.1511
2923.0,0.1573
2922.0,0.1633
2921.0,0.1691
2920.0,0.1741
2919.0,0.1778
2918.0,0.1795
2917.0,0.179
2916.0,0.1763
2915.0,0.1721
2914.0,0.167
2913.0,0.1617
2912.0,0.1569
2911.0,0.1527
2910.0,0.1492
2909.0,0.146
2908.0,0.143
2907.0,0.14
2906.0,0.1367
2905.0,0.1331
2904.0,0.1293
2903.0,0.1253
2902.0,0.1213
2901.0,0.1172
2900.0,0.1132
2899.0,0.1093
2898.0,0.1056
2897.0,0.1022
2896.0,0.0992
2895.0,0.0966
2894.0,0.0945
2893.0,0.0929
2892.0,0.0916
2891.0,0.0908
2890.0,0.0904
2889.0,0.0902
2888.0,0.0904
2887.0,0.0907
2886.0,0.0911
2885.0,0.0918
2884.0,0.0927
2883.0,0.0939
2882.0,0.0954
2881.0,0.0971
2880.0,0.0986
2879.0,0.0998
2878.0,0.1004
2877.0,0.1004
2876.0,0.1
2875.0,0.0994
2874.0,0.099
2873.0,0.0991
2872.0,0.0999
2871.0,0.1011
2870.0,0.1027
2869.0,0.1043
2868.0,0.1053
2867.0,0.1051
2866.0,0.1032
2865.0,0.0994
2864.0,0.0941
2863.0,0.0878
2862.0,0.0812
2861.0,0.0751
2860.0,0.0697
2859.0,0.0652
2858.0,0.0617
2857.0,0.059
2856.0,0.0571
2855.0,0.056
2854.0,0.0554
2853.0,0.0555
2852.0,0.056
2851.0,0.057
2850.0,0.0587
2849.0,0.0609
2848.0,0.0639
2847.0,0.0676
2846.0,0.072
2845.0,0.077
2844.0,0.0825
2843.0,0.0883
2842.0,0.094
2841.0,0.0992
2840.0,0.1032
2839.0,0.1058
2838.0,0.1063
2837.0,0.1047
2836.0,0.1011
2835.0,0.0958
2834.0,0.0894
2833.0,0.0827
2832.0,0.0762
2831.0,0.0703
2830.0,0.0652
2829.0,0.061
2828.0,0.0575
2827.0,0.0546
2826.0,0.0522
2825.0,0.0502
2824.0,0.0485
2823.0,0.047
2822.0,0.0457
2821.0,0.0444
2820.0,0.0433
2819.0,0.0424
2818.0,0.0415
2817.0,0.0407
2816.0,0.04
2815.0,0.0393
2814.0,0.0388
2813.0,0.0382
2812.0,0.0378
2811.0,0.0373
2810.0,0.0368
2809.0,0.0362
2808.0,0.0357
2807.0,0.0351
2806.0,0.0345
2805.0,0.034
2804.0,0.0334
2803.0,0.0328
2802.0,0.0323
2801.0,0.0318
2800.0,0.0313
2799.0,0.031
2798.0,0.0307
2797.0,0.0305
2796.0,0.0302
2795.0,0.0299
2794.0,0.0296
2793.0,0.0293
2792.0,0.029
2791.0,0.0287
2790.0,0.0284
2789.0,0.028
2788.0,0.0277
2787.0,0.0274
2786.0,0.0271
2785.0,0.0268
2784.0,0.0265
2783.0,0.0262
2782.0,0.0259
2781.0,0.0257
2780.0,0.0254
2779.0,0.0252
2778.0,0.025
2777.0,0.0248
2776.0,0.0246
2775.0,0.0244
2774.0,0.0242
2773.0,0.0241
2772.0,0.0239
2771.0,0.0238
2770.0,0.0238
2769.0,0.0237
2768.0,0.0237
2767.0,0.0236
2766.0,0.0235
2765.0,0.0233
2764.0,0.0232
2763.0,0.0231
2762.0,0.023
2761.0,0.0228
2760.0,0.0227
2759.0,0.0226
2758.0,0.0225
2757.0,0.0224
2756.0,0.0224
2755.0,0.0223
2754.0,0.0222
2753.0,0.0222
2752.0,0.0221
2751.0,0.022
2750.0,0.0219
2749.0,0.0219
2748.0,0.0219
2747.0,0.0219
2746.0,0.0219
2745.0,0.0219
2744.0,0.0219
2743.0,0.022
2742.0,0.0221
2741.0,0.0221
2740.0,0.0222
2739.0,0.0223
2738.0,0.0223
2737.0,0.0224
2736.0,0.0224
2735.0,0.0224
2734.0,0.0225
2733.0,0.0226
2732.0,0.0227
2731.0,0.0229
2730.0,0.023
2729.0,0.0232
2728.0,0.0235
2727.0,0.0237
2726.0,0.0238
2725.0,0.024
2724.0,0.0241
2723.0,0.0242
2722.0,0.0242
2721.0,0.0241
2720.0,0.0239
2719.0,0.0237
2718.0,0.0235
2717.0,0.0232
2716.0,0.023
2715.0,0.0227
2714.0,0.0225
2713.0,0.0223
2712.0,0.0221
2711.0,0.0219
2710.0,0.0218
2709.0,0.0217
2708.0,0.0215
2707.0,0.0214
2706.0,0.0212
2705.0,0.0211
2704.0,0.0209
2703.0,0.0207
2702.0,0.0206
2701.0,0.0206
2700.0,0.0205
2699.0,0.0205
2698.0,0.0204
2697.0,0.0203
2696.0,0.0202
2695.0,0.0201
2694.0,0.0201
2693.0,0.02
2692.0,0.02
2691.0,0.02
2690.0,0.02
2689.0,0.02
2688.0,0.0199
2687.0,0.0199
2686.0,0.0198
2685.0,0.0199
2684.0,0.0199
2683.0,0.02
2682.0,0.02
2681.0,0.02
2680.0,0.02
2679.0,0.0199
2678.0,0.0199
2677.0,0.0199
2676.0,0.0199
2675.0,0.0198
2674.0,0.0197
2673.0,0.0197
2672.0,0.0196
2671.0,0.0195
2670.0,0.0195
2669.0,0.0194
2668.0,0.0194
2667.0,0.0194
2666.0,0.0194
2665.0,0.0194
2664.0,0.0194
2663.0,0.0194
2662.0,0.0194
2661.0,0.0194
2660.0,0.0194
2659.0,0.0194
2658.0,0.0194
2657.0,0.0193
2656.0,0.0193
2655.0,0.0192
2654.0,0.0191
2653.0,0.019
2652.0,0.0189
2651.0,0.0188
2650.0,0.0187
2649.0,0.0187
2648.0,0.0188
2647.0,0.0188
2646.0,0.0188
2645.0,0.0187
2644.0,0.0186
2643.0,0.0185
2642.0,0.0184
2641.0,0.0184
2640.0,0.0183
2639.0,0.0183
2638.0,0.0182
2637.0,0.0181
2636.0,0.018
2635.0,0.018
2634.0,0.018
2633.0,0.018
2632.0,0.0181
2631.0,0.0182
2630.0,0.0182
2629.0,0.0183
2628.0,0.0183
2627.0,0.0183
2626.0,0.0183
2625.0,0.0183
2624.0,0.0183
2623.0,0.0184
2622.0,0.0184
2621.0,0.0185
2620.0,0.0185
2619.0,0.0184
2618.0,0.0184
2617.0,0.0184
2616.0,0.0183
2615.0,0.0182
2614.0,0.0182
2613.0,0.0181
2612.0,0.0181
2611.0,0.0181
2610.0,0.0181
2609.0,0.018
2608.0,0.018
2607.0,0.0179
2606.0,0.0178
2605.0,0.0177
2604.0,0.0176
2603.0,0.0176
2602.0,0.0175
2601.0,0.0174
2600.0,0.0174
2599.0,0.0175
2598.0,0.0175
2597.0,0.0175
2596.0,0.0175
2595.0,0.0175
2594.0,0.0175
2593.0,0.0176
2592.0,0.0176
2591.0,0.0176
2590.0,0.0176
2589.0,0.0177
2588.0,0.0178
2587.0,0.0179
2586.0,0.018
2585.0,0.0181
2584.0,0.0182
2583.0,0.0182
2582.0,0.0182
2581.0,0.0182
2580.0,0.0181
2579.0,0.0181
2578.0,0.018
2577.0,0.0179
2576.0,0.0178
2575.0,0.0177
2574.0,0.0176
2573.0,0.0175
2572.0,0.0174
2571.0,0.0173
2570.0,0.0173
2569.0,0.0173
2568.0,0.0172
2567.0,0.0172
2566.0,0.0171
2565.0,0.017
2564.0,0.017
2563.0,0.017
2562.0,0.0169
2561.0,0.0168
2560.0,0.0168
2559.0,0.0167
2558.0,0.0167
2557.0,0.0167
2556.0,0.0167
2555.0,0.0167
2554.0,0.0166
2553.0,0.0166
2552.0,0.0165
2551.0,0.0165
2550.0,0.0165
2549.0,0.0165
2548.0,0.0164
2547.0,0.0163
2546.0,0.0163
2545.0,0.0163
2544.0,0.0164
2543.0,0.0163
2542.0,0.0163
2541.0,0.0162
2540.0,0.0162
2539.0,0.0162
2538.0,0.0162
2537.0,0.0162
2536.0,0.0162
2535.0,0.0161
2534.0,0.0161
2533.0,0.016
2532.0,0.016
2531.0,0.0159
2530.0,0.0158
2529.0,0.0158
2528.0,0.0157
2527.0,0.0157
2526.0,0.0157
2525.0,0.0158
2524.0,0.0158
2523.0,0.0157
2522.0,0.0157
2521.0,0.0156
2520.0,0.0155
2519.0,0.0155
2518.0,0.0155
2517.0,0.0155
2516.0,0.0154
2515.0,0.0154
2514.0,0.0154
2513.0,0.0154
2512.0,0.0154
2511.0,0.0153
2510.0,0.0153
2509.0,0.0152
2508.0,0.0152
2507.0,0.0152
2506.0,0.0152
2505.0,0.0152
2504.0,0.0152
2503.0,0.0152
2502.0,0.0152
2501.0,0.0152
2500.0,0.0152
2499.0,0.0152
2498.0,0.0152
2497.0,0.0152
2496.0,0.0152
2495.0,0.0152
2494.0,0.0152
2493.0,0.0152
2492.0,0.0152
2491.0,0.0151
2490.0,0.0151
2489.0,0.015
2488.0,0.015
2487.0,0.0151
2486.0,0.0151
2485.0,0.0151
2484.0,0.015
2483.0,0.0149
2482.0,0.0148
2481.0,0.0148
2480.0,0.0149
2479.0,0.0149
2478.0,0.0149
2477.0,0.0148
2476.0,0.0148
2475.0,0.0148
2474.0,0.0148
2473.0,0.0148
2472.0,0.0148
2471.0,0.0148
2470.0,0.0148
2469.0,0.0148
2468.0,0.0148
2467.0,0.0148
2466.0,0.0148
2465.0,0.0148
2464.0,0.0149
2463.0,0.0149
2462.0,0.0149
2461.0,0.0148
2460.0,0.0148
2459.0,0.0148
2458.0,0.0148
2457.0,0.0148
2456.0,0.0148
2455.0,0.0148
2454.0,0.0148
2453.0,0.0148
2452.0,0.0147
2451.0,0.0147
2450.0,0.0147
2449.0,0.0147
2448.0,0.0147
2447.0,0.0147
2446.0,0.0147
2445.0,0.0146
2444.0,0.0147
2443.0,0.0147
2442.0,0.0148
2441.0,0.0148
2440.0,0.0149
2439.0,0.0148
2438.0,0.0148
2437.0,0.0148
2436.0,0.0148
2435.0,0.0148
2434.0,0.0148
2433.0,0.0148
2432.0,0.0148
2431.0,0.0149
2430.0,0.0148
2429.0,0.0148
2428.0,0.0148
2427.0,0.0148
2426.0,0.0148
2425.0,0.0148
2424.0,0.0149
2423.0,0.0149
2422.0,0.0148
2421.0,0.0148
2420.0,0.0147
2419.0,0.0146
2418.0,0.0146
2417.0,0.0146
2416.0,0.0147
2415.0,0.0147
2414.0,0.0147
2413.0,0.0146
2412.0,0.0146
2411.0,0.0146
2410.0,0.0146
2409.0,0.0146
2408.0,0.0146
2407.0,0.0145
2406.0,0.0145
2405.0,0.0145
2404.0,0.0146
2403.0,0.0146
2402.0,0.0146
2401.0,0.0145
2400.0,0.0145
2399.0,0.0145
2398.0,0.0146
2397.0,0.0146
2396.0,0.0147
2395.0,0.0147
2394.0,0.0147
2393.0,0.0147
2392.0,0.0147
2391.0,0.0147
2390.0,0.0147
2389.0,0.0148
2388.0,0.015
2387.0,0.0151
2386.0,0.0152
2385.0,0.0154
2384.0,0.0154
2383.0,0.0154
2382.0,0.0153
2381.0,0.015
2380.0,0.0147
2379.0,0.0144
2378.0,0.0142
2377.0,0.0143
2376.0,0.0147
2375.0,0.0151
2374.0,0.0154
2373.0,0.0157
2372.0,0.0157
2371.0,0.0156
2370.0,0.0153
2369.0,0.0152
2368.0,0.0156
2367.0,0.0166
2366.0,0.0177
2365.0,0.0181
2364.0,0.0173
2363.0,0.016
2362.0,0.0151
2361.0,0.0148
2360.0,0.0152
2359.0,0.0157
2358.0,0.0156
2357.0,0.0149
2356.0,0.0143
2355.0,0.0145
2354.0,0.0152
2353.0,0.0156
2352.0,0.0155
2351.0,0.0155
2350.0,0.0156
2349.0,0.0156
2348.0,0.0155
2347.0,0.0154
2346.0,0.0157
2345.0,0.0163
2344.0,0.0169
2343.0,0.0172
2342.0,0.017
2341.0,0.0163
2340.0,0.0156
2339.0,0.0152
2338.0,0.015
2337.0,0.0148
2336.0,0.0144
2335.0,0.0141
2334.0,0.0137
2333.0,0.0135
2332.0,0.0135
2331.0,0.0138
2330.0,0.0144
2329.0,0.0152
2328.0,0.0159
2327.0,0.0163
2326.0,0.0163
2325.0,0.0158
2324.0,0.015
2323.0,0.0145
2322.0,0.0143
2321.0,0.0145
2320.0,0.0149
2319.0,0.0153
2318.0,0.0155
2317.0,0.0156
2316.0,0.0156
2315.0,0.0155
2314.0,0.0153
2313.0,0.0153
2312.0,0.0155
2311.0,0.0158
2310.0,0.0159
2309.0,0.0159
2308.0,0.0158
2307.0,0.0156
2306.0,0.0154
2305.0,0.0154
2304.0,0.0155
2303.0,0.0156
2302.0,0.0157
2301.0,0.0158
2300.0,0.0158
2299.0,0.0157
2298.0,0.0156
2297.0,0.0155
2296.0,0.0154
2295.0,0.0153
2294.0,0.0152
2293.0,0.0151
2292.0,0.015
2291.0,0.0149
2290.0,0.0147
2289.0,0.0146
2288.0,0.0145
2287.0,0.0143
2286.0,0.0142
2285.0,0.0141
2284.0,0.014
2283.0,0.014
2282.0,0.014
2281.0,0.014
2280.0,0.014
2279.0,0.014
2278.0,0.014
2277.0,0.014
2276.0,0.014
2275.0,0.014
2274.0,0.014
2273.0,0.0141
2272.0,0.0141
2271.0,0.0141
2270.0,0.0141
2269.0,0.0141
2268.0,0.014
2267.0,0.014
2266.0,0.014
2265.0,0.014
2264.0,0.014
2263.0,0.014
2262.0,0.014
2261.0,0.014
2260.0,0.014
2259.0,0.014
2258.0,0.014
2257.0,0.014
2256.0,0.014
2255.0,0.0139
2254.0,0.0138
2253.0,0.0138
2252.0,0.0137
2251.0,0.0137
2250.0,0.0137
2249.0,0.0137
2248.0,0.0136
2247.0,0.0136
2246.0,0.0135
2245.0,0.0135
2244.0,0.0135
2243.0,0.0135
2242.0,0.0135
2241.0,0.0135
2240.0,0.0135
2239.0,0.0135
2238.0,0.0135
2237.0,0.0135
2236.0,0.0135
2235.0,0.0135
2234.0,0.0136
2233.0,0.0136
2232.0,0.0135
2231.0,0.0135
2230.0,0.0134
2229.0,0.0134
2228.0,0.0134
2227.0,0.0134
2226.0,0.0134
2225.0,0.0134
2224.0,0.0134
2223.0,0.0134
2222.0,0.0133
2221.0,0.0133
2220.0,0.0133
2219.0,0.0133
2218.0,0.0133
2217.0,0.0133
2216.0,0.0133
2215.0,0.0133
2214.0,0.0133
2213.0,0.0133
2212.0,0.0133
2211.0,0.0133
2210.0,0.0133
2209.0,0.0133
2208.0,0.0134
2207.0,0.0134
2206.0,0.0133
2205.0,0.0133
2204.0,0.0133
2203.0,0.0133
2202.0,0.0134
2201.0,0.0134
2200.0,0.0134
2199.0,0.0134
2198.0,0.0135
2197.0,0.0135
2196.0,0.0136
2195.0,0.0136
2194.0,0.0135
2193.0,0.0134
2192.0,0.0134
2191.0,0.0134
2190.0,0.0134
2189.0,0.0134
2188.0,0.0134
2187.0,0.0134
2186.0,0.0134
2185.0,0.0134
2184.0,0.0134
2183.0,0.0134
2182.0,0.0134
2181.0,0.0134
2180.0,0.0135
2179.0,0.0135
2178.0,0.0135
2177.0,0.0135
2176.0,0.0135
2175.0,0.0135
2174.0,0.0135
2173.0,0.0135
2172.0,0.0136
2171.0,0.0136
2170.0,0.0135
2169.0,0.0135
2168.0,0.0135
2167.0,0.0135
2166.0,0.0135
2165.0,0.0134
2164.0,0.0134
2163.0,0.0133
2162.0,0.0133
2161.0,0.0133
2160.0,0.0133
2159.0,0.0133
2158.0,0.0133
2157.0,0.0133
2156.0,0.0133
2155.0,0.0133
2154.0,0.0133
2153.0,0.0133
2152.0,0.0133
2151.0,0.0132
2150.0,0.0132
2149.0,0.0132
2148.0,0.0132
2147.0,0.0132
2146.0,0.0132
2145.0,0.0132
2144.0,0.0133
2143.0,0.0133
2142.0,0.0134
2141.0,0.0134
2140.0,0.0134
2139.0,0.0133
2138.0,0.0132
2137.0,0.0132
2136.0,0.0132
2135.0,0.0132
2134.0,0.0132
2133.0,0.0133
2132.0,0.0133
2131.0,0.0133
2130.0,0.0134
2129.0,0.0134
2128.0,0.0133
2127.0,0.0132
2126.0,0.0132
2125.0,0.0132
2124.0,0.0132
2123.0,0.0132
2122.0,0.0132
2121.0,0.0132
2120.0,0.0132
2119.0,0.0131
2118.0,0.0131
2117.0,0.013
2116.0,0.0129
2115.0,0.0129
2114.0,0.0129
2113.0,0.0129
2112.0,0.0129
2111.0,0.0129
2110.0,0.0129
2109.0,0.0129
2108.0,0.0129
2107.0,0.0129
2106.0,0.0129
2105.0,0.0129
2104.0,0.0129
2103.0,0.0129
2102.0,0.013
2101.0,0.0129
2100.0,0.0129
2099.0,0.0129
2098.0,0.0128
2097.0,0.0129
2096.0,0.0129
2095.0,0.0129
2094.0,0.0129
2093.0,0.0129
2092.0,0.0128
2091.0,0.0128
2090.0,0.0129
2089.0,0.0129
2088.0,0.013
2087.0,0.013
2086.0,0.0129
2085.0,0.0129
2084.0,0.0128
2083.0,0.0128
2082.0,0.0128
2081.0,0.0128
2080.0,0.0129
2079.0,0.0129
2078.0,0.0129
2077.0,0.0129
2076.0,0.0128
2075.0,0.0128
2074.0,0.0128
2073.0,0.0129
2072.0,0.0129
2071.0,0.0129
2070.0,0.0129
2069.0,0.0129
2068.0,0.0129
2067.0,0.0128
2066.0,0.0128
2065.0,0.0128
2064.0,0.0128
2063.0,0.0128
2062.0,0.0128
2061.0,0.0128
2060.0,0.0128
2059.0,0.0128
2058.0,0.0128
2057.0,0.0128
2056.0,0.0128
2055.0,0.0128
2054.0,0.0128
2053.0,0.0129
2052.0,0.0129
2051.0,0.0128
2050.0,0.0128
2049.0,0.0128
2048.0,0.0128
2047.0,0.0128
2046.0,0.0128
2045.0,0.0128
2044.0,0.0127
2043.0,0.0127
2042.0,0.0127
2041.0,0.0127
2040.0,0.0128
2039.0,0.0128
2038.0,0.0128
2037.0,0.0128
2036.0,0.0128
2035.0,0.0128
2034.0,0.0128
2033.0,0.0128
2032.0,0.0128
2031.0,0.0128
2030.0,0.0129
2029.0,0.0129
2028.0,0.013
2027.0,0.013
2026.0,0.0129
2025.0,0.0129
2024.0,0.0129
2023.0,0.0129
2022.0,0.0129
2021.0,0.0129
2020.0,0.0129
2019.0,0.0129
2018.0,0.0129
2017.0,0.0129
2016.0,0.0129
2015.0,0.0128
2014.0,0.0128
2013.0,0.0128
2012.0,0.0128
2011.0,0.0128
2010.0,0.0128
2009.0,0.0128
2008.0,0.0128
2007.0,0.0128
2006.0,0.0128
2005.0,0.0128
2004.0,0.0129
2003.0,0.0129
2002.0,0.013
2001.0,0.0129
2000.0,0.0129
1999.0,0.0129
1998.0,0.0128
1997.0,0.0128
1996.0,0.0128
1995.0,0.0128
1994.0,0.0128
1993.0,0.0128
1992.0,0.0129
1991.0,0.0129
1990.0,0.0129
1989.0,0.0129
1988.0,0.0128
1987.0,0.0128
1986.0,0.0128
1985.0,0.0128
1984.0,0.0128
1983.0,0.0128
1982.0,0.0128
1981.0,0.0128
1980.0,0.0128
1979.0,0.0128
1978.0,0.0128
1977.0,0.0129
1976.0,0.0129
1975.0,0.0129
1974.0,0.0128
1973.0,0.0128
1972.0,0.0128
1971.0,0.0128
1970.0,0.0128
1969.0,0.0129
1968.0,0.0129
1967.0,0.013
1966.0,0.013
1965.0,0.013
1964.0,0.013
1963.0,0.0129
1962.0,0.0129
1961.0,0.013
1960.0,0.013
1959.0,0.0129
1958.0,0.0129
1957.0,0.0128
1956.0,0.0128
1955.0,0.0128
1954.0,0.0128
1953.0,0.0128
1952.0,0.0129
1951.0,0.0129
1950.0,0.0129
1949.0,0.0129
1948.0,0.0129
1947.0,0.0129
1946.0,0.0129
1945.0,0.0129
1944.0,0.0129
1943.0,0.0129
1942.0,0.0128
1941.0,0.0128
1940.0,0.0128
1939.0,0.0129
1938.0,0.0129
1937.0,0.0129
1936.0,0.0129
1935.0,0.0129
1934.0,0.0129
1933.0,0.013
1932.0,0.013
1931.0,0.013
1930.0,0.013
1929.0,0.013
1928.0,0.013
1927.0,0.013
1926.0,0.013
1925.0,0.013
1924.0,0.013
1923.0,0.013
1922.0,0.013
1921.0,0.013
1920.0,0.013
1919.0,0.013
1918.0,0.013
1917.0,0.013
1916.0,0.013
1915.0,0.013
1914.0,0.013
1913.0,0.013
1912.0,0.013
1911.0,0.013
1910.0,0.013
1909.0,0.0131
1908.0,0.0131
1907.0,0.0131
1906.0,0.0131
1905.0,0.0131
1904.0,0.0131
1903.0,0.0131
1902.0,0.013
1901.0,0.0131
1900.0,0.0131
1899.0,0.0131
1898.0,0.0131
1897.0,0.0131
1896.0,0.0132
1895.0,0.0132
1894.0,0.0133
1893.0,0.0133
1892.0,0.0133
1891.0,0.0133
1890.0,0.0132
1889.0,0.0132
1888.0,0.0132
1887.0,0.0132
1886.0,0.0132
1885.0,0.0132
1884.0,0.0131
1883.0,0.0131
1882.0,0.0131
1881.0,0.0131
1880.0,0.0131
1879.0,0.0131
1878.0,0.0131
1877.0,0.0131
1876.0,0.013
1875.0,0.013
1874.0,0.013
1873.0,0.0131
1872.0,0.0131
1871.0,0.013
1870.0,0.013
1869.0,0.013
1868.0,0.013
1867.0,0.0131
1866.0,0.0131
1865.0,0.0132
1864.0,0.0132
1863.0,0.0132
1862.0,0.0132
1861.0,0.0132
1860.0,0.0132
1859.0,0.0132
1858.0,0.0132
1857.0,0.0132
1856.0,0.0133
1855.0,0.0133
1854.0,0.0133
1853.0,0.0133
1852.0,0.0133
1851.0,0.0133
1850.0,0.0132
1849.0,0.0132
1848.0,0.0132
1847.0,0.0132
1846.0,0.0133
1845.0,0.0134
1844.0,0.0135
1843.0,0.0135
1842.0,0.0134
1841.0,0.0134
1840.0,0.0133
1839.0,0.0132
1838.0,0.0132
1837.0,0.0133
1836.0,0.0133
1835.0,0.0133
1834.0,0.0134
1833.0,0.0134
1832.0,0.0134
1831.0,0.0134
1830.0,0.0134
1829.0,0.0133
1828.0,0.0134
1827.0,0.0134
1826.0,0.0135
1825.0,0.0135
1824.0,0.0134
1823.0,0.0134
1822.0,0.0133
1821.0,0.0133
1820.0,0.0133
1819.0,0.0133
1818.0,0.0133
1817.0,0.0133
1816.0,0.0133
1815.0,0.0133
1814.0,0.0133
1813.0,0.0132
1812.0,0.0132
1811.0,0.0132
1810.0,0.0132
1809.0,0.0132
1808.0,0.0132
1807.0,0.0133
1806.0,0.0133
1805.0,0.0134
1804.0,0.0134
1803.0,0.0134
1802.0,0.0133
1801.0,0.0133
1800.0,0.0133
1799.0,0.0133
1798.0,0.0133
1797.0,0.0134
1796.0,0.0134
1795.0,0.0135
1794.0,0.0135
1793.0,0.0135
1792.0,0.0136
1791.0,0.0136
1790.0,0.0135
1789.0,0.0136
1788.0,0.0136
1787.0,0.0136
1786.0,0.0135
1785.0,0.0136
1784.0,0.0136
1783.0,0.0135
1782.0,0.0135
1781.0,0.0135
1780.0,0.0135
1779.0,0.0135
1778.0,0.0135
1777.0,0.0136
1776.0,0.0136
1775.0,0.0136
1774.0,0.0136
1773.0,0.0136
1772.0,0.0136
1771.0,0.0136
1770.0,0.0137
1769.0,0.0137
1768.0,0.0137
1767.0,0.0137
1766.0,0.0137
1765.0,0.0137
1764.0,0.0137
1763.0,0.0137
1762.0,0.0138
1761.0,0.0138
1760.0,0.0138
1759.0,0.0139
1758.0,0.014
1757.0,0.014
1756.0,0.0141
1755.0,0.0141
1754.0,0.0141
1753.0,0.0142
1752.0,0.0143
1751.0,0.0145
1750.0,0.0146
1749.0,0.0146
1748.0,0.0147
1747.0,0.0147
1746.0,0.0146
1745.0,0.0146
1744.0,0.0146
1743.0,0.0147
1742.0,0.0147
1741.0,0.0147
1740.0,0.0148
1739.0,0.0148
1738.0,0.0148
1737.0,0.0148
1736.0,0.0148
1735.0,0.0148
1734.0,0.0147
1733.0,0.0146
1732.0,0.0145
1731.0,0.0145
1730.0,0.0145
1729.0,0.0145
1728.0,0.0145
1727.0,0.0145
1726.0,0.0145
1725.0,0.0146
1724.0,0.0146
1723.0,0.0147
1722.0,0.0147
1721.0,0.0147
1720.0,0.0147
1719.0,0.0147
1718.0,0.0148
1717.0,0.0149
1716.0,0.0149
1715.0,0.0148
1714.0,0.0148
1713.0,0.0149
1712.0,0.0149
1711.0,0.0149
1710.0,0.0149
1709.0,0.0149
1708.0,0.015
1707.0,0.0149
1706.0,0.0149
1705.0,0.0149
1704.0,0.015
1703.0,0.0151
1702.0,0.0152
1701.0,0.0153
1700.0,0.0154
1699.0,0.0154
1698.0,0.0155
1697.0,0.0156
1696.0,0.0156
1695.0,0.0154
1694.0,0.0153
1693.0,0.0153
1692.0,0.0153
1691.0,0.0153
1690.0,0.0154
1689.0,0.0155
1688.0,0.0156
1687.0,0.0156
1686.0,0.0155
1685.0,0.0154
1684.0,0.0154
1683.0,0.0154
1682.0,0.0155
1681.0,0.0156
1680.0,0.0157
1679.0,0.0158
1678.0,0.0158
1677.0,0.0159
1676.0,0.0159
1675.0,0.0159
1674.0,0.0159
1673.0,0.0158
1672.0,0.0157
1671.0,0.0157
1670.0,0.0157
1669.0,0.0158
1668.0,0.0158
1667.0,0.0158
1666.0,0.0159
1665.0,0.0159
1664.0,0.0159
1663.0,0.016
1662.0,0.016
1661.0,0.0161
1660.0,0.0161
1659.0,0.0161
1658.0,0.016
1657.0,0.016
1656.0,0.016
1655.0,0.016
1654.0,0.0161
1653.0,0.0162
1652.0,0.0161
1651.0,0.0161
1650.0,0.0161
1649.0,0.016
1648.0,0.016
1647.0,0.0161
1646.0,0.0161
1645.0,0.0161
1644.0,0.0161
1643.0,0.0161
1642.0,0.0161
1641.0,0.016
1640.0,0.0159
1639.0,0.0158
1638.0,0.0157
1637.0,0.0157
1636.0,0.0158
1635.0,0.0158
1634.0,0.0158
1633.0,0.0158
1632.0,0.0158
1631.0,0.0158
1630.0,0.0158
1629.0,0.0157
1628.0,0.0157
1627.0,0.0156
1626.0,0.0155
1625.0,0.0155
1624.0,0.0154
1623.0,0.0154
1622.0,0.0153
1621.0,0.0153
1620.0,0.0152
1619.0,0.0152
1618.0,0.0152
1617.0,0.0152
1616.0,0.0152
1615.0,0.0152
1614.0,0.0152
1613.0,0.0152
1612.0,0.0152
1611.0,0.0151
1610.0,0.015
1609.0,0.015
1608.0,0.015
1607.0,0.015
1606.0,0.0149
1605.0,0.0149
1604.0,0.0148
1603.0,0.0148
1602.0,0.0148
1601.0,0.0148
1600.0,0.0147
1599.0,0.0147
1598.0,0.0147
1597.0,0.0147
1596.0,0.0147
1595.0,0.0147
1594.0,0.0146
1593.0,0.0146
1592.0,0.0146
1591.0,0.0146
1590.0,0.0146
1589.0,0.0145
1588.0,0.0145
1587.0,0.0145
1586.0,0.0144
1585.0,0.0144
1584.0,0.0143
1583.0,0.0144
1582.0,0.0144
1581.0,0.0144
1580.0,0.0144
1579.0,0.0144
1578.0,0.0144
1577.0,0.0144
1576.0,0.0144
1575.0,0.0143
1574.0,0.0143
1573.0,0.0144
1572.0,0.0144
1571.0,0.0144
1570.0,0.0144
1569.0,0.0144
1568.0,0.0144
1567.0,0.0143
1566.0,0.0143
1565.0,0.0143
1564.0,0.0143
1563.0,0.0144
1562.0,0.0145
1561.0,0.0143
1560.0,0.0144
1559.0,0.0147
1558.0,0.0146
1557.0,0.0145
1556.0,0.0146
1555.0,0.0145
1554.0,0.0145
1553.0,0.0145
1552.0,0.0144
1551.0,0.0144
1550.0,0.0143
1549.0,0.0142
1548.0,0.0143
1547.0,0.0143
1546.0,0.0143
1545.0,0.0142
1544.0,0.0142
1543.0,0.0141
1542.0,0.0138
1541.0,0.0138
1540.0,0.0139
1539.0,0.0138
1538.0,0.0137
1537.0,0.0138
1536.0,0.0139
1535.0,0.0138
1534.0,0.0137
1533.0,0.0137
1532.0,0.0136
1531.0,0.0136
1530.0,0.0135
1529.0,0.0135
1528.0,0.0135
1527.0,0.0136
1526.0,0.0136
1525.0,0.0136
1524.0,0.0135
1523.0,0.0134
1522.0,0.0133
1521.0,0.0133
1520.0,0.0133
1519.0,0.0133
1518.0,0.0132
1517.0,0.0132
1516.0,0.0131
1515.0,0.013
1514.0,0.0129
1513.0,0.0129
1512.0,0.0129
1511.0,0.0129
1510.0,0.0128
1509.0,0.0128
1508.0,0.0129
1507.0,0.0129
1506.0,0.0127
1505.0,0.0127
1504.0,0.0128
1503.0,0.0129
1502.0,0.0129
1501.0,0.0129
1500.0,0.013
1499.0,0.0131
1498.0,0.013
1497.0,0.0131
1496.0,0.0131
1495.0,0.0131
1494.0,0.0131
1493.0,0.0132
1492.0,0.0133
1491.0,0.0133
1490.0,0.0134
1489.0,0.0136
1488.0,0.0138
1487.0,0.0139
1486.0,0.014
1485.0,0.0143
1484.0,0.0146
1483.0,0.0149
1482.0,0.0152
1481.0,0.0158
1480.0,0.0164
1479.0,0.0171
1478.0,0.0179
1477.0,0.0192
1476.0,0.0208
1475.0,0.0226
1474.0,0.0254
1473.0,0.0301
1472.0,0.0356
1471.0,0.0403
1470.0,0.0446
1469.0,0.0493
1468.0,0.0544
1467.0,0.0602
1466.0,0.0673
1465.0,0.0756
1464.0,0.0827
1463.0,0.0873
1462.0,0.0902
1461.0,0.0924
1460.0,0.0942
1459.0,0.0957
1458.0,0.098
1457.0,0.101
1456.0,0.1026
1455.0,0.1029
1454.0,0.1029
1453.0,0.1026
1452.0,0.1017
1451.0,0.1
1450.0,0.0973
1449.0,0.0929
1448.0,0.0866
1447.0,0.0798
1446.0,0.0736
1445.0,0.0682
1444.0,0.0633
1443.0,0.0589
1442.0,0.0556
1441.0,0.0532
1440.0,0.0515
1439.0,0.0507
1438.0,0.0507
1437.0,0.051
1436.0,0.0505
1435.0,0.0487
1434.0,0.046
1433.0,0.0426
1432.0,0.039
1431.0,0.0357
1430.0,0.033
1429.0,0.031
1428.0,0.0296
1427.0,0.0286
1426.0,0.0278
1425.0,0.027
1424.0,0.0262
1423.0,0.0257
1422.0,0.0254
1421.0,0.025
1420.0,0.0244
1419.0,0.0241
1418.0,0.0238
1417.0,0.0234
1416.0,0.0231
1415.0,0.0228
1414.0,0.0226
1413.0,0.0223
1412.0,0.022
1411.0,0.0218
1410.0,0.0217
1409.0,0.0215
1408.0,0.0212
1407.0,0.021
1406.0,0.0208
1405.0,0.0206
1404.0,0.0204
1403.0,0.0203
1402.0,0.0202
1401.0,0.02
1400.0,0.0198
1399.0,0.0197
1398.0,0.0196
1397.0,0.0194
1396.0,0.0193
1395.0,0.0193
1394.0,0.0194
1393.0,0.0194
1392.0,0.0194
1391.0,0.0195
1390.0,0.0199
1389.0,0.0205
1388.0,0.0216
1387.0,0.0239
1386.0,0.0271
1385.0,0.0315
1384.0,0.0378
1383.0,0.0468
1382.0,0.0587
1381.0,0.0736
1380.0,0.0918
1379.0,0.1124
1378.0,0.132
1377.0,0.1465
1376.0,0.1524
1375.0,0.1471
1374.0,0.1324
1373.0,0.1148
1372.0,0.099
1371.0,0.0855
1370.0,0.0738
1369.0,0.0642
1368.0,0.0572
1367.0,0.0527
1366.0,0.0501
1365.0,0.0487
1364.0,0.0486
1363.0,0.0496
1362.0,0.0514
1361.0,0.0532
1360.0,0.0545
1359.0,0.0548
1358.0,0.0539
1357.0,0.052
1356.0,0.0493
1355.0,0.0461
1354.0,0.0431
1353.0,0.0405
1352.0,0.0383
1351.0,0.0365
1350.0,0.0349
1349.0,0.0336
1348.0,0.0324
1347.0,0.0314
1346.0,0.0305
1345.0,0.0298
1344.0,0.0291
1343.0,0.0285
1342.0,0.028
1341.0,0.0276
1340.0,0.0273
1339.0,0.0271
1338.0,0.027
1337.0,0.0269
1336.0,0.0269
1335.0,0.0269
1334.0,0.0271
1333.0,0.0274
1332.0,0.0277
1331.0,0.0279
1330.0,0.028
1329.0,0.0279
1328.0,0.0276
1327.0,0.0272
1326.0,0.0268
1325.0,0.0263
1324.0,0.0258
1323.0,0.0253
1322.0,0.0249
1321.0,0.0246
1320.0,0.0244
1319.0,0.0241
1318.0,0.0239
1317.0,0.0236
1316.0,0.0234
1315.0,0.0232
1314.0,0.0231
1313.0,0.023
1312.0,0.023
1311.0,0.0231
1310.0,0.0233
1309.0,0.0237
1308.0,0.0245
1307.0,0.0255
1306.0,0.0266
1305.0,0.0274
1304.0,0.0277
1303.0,0.0275
1302.0,0.027
1301.0,0.0266
1300.0,0.0263
1299.0,0.0262
1298.0,0.0262
1297.0,0.0262
1296.0,0.0262
1295.0,0.026
1294.0,0.0258
1293.0,0.0254
1292.0,0.025
1291.0,0.0246
1290.0,0.0243
1289.0,0.0239
1288.0,0.0236
1287.0,0.0234
1286.0,0.0231
1285.0,0.0229
1284.0,0.0227
1283.0,0.0226
1282.0,0.0225
1281.0,0.0224
1280.0,0.0223
1279.0,0.0222
1278.0,0.0221
1277.0,0.0219
1276.0,0.0218
1275.0,0.0217
1274.0,0.0216
1273.0,0.0216
1272.0,0.0216
1271.0,0.0216
1270.0,0.0217
1269.0,0.0217
1268.0,0.0217
1267.0,0.0217
1266.0,0.0218
1265.0,0.0219
1264.0,0.0221
1263.0,0.0223
1262.0,0.0226
1261.0,0.023
1260.0,0.0236
1259.0,0.0243
1258.0,0.0251
1257.0,0.0259
1256.0,0.0264
1255.0,0.0264
1254.0,0.026
1253.0,0.0253
1252.0,0.0246
1251.0,0.0239
1250.0,0.0234
1249.0,0.023
1248.0,0.0227
1247.0,0.0224
1246.0,0.0222
1245.0,0.0221
1244.0,0.022
1243.0,0.022
1242.0,0.0219
1241.0,0.0218
1240.0,0.0217
1239.0,0.0216
1238.0,0.0215
1237.0,0.0215
1236.0,0.0214
1235.0,0.0214
1234.0,0.0213
1233.0,0.0213
1232.0,0.0213
1231.0,0.0213
1230.0,0.0213
1229.0,0.0213
1228.0,0.0214
1227.0,0.0215
1226.0,0.0216
1225.0,0.0218
1224.0,0.022
1223.0,0.0223
1222.0,0.0225
1221.0,0.0227
1220.0,0.0228
1219.0,0.0228
1218.0,0.0227
1217.0,0.0225
1216.0,0.0223
1215.0,0.0221
1214.0,0.0218
1213.0,0.0216
1212.0,0.0214
1211.0,0.0213
1210.0,0.0211
1209.0,0.021
1208.0,0.021
1207.0,0.0209
1206.0,0.0209
1205.0,0.0207
1204.0,0.0206
1203.0,0.0205
1202.0,0.0204
1201.0,0.0204
1200.0,0.0204
1199.0,0.0203
1198.0,0.0203
1197.0,0.0203
1196.0,0.0202
1195.0,0.0203
1194.0,0.0203
1193.0,0.0203
1192.0,0.0202
1191.0,0.0202
1190.0,0.0201
1189.0,0.0201
1188.0,0.02
1187.0,0.02
1186.0,0.0199
1185.0,0.0199
1184.0,0.02
1183.0,0.0201
1182.0,0.0202
1181.0,0.0204
1180.0,0.0206
1179.0,0.021
1178.0,0.0215
1177.0,0.0222
1176.0,0.0232
1175.0,0.0246
1174.0,0.0266
1173.0,0.0291
1172.0,0.0322
1171.0,0.0355
1170.0,0.0387
1169.0,0.0413
1168.0,0.0429
1167.0,0.0434
1166.0,0.0428
1165.0,0.0415
1164.0,0.04
1163.0,0.0386
1162.0,0.0373
1161.0,0.0363
1160.0,0.0354
1159.0,0.0348
1158.0,0.0342
1157.0,0.0339
1156.0,0.0337
1155.0,0.0335
1154.0,0.0334
1153.0,0.0332
1152.0,0.0328
1151.0,0.0322
1150.0,0.0314
1149.0,0.0306
1148.0,0.0297
1147.0,0.0289
1146.0,0.0281
1145.0,0.0273
1144.0,0.0265
1143.0,0.0258
1142.0,0.0252
1141.0,0.0246
1140.0,0.0241
1139.0,0.0236
1138.0,0.0232
1137.0,0.0228
1136.0,0.0225
1135.0,0.0223
1134.0,0.0221
1133.0,0.022
1132.0,0.0218
1131.0,0.0217
1130.0,0.0216
1129.0,0.0215
1128.0,0.0214
1127.0,0.0213
1126.0,0.0213
1125.0,0.0212
1124.0,0.0211
1123.0,0.021
1122.0,0.021
1121.0,0.0209
1120.0,0.0209
1119.0,0.021
1118.0,0.021
1117.0,0.021
1116.0,0.021
1115.0,0.0211
1114.0,0.0212
1113.0,0.0214
1112.0,0.0215
1111.0,0.0217
1110.0,0.0219
1109.0,0.0222
1108.0,0.0226
1107.0,0.0231
1106.0,0.0237
1105.0,0.0243
1104.0,0.0248
1103.0,0.0251
1102.0,0.0252
1101.0,0.025
1100.0,0.0245
1099.0,0.024
1098.0,0.0235
1097.0,0.023
1096.0,0.0226
1095.0,0.0223
1094.0,0.022
1093.0,0.0218
1092.0,0.0217
1091.0,0.0215
1090.0,0.0213
1089.0,0.0211
1088.0,0.0211
1087.0,0.021
1086.0,0.0211
1085.0,0.0211
1084.0,0.0211
1083.0,0.0211
1082.0,0.0211
1081.0,0.021
1080.0,0.0208
1079.0,0.0207
1078.0,0.0206
1077.0,0.0206
1076.0,0.0205
1075.0,0.0205
1074.0,0.0205
1073.0,0.0204
1072.0,0.0204
1071.0,0.0203
1070.0,0.0203
1069.0,0.0202
1068.0,0.0202
1067.0,0.0202
1066.0,0.0201
1065.0,0.02
1064.0,0.02
1063.0,0.0199
1062.0,0.0199
1061.0,0.0199
1060.0,0.0199
1059.0,0.0199
1058.0,0.0199
1057.0,0.0199
1056.0,0.0199
1055.0,0.02
1054.0,0.0201
1053.0,0.0202
1052.0,0.0204
1051.0,0.0205
1050.0,0.0207
1049.0,0.0209
1048.0,0.0211
1047.0,0.0213
1046.0,0.0216
1045.0,0.0218
1044.0,0.0218
1043.0,0.0216
1042.0,0.0214
1041.0,0.0211
1040.0,0.021
1039.0,0.0209
1038.0,0.0208
1037.0,0.0207
1036.0,0.0205
1035.0,0.0204
1034.0,0.0203
1033.0,0.0201
1032.0,0.02
1031.0,0.0199
1030.0,0.0198
1029.0,0.0197
1028.0,0.0197
1027.0,0.0196
1026.0,0.0196
1025.0,0.0195
1024.0,0.0194
1023.0,0.0194
1022.0,0.0194
1021.0,0.0194
1020.0,0.0194
1019.0,0.0195
1018.0,0.0195
1017.0,0.0196
1016.0,0.0196
1015.0,0.0197
1014.0,0.0198
1013.0,0.02
1012.0,0.0202
1011.0,0.0204
1010.0,0.0207
1009.0,0.021
1008.0,0.0214
1007.0,0.022
1006.0,0.0227
1005.0,0.0237
1004.0,0.0253
1003.0,0.0276
1002.0,0.0308
1001.0,0.0348
1000.0,0.0392
999.0,0.0431
998.0,0.0453
997.0,0.0453
996.0,0.0432
995.0,0.0398
994.0,0.0361
993.0,0.0328
992.0,0.0302
991.0,0.0282
990.0,0.0267
989.0,0.0255
988.0,0.0247
987.0,0.0241
986.0,0.0237
985.0,0.0235
984.0,0.0236
983.0,0.0241
982.0,0.025
981.0,0.0264
980.0,0.0285
979.0,0.0314
978.0,0.035
977.0,0.0393
976.0,0.044
975.0,0.0486
974.0,0.0521
973.0,0.0537
972.0,0.053
971.0,0.05
970.0,0.0456
969.0,0.041
968.0,0.0371
967.0,0.034
966.0,0.0318
965.0,0.0301
964.0,0.0288
963.0,0.0278
962.0,0.027
961.0,0.0263
960.0,0.0256
959.0,0.0251
958.0,0.0246
957.0,0.0242
956.0,0.0239
955.0,0.0235
954.0,0.0232
953.0,0.0228
952.0,0.0226
951.0,0.0224
950.0,0.0223
949.0,0.0223
948.0,0.0223
947.0,0.0223
946.0,0.0223
945.0,0.0224
944.0,0.0226
943.0,0.0229
942.0,0.0232
941.0,0.0234
940.0,0.0234
939.0,0.0233
938.0,0.0229
937.0,0.0224
936.0,0.022
935.0,0.0215
934.0,0.0212
933.0,0.0209
932.0,0.0208
931.0,0.0207
930.0,0.0207
929.0,0.0206
928.0,0.0206
927.0,0.0205
926.0,0.0204
925.0,0.0203
924.0,0.0202
923.0,0.0201
922.0,0.0201
921.0,0.02
920.0,0.0199
919.0,0.0199
918.0,0.02
917.0,0.02
916.0,0.02
915.0,0.0201
914.0,0.0202
913.0,0.0203
912.0,0.0203
911.0,0.0205
910.0,0.0207
909.0,0.0209
908.0,0.0211
907.0,0.0215
906.0,0.022
905.0,0.0229
904.0,0.0241
903.0,0.0257
902.0,0.0276
901.0,0.0294
900.0,0.0307
899.0,0.0312
898.0,0.0308
897.0,0.0297
896.0,0.0282
895.0,0.0266
894.0,0.0254
893.0,0.0243
892.0,0.0236
891.0,0.023
890.0,0.0227
889.0,0.0226
888.0,0.0224
887.0,0.0222
886.0,0.022
885.0,0.0218
884.0,0.0217
883.0,0.0216
882.0,0.0215
881.0,0.0215
880.0,0.0214
879.0,0.0214
878.0,0.0214
877.0,0.0214
876.0,0.0214
875.0,0.0215
874.0,0.0216
873.0,0.0215
872.0,0.0215
871.0,0.0214
870.0,0.0214
869.0,0.0213
868.0,0.0213
867.0,0.0213
866.0,0.0215
865.0,0.0216
864.0,0.0216
863.0,0.0216
862.0,0.0215
861.0,0.0215
860.0,0.0216
859.0,0.0218
858.0,0.0218
857.0,0.0219
856.0,0.022
855.0,0.0221
854.0,0.0223
853.0,0.0226
852.0,0.0229
851.0,0.0233
850.0,0.0237
849.0,0.0241
848.0,0.0248
847.0,0.0259
846.0,0.0277
845.0,0.0307
844.0,0.0351
843.0,0.0404
842.0,0.0448
841.0,0.0466
840.0,0.045
839.0,0.0411
838.0,0.0366
837.0,0.0329
836.0,0.0305
835.0,0.0289
834.0,0.0279
833.0,0.0271
832.0,0.0264
831.0,0.0259
830.0,0.0254
829.0,0.0251
828.0,0.0249
827.0,0.0247
826.0,0.0245
825.0,0.0243
824.0,0.0241
823.0,0.024
822.0,0.0239
821.0,0.0239
820.0,0.024
819.0,0.0241
818.0,0.0244
817.0,0.0247
816.0,0.0253
815.0,0.0262
814.0,0.0274
813.0,0.029
812.0,0.0308
811.0,0.0325
810.0,0.0338
809.0,0.0345
808.0,0.0344
807.0,0.0335
806.0,0.0321
805.0,0.0306
804.0,0.0293
803.0,0.0283
802.0,0.0276
801.0,0.027
800.0,0.0266
799.0,0.0261
798.0,0.0256
797.0,0.025
796.0,0.0244
795.0,0.024
794.0,0.0237
793.0,0.0236
792.0,0.0234
791.0,0.0233
790.0,0.0232
789.0,0.023
788.0,0.0229
787.0,0.0227
786.0,0.0224
785.0,0.022
784.0,0.0218
783.0,0.0215
782.0,0.0212
781.0,0.021
780.0,0.0208
779.0,0.0207
778.0,0.0206
777.0,0.0206
776.0,0.0205
775.0,0.0205
774.0,0.0206
773.0,0.0207
772.0,0.0207
771.0,0.0206
770.0,0.0204
769.0,0.0203
768.0,0.0203
767.0,0.0203
766.0,0.0203
765.0,0.0203
764.0,0.0202
763.0,0.0202
762.0,0.0203
761.0,0.0204
760.0,0.0204
759.0,0.0205
758.0,0.0204
757.0,0.0204
756.0,0.0205
755.0,0.0205
754.0,0.0205
753.0,0.0204
752.0,0.0204
751.0,0.0204
750.0,0.0205
749.0,0.0205
748.0,0.0206
747.0,0.0207
746.0,0.0209
745.0,0.021
744.0,0.021
743.0,0.021
742.0,0.0211
741.0,0.021
740.0,0.0207
739.0,0.0205
738.0,0.0204
737.0,0.0205
736.0,0.0206
735.0,0.0207
734.0,0.0207
733.0,0.0207
732.0,0.0206
731.0,0.0205
730.0,0.0205
729.0,0.0204
728.0,0.0203
727.0,0.0203
726.0,0.0204
725.0,0.0205
724.0,0.0206
723.0,0.0208
722.0,0.021
721.0,0.0212
720.0,0.0212
719.0,0.0209
718.0,0.0206
717.0,0.0205
716.0,0.0204
715.0,0.0205
714.0,0.0207
713.0,0.0209
712.0,0.021
711.0,0.0211
710.0,0.0211
709.0,0.021
708.0,0.0208
707.0,0.0206
706.0,0.0203
705.0,0.0201
704.0,0.02
703.0,0.0199
702.0,0.0199
701.0,0.0201
700.0,0.0205
699.0,0.021
698.0,0.0214
697.0,0.0216
696.0,0.0216
695.0,0.0214
694.0,0.0212
693.0,0.0209
692.0,0.0207
691.0,0.0207
690.0,0.0209
689.0,0.021
688.0,0.021
687.0,0.0206
686.0,0.0201
685.0,0.0199
684.0,0.02
683.0,0.0206
682.0,0.0213
681.0,0.0217
680.0,0.0216
679.0,0.0213
678.0,0.0211
677.0,0.0211
676.0,0.0211
675.0,0.0209
674.0,0.0208
673.0,0.0209
672.0,0.0209
671.0,0.0202
670.0,0.0184
669.0,0.0154
668.0,0.0126
667.0,0.0135
666.0,0.0168
665.0,0.0194
664.0,0.0208
663.0,0.021
662.0,0.0204
661.0,0.0192
660.0,0.0181
659.0,0.0178
658.0,0.0183
657.0,0.0193
656.0,0.0203
655.0,0.0209
654.0,0.0211
653.0,0.0209
652.0,0.0204
651.0,0.0202
650.0,0.0203
649.0,0.0206
648.0,0.0205
647.0,0.0199
646.0,0.0193
645.0,0.0189
644.0,0.0188
643.0,0.0186
642.0,0.0185
641.0,0.0187
640.0,0.0194
639.0,0.0205
638.0,0.0214
637.0,0.022
636.0,0.0223
635.0,0.0225
634.0,0.0226
633.0,0.0229
632.0,0.0231
631.0,0.0231
630.0,0.0226
629.0,0.0218
628.0,0.0209
627.0,0.0201
626.0,0.0195
625.0,0.0191
624.0,0.019
623.0,0.0192
622.0,0.0197
621.0,0.0205
620.0,0.0215
619.0,0.0223
618.0,0.0226
617.0,0.0221
616.0,0.021
615.0,0.02
614.0,0.0197
613.0,0.0198
612.0,0.0198
611.0,0.0197
610.0,0.0199
609.0,0.0207
608.0,0.022
607.0,0.0229
606.0,0.0231
605.0,0.0228
604.0,0.0226
603.0,0.0229
602.0,0.0234
601.0,0.0239
600.0,0.0242
