cm-1,A
4000.0,0.008
3999.0,0.008
3998.0,0.008
3997.0,0.0081
3996.0,0.0081
3995.0,0.0082
3994.0,0.0082
3993.0,0.0082
3992.0,0.0082
3991.0,0.0083
3990.0,0.0083
3989.0,0.0083
3988.0,0.0083
3987.0,0.0083
3986.0,0.0083
3985.0,0.0082
3984.0,0.0082
3983.0,0.0082
3982.0,0.0082
3981.0,0.0083
3980.0,0.0084
3979.0,0.0084
3978.0,0.0084
3977.0,0.0084
3976.0,0.0083
3975.0,0.0083
3974.0,0.0082
3973.0,0.0082
3972.0,0.0082
3971.0,0.0082
3970.0,0.0082
3969.0,0.0081
3968.0,0.0081
3967.0,0.008
3966.0,0.008
3965.0,0.008
3964.0,0.0081
3963.0,0.0081
3962.0,0.0081
3961.0,0.0081
3960.0,0.0081
3959.0,0.0082
3958.0,0.0082
3957.0,0.0082
3956.0,0.0082
3955.0,0.0082
3954.0,0.0082
3953.0,0.0082
3952.0,0.0083
3951.0,0.0083
3950.0,0.0084
3949.0,0.0084
3948.0,0.0083
3947.0,0.0082
3946.0,0.0081
3945.0,0.0081
3944.0,0.0082
3943.0,0.0082
3942.0,0.0083
3941.0,0.0083
3940.0,0.0083
3939.0,0.0083
3938.0,0.0083
3937.0,0.0082
3936.0,0.0081
3935.0,0.0081
3934.0,0.0081
3933.0,0.0081
3932.0,0.0082
3931.0,0.0082
3930.0,0.0082
3929.0,0.0082
3928.0,0.0082
3927.0,0.0081
3926.0,0.0081
3925.0,0.0081
3924.0,0.008
3923.0,0.008
3922.0,0.008
3921.0,0.0081
3920.0,0.0081
3919.0,0.0082
3918.0,0.0083
3917.0,0.0084
3916.0,0.0084
3915.0,0.0085
3914.0,0.0086
3913.0,0.0086
3912.0,0.0086
3911.0,0.0086
3910.0,0.0085
3909.0,0.0083
3908.0,0.0081
3907.0,0.0079
3906.0,0.0078
3905.0,0.0078
3904.0,0.0078
3903.0,0.0079
3902.0,0.0081
3901.0,0.0082
3900.0,0.0083
3899.0,0.0083
3898.0,0.0083
3897.0,0.0084
3896.0,0.0084
3895.0,0.0083
3894.0,0.0083
3893.0,0.0083
3892.0,0.0083
3891.0,0.0082
3890.0,0.0081
3889.0,0.0082
3888.0,0.0083
3887.0,0.0082
3886.0,0.008
3885.0,0.0078
3884.0,0.0078
3883.0,0.008
3882.0,0.0082
3881.0,0.0084
3880.0,0.0083
3879.0,0.0082
3878.0,0.0082
3877.0,0.0083
3876.0,0.0083
3875.0,0.0081
3874.0,0.0079
3873.0,0.0078
3872.0,0.0079
3871.0,0.008
3870.0,0.008
3869.0,0.0078
3868.0,0.0078
3867.0,0.008
3866.0,0.0081
3865.0,0.0082
3864.0,0.0082
3863.0,0.0083
3862.0,0.0084
3861.0,0.0084
3860.0,0.0084
3859.0,0.0083
3858.0,0.0082
3857.0,0.008
3856.0,0.0078
3855.0,0.0079
3854.0,0.008
3853.0,0.0079
3852.0,0.0077
3851.0,0.0078
3850.0,0.0082
3849.0,0.0084
3848.0,0.0085
3847.0,0.0085
3846.0,0.0085
3845.0,0.0084
3844.0,0.0083
3843.0,0.0081
3842.0,0.008
3841.0,0.0079
3840.0,0.0079
3839.0,0.008
3838.0,0.008
3837.0,0.008
3836.0,0.008
3835.0,0.0081
3834.0,0.0083
3833.0,0.0084
3832.0,0.0084
3831.0,0.0084
3830.0,0.0084
3829.0,0.0085
3828.0,0.0086
3827.0,0.0086
3826.0,0.0084
3825.0,0.0083
3824.0,0.0081
3823.0,0.008
3822.0,0.008
3821.0,0.0078
3820.0,0.0077
3819.0,0.0078
3818.0,0.0082
3817.0,0.0084
3816.0,0.0085
3815.0,0.0084
3814.0,0.0085
3813.0,0.0087
3812.0,0.0088
3811.0,0.0089
3810.0,0.0089
3809.0,0.0089
3808.0,0.0089
3807.0,0.0088
3806.0,0.0085
3805.0,0.0084
3804.0,0.0085
3803.0,0.0085
3802.0,0.0083
3801.0,0.008
3800.0,0.0078
3799.0,0.008
3798.0,0.0084
3797.0,0.0085
3796.0,0.0086
3795.0,0.0086
3794.0,0.0088
3793.0,0.0089
3792.0,0.009
3791.0,0.009
3790.0,0.0089
3789.0,0.0089
3788.0,0.0089
3787.0,0.0089
3786.0,0.0088
3785.0,0.0088
3784.0,0.0087
3783.0,0.0086
3782.0,0.0086
3781.0,0.0087
3780.0,0.0087
3779.0,0.0087
3778.0,0.0087
3777.0,0.0087
3776.0,0.0088
3775.0,0.0088
3774.0,0.0088
3773.0,0.0088
3772.0,0.0088
3771.0,0.0088
3770.0,0.0087
3769.0,0.0086
3768.0,0.0086
3767.0,0.0088
3766.0,0.0089
3765.0,0.0089
3764.0,0.0089
3763.0,0.0089
3762.0,0.0089
3761.0,0.0088
3760.0,0.0088
3759.0,0.0087
3758.0,0.0086
3757.0,0.0085
3756.0,0.0084
3755.0,0.0083
3754.0,0.0081
3753.0,0.0078
3752.0,0.0078
3751.0,0.008
3750.0,0.008
3749.0,0.0079
3748.0,0.0079
3747.0,0.0081
3746.0,0.0083
3745.0,0.0085
3744.0,0.0085
3743.0,0.0086
3742.0,0.0089
3741.0,0.0091
3740.0,0.009
3739.0,0.0087
3738.0,0.0085
3737.0,0.0084
3736.0,0.0085
3735.0,0.0086
3734.0,0.0086
3733.0,0.0086
3732.0,0.0086
3731.0,0.0086
3730.0,0.0087
3729.0,0.0088
3728.0,0.0089
3727.0,0.0088
3726.0,0.0087
3725.0,0.0086
3724.0,0.0086
3723.0,0.0086
3722.0,0.0087
3721.0,0.0087
3720.0,0.0088
3719.0,0.0088
3718.0,0.0088
3717.0,0.0088
3716.0,0.0088
3715.0,0.0088
3714.0,0.0087
3713.0,0.0087
3712.0,0.0089
3711.0,0.009
3710.0,0.009
3709.0,0.009
3708.0,0.0091
3707.0,0.0092
3706.0,0.0093
3705.0,0.0093
3704.0,0.0093
3703.0,0.0093
3702.0,0.0093
3701.0,0.0092
3700.0,0.0092
3699.0,0.0092
3698.0,0.0092
3697.0,0.0091
3696.0,0.0091
3695.0,0.009
3694.0,0.0089
3693.0,0.0088
3692.0,0.0086
3691.0,0.0086
3690.0,0.0086
3689.0,0.0085
3688.0,0.0084
3687.0,0.0085
3686.0,0.0087
3685.0,0.009
3684.0,0.0091
3683.0,0.0092
3682.0,0.0092
3681.0,0.0091
3680.0,0.009
3679.0,0.0088
3678.0,0.0088
3677.0,0.0088
3676.0,0.0088
3675.0,0.0085
3674.0,0.0082
3673.0,0.0082
3672.0,0.0084
3671.0,0.0084
3670.0,0.0084
3669.0,0.0084
3668.0,0.0086
3667.0,0.0089
3666.0,0.0092
3665.0,0.0093
3664.0,0.0092
3663.0,0.0092
3662.0,0.0092
3661.0,0.0092
3660.0,0.0093
3659.0,0.0093
3658.0,0.0093
3657.0,0.0092
3656.0,0.0091
3655.0,0.0089
3654.0,0.0088
3653.0,0.0087
3652.0,0.0086
3651.0,0.0084
3650.0,0.0084
3649.0,0.0083
3648.0,0.0083
3647.0,0.0084
3646.0,0.0087
3645.0,0.009
3644.0,0.0093
3643.0,0.0094
3642.0,0.0095
3641.0,0.0095
3640.0,0.0095
3639.0,0.0095
3638.0,0.0095
3637.0,0.0094
3636.0,0.0093
3635.0,0.0091
3634.0,0.009
3633.0,0.009
3632.0,0.009
3631.0,0.0091
3630.0,0.0094
3629.0,0.0095
3628.0,0.0095
3627.0,0.0094
3626.0,0.0096
3625.0,0.0097
3624.0,0.0096
3623.0,0.0095
3622.0,0.0094
3621.0,0.0093
3620.0,0.0092
3619.0,0.0091
3618.0,0.009
3617.0,0.0089
3616.0,0.0089
3615.0,0.0089
3614.0,0.0089
3613.0,0.009
3612.0,0.0092
3611.0,0.0095
3610.0,0.0099
3609.0,0.0101
3608.0,0.0102
3607.0,0.0101
3606.0,0.0099
3605.0,0.0099
3604.0,0.0098
3603.0,0.0098
3602.0,0.0098
3601.0,0.0099
3600.0,0.0099
3599.0,0.0099
3598.0,0.0098
3597.0,0.0098
3596.0,0.0097
3595.0,0.0098
3594.0,0.0098
3593.0,0.0099
3592.0,0.0099
3591.0,0.0099
3590.0,0.0098
3589.0,0.0098
3588.0,0.0098
3587.0,0.0099
3586.0,0.0099
3585.0,0.01
3584.0,0.0102
3583.0,0.0102
3582.0,0.0102
3581.0,0.0102
3580.0,0.0102
3579.0,0.0101
3578.0,0.0101
3577.0,0.01
3576.0,0.01
3575.0,0.01
3574.0,0.0102
3573.0,0.0103
3572.0,0.0103
3571.0,0.0103
3570.0,0.0103
3569.0,0.0102
3568.0,0.0101
3567.0,0.0099
3566.0,0.0097
3565.0,0.0096
3564.0,0.0097
3563.0,0.0099
3562.0,0.0101
3561.0,0.0102
3560.0,0.0103
3559.0,0.0104
3558.0,0.0104
3557.0,0.0104
3556.0,0.0104
3555.0,0.0103
3554.0,0.0103
3553.0,0.0102
3552.0,0.0102
3551.0,0.0103
3550.0,0.0103
3549.0,0.0103
3548.0,0.0102
3547.0,0.0102
3546.0,0.0102
3545.0,0.0103
3544.0,0.0103
3543.0,0.0103
3542.0,0.0103
3541.0,0.0104
3540.0,0.0105
3539.0,0.0106
3538.0,0.0107
3537.0,0.0108
3536.0,0.0108
3535.0,0.0108
3534.0,0.0108
3533.0,0.0108
3532.0,0.0107
3531.0,0.0107
3530.0,0.0107
3529.0,0.0106
3528.0,0.0105
3527.0,0.0104
3526.0,0.0103
3525.0,0.0103
3524.0,0.0105
3523.0,0.0107
3522.0,0.0109
3521.0,0.011
3520.0,0.011
3519.0,0.011
3518.0,0.011
3517.0,0.0109
3516.0,0.0109
3515.0,0.0109
3514.0,0.0109
3513.0,0.0109
3512.0,0.011
3511.0,0.011
3510.0,0.0111
3509.0,0.011
3508.0,0.0109
3507.0,0.0108
3506.0,0.0107
3505.0,0.0107
3504.0,0.0108
3503.0,0.0109
3502.0,0.011
3501.0,0.011
3500.0,0.0111
3499.0,0.0111
3498.0,0.011
3497.0,0.011
3496.0,0.0109
3495.0,0.0109
3494.0,0.0108
3493.0,0.0108
3492.0,0.0109
3491.0,0.011
3490.0,0.0111
3489.0,0.0111
3488.0,0.0112
3487.0,0.0112
3486.0,0.0111
3485.0,0.011
3484.0,0.0111
3483.0,0.0111
3482.0,0.0111
3481.0,0.0111
3480.0,0.0111
3479.0,0.011
3478.0,0.011
3477.0,0.011
3476.0,0.0109
3475.0,0.0108
3474.0,0.0108
3473.0,0.0108
3472.0,0.0108
3471.0,0.0109
3470.0,0.011
3469.0,0.0111
3468.0,0.0112
3467.0,0.0113
3466.0,0.0114
3465.0,0.0114
3464.0,0.0113
3463.0,0.0113
3462.0,0.0113
3461.0,0.0112
3460.0,0.0112
3459.0,0.0111
3458.0,0.0111
3457.0,0.0111
3456.0,0.0112
3455.0,0.0114
3454.0,0.0115
3453.0,0.0114
3452.0,0.0114
3451.0,0.0113
3450.0,0.0112
3449.0,0.0112
3448.0,0.0112
3447.0,0.0111
3446.0,0.0111
3445.0,0.0111
3444.0,0.0112
3443.0,0.0113
3442.0,0.0113
3441.0,0.0112
3440.0,0.0112
3439.0,0.0111
3438.0,0.0112
3437.0,0.0113
3436.0,0.0114
3435.0,0.0115
3434.0,0.0116
3433.0,0.0117
3432.0,0.0117
3431.0,0.0116
3430.0,0.0116
3429.0,0.0116
3428.0,0.0116
3427.0,0.0115
3426.0,0.0114
3425.0,0.0114
3424.0,0.0114
3423.0,0.0114
3422.0,0.0114
3421.0,0.0113
3420.0,0.0112
3419.0,0.0112
3418.0,0.0113
3417.0,0.0114
3416.0,0.0116
3415.0,0.0117
3414.0,0.0116
3413.0,0.0115
3412.0,0.0115
3411.0,0.0114
3410.0,0.0115
3409.0,0.0115
3408.0,0.0115
3407.0,0.0114
3406.0,0.0114
3405.0,0.0113
3404.0,0.0113
3403.0,0.0113
3402.0,0.0113
3401.0,0.0113
3400.0,0.0114
3399.0,0.0114
3398.0,0.0115
3397.0,0.0116
3396.0,0.0116
3395.0,0.0116
3394.0,0.0116
3393.0,0.0115
3392.0,0.0114
3391.0,0.0114
3390.0,0.0114
3389.0,0.0114
3388.0,0.0115
3387.0,0.0116
3386.0,0.0115
3385.0,0.0115
3384.0,0.0114
3383.0,0.0113
3382.0,0.0113
3381.0,0.0112
3380.0,0.0112
3379.0,0.0112
3378.0,0.0112
3377.0,0.0114
3376.0,0.0115
3375.0,0.0115
3374.0,0.0114
3373.0,0.0113
3372.0,0.0112
3371.0,0.0111
3370.0,0.0111
3369.0,0.0111
3368.0,0.0111
3367.0,0.0112
3366.0,0.0113
3365.0,0.0114
3364.0,0.0114
3363.0,0.0114
3362.0,0.0113
3361.0,0.0113
3360.0,0.0114
3359.0,0.0114
3358.0,0.0114
3357.0,0.0114
3356.0,0.0113
3355.0,0.0113
3354.0,0.0114
3353.0,0.0114
3352.0,0.0114
3351.0,0.0113
3350.0,0.0112
3349.0,0.0111
3348.0,0.0111
3347.0,0.0111
3346.0,0.0112
3345.0,0.0112
3344.0,0.0113
3343.0,0.0113
3342.0,0.0114
3341.0,0.0114
3340.0,0.0114
3339.0,0.0113
3338.0,0.0113
3337.0,0.0112
3336.0,0.0112
3335.0,0.0111
3334.0,0.0111
3333.0,0.011
3332.0,0.011
3331.0,0.011
3330.0,0.011
3329.0,0.011
3328.0,0.011
3327.0,0.011
3326.0,0.011
3325.0,0.011
3324.0,0.011
3323.0,0.0109
3322.0,0.0108
3321.0,0.0107
3320.0,0.0107
3319.0,0.0108
3318.0,0.011
3317.0,0.011
3316.0,0.011
3315.0,0.011
3314.0,0.011
3313.0,0.0111
3312.0,0.0111
3311.0,0.011
3310.0,0.011
3309.0,0.0109
3308.0,0.0109
3307.0,0.0109
3306.0,0.0109
3305.0,0.0108
3304.0,0.0108
3303.0,0.0107
3302.0,0.0105
3301.0,0.0105
3300.0,0.0105
3299.0,0.0105
3298.0,0.0106
3297.0,0.0107
3296.0,0.0107
3295.0,0.0107
3294.0,0.0107
3293.0,0.0107
3292.0,0.0106
3291.0,0.0106
3290.0,0.0106
3289.0,0.0107
3288.0,0.0107
3287.0,0.0107
3286.0,0.0107
3285.0,0.0107
3284.0,0.0106
3283.0,0.0106
3282.0,0.0106
3281.0,0.0106
3280.0,0.0107
3279.0,0.0107
3278.0,0.0106
3277.0,0.0106
3276.0,0.0105
3275.0,0.0105
3274.0,0.0105
3273.0,0.0105
3272.0,0.0104
3271.0,0.0103
3270.0,0.0103
3269.0,0.0102
3268.0,0.0103
3267.0,0.0103
3266.0,0.0103
3265.0,0.0102
3264.0,0.0101
3263.0,0.0101
3262.0,0.0101
3261.0,0.0101
3260.0,0.0102
3259.0,0.0102
3258.0,0.0102
3257.0,0.0102
3256.0,0.0102
3255.0,0.0102
3254.0,0.0103
3253.0,0.0102
3252.0,0.0102
3251.0,0.0101
3250.0,0.0101
3249.0,0.0101
3248.0,0.01
3247.0,0.01
3246.0,0.01
3245.0,0.0099
3244.0,0.0098
3243.0,0.0097
3242.0,0.0097
3241.0,0.0097
3240.0,0.0097
3239.0,0.0098
3238.0,0.0098
3237.0,0.0099
3236.0,0.0099
3235.0,0.0099
3234.0,0.0099
3233.0,0.0099
3232.0,0.01
3231.0,0.01
3230.0,0.0101
3229.0,0.01
3228.0,0.01
3227.0,0.01
3226.0,0.01
3225.0,0.01
3224.0,0.01
3223.0,0.01
3222.0,0.0099
3221.0,0.0099
3220.0,0.0099
3219.0,0.0099
3218.0,0.0099
3217.0,0.0099
3216.0,0.0099
3215.0,0.0099
3214.0,0.0099
3213.0,0.01
3212.0,0.01
3211.0,0.0101
3210.0,0.0101
3209.0,0.01
3208.0,0.01
3207.0,0.01
3206.0,0.01
3205.0,0.0101
3204.0,0.0101
3203.0,0.0102
3202.0,0.0103
3201.0,0.0104
3200.0,0.0103
3199.0,0.0102
3198.0,0.0101
3197.0,0.01
3196.0,0.0099
3195.0,0.0099
3194.0,0.0099
3193.0,0.0099
3192.0,0.0098
3191.0,0.0098
3190.0,0.0097
3189.0,0.0097
3188.0,0.0097
3187.0,0.0096
3186.0,0.0096
3185.0,0.0096
3184.0,0.0096
3183.0,0.0097
3182.0,0.0097
3181.0,0.0097
3180.0,0.0097
3179.0,0.0096
3178.0,0.0096
3177.0,0.0095
3176.0,0.0095
3175.0,0.0095
3174.0,0.0095
3173.0,0.0094
3172.0,0.0094
3171.0,0.0094
3170.0,0.0093
3169.0,0.0093
3168.0,0.0093
3167.0,0.0093
3166.0,0.0092
3165.0,0.0091
3164.0,0.0091
3163.0,0.009
3162.0,0.009
3161.0,0.009
3160.0,0.009
3159.0,0.009
3158.0,0.0091
3157.0,0.0091
3156.0,0.0091
3155.0,0.009
3154.0,0.009
3153.0,0.009
3152.0,0.009
3151.0,0.009
3150.0,0.009
3149.0,0.0091
3148.0,0.009
3147.0,0.009
3146.0,0.0088
3145.0,0.0087
3144.0,0.0087
3143.0,0.0086
3142.0,0.0087
3141.0,0.0087
3140.0,0.0088
3139.0,0.0088
3138.0,0.0089
3137.0,0.0088
3136.0,0.0087
3135.0,0.0086
3134.0,0.0085
3133.0,0.0084
3132.0,0.0084
3131.0,0.0084
3130.0,0.0084
3129.0,0.0084
3128.0,0.0083
3127.0,0.0083
3126.0,0.0082
3125.0,0.0082
3124.0,0.0081
3123.0,0.008
3122.0,0.008
3121.0,0.008
3120.0,0.008
3119.0,0.0079
3118.0,0.0079
3117.0,0.0079
3116.0,0.0078
3115.0,0.0078
3114.0,0.0078
3113.0,0.0079
3112.0,0.0079
3111.0,0.0079
3110.0,0.0078
3109.0,0.0077
3108.0,0.0077
3107.0,0.0077
3106.0,0.0077
3105.0,0.0076
3104.0,0.0076
3103.0,0.0075
3102.0,0.0074
3101.0,0.0074
3100.0,0.0074
3099.0,0.0075
3098.0,0.0075
3097.0,0.0075
3096.0,0.0074
3095.0,0.0074
3094.0,0.0073
3093.0,0.0073
3092.0,0.0073
3091.0,0.0073
3090.0,0.0073
3089.0,0.0073
3088.0,0.0072
3087.0,0.0072
3086.0,0.0071
3085.0,0.007
3084.0,0.007
3083.0,0.0069
3082.0,0.0069
3081.0,0.0069
3080.0,0.0069
3079.0,0.0068
3078.0,0.0067
3077.0,0.0066
3076.0,0.0066
3075.0,0.0065
3074.0,0.0065
3073.0,0.0064
3072.0,0.0064
3071.0,0.0065
3070.0,0.0065
3069.0,0.0066
3068.0,0.0066
3067.0,0.0066
3066.0,0.0065
3065.0,0.0064
3064.0,0.0063
3063.0,0.0062
3062.0,0.0062
3061.0,0.0062
3060.0,0.0061
3059.0,0.0062
3058.0,0.0062
3057.0,0.0061
3056.0,0.0061
3055.0,0.0059
3054.0,0.0058
3053.0,0.0057
3052.0,0.0057
3051.0,0.0057
3050.0,0.0057
3049.0,0.0056
3048.0,0.0055
3047.0,0.0054
3046.0,0.0053
3045.0,0.0051
3044.0,0.005
3043.0,0.005
3042.0,0.005
3041.0,0.005
3040.0,0.005
3039.0,0.0051
3038.0,0.0051
3037.0,0.0051
3036.0,0.0051
3035.0,0.005
3034.0,0.0049
3033.0,0.0048
3032.0,0.0048
3031.0,0.0048
3030.0,0.0048
3029.0,0.0047
3028.0,0.0046
3027.0,0.0046
3026.0,0.0046
3025.0,0.0046
3024.0,0.0046
3023.0,0.0045
3022.0,0.0044
3021.0,0.0043
3020.0,0.0042
3019.0,0.004
3018.0,0.004
3017.0,0.004
3016.0,0.004
3015.0,0.0039
3014.0,0.0039
3013.0,0.0037
3012.0,0.0036
3011.0,0.0036
3010.0,0.0035
3009.0,0.0036
3008.0,0.0036
3007.0,0.0036
3006.0,0.0036
3005.0,0.0036
3004.0,0.0035
3003.0,0.0035
3002.0,0.0034
3001.0,0.0035
3000.0,0.0036
2999.0,0.0037
2998.0,0.0037
2997.0,0.0038
2996.0,0.0038
2995.0,0.0039
2994.0,0.0041
2993.0,0.0042
2992.0,0.0044
2991.0,0.0047
2990.0,0.005
2989.0,0.0053
2988.0,0.0057
2987.0,0.0061
2986.0,0.0066
2985.0,0.0072
2984.0,0.0079
2983.0,0.0087
2982.0,0.0097
2981.0,0.0109
2980.0,0.0122
2979.0,0.0138
2978.0,0.0156
2977.0,0.0176
2976.0,0.02
2975.0,0.0226
2974.0,0.0257
2973.0,0.0292
2972.0,0.0332
2971.0,0.0376
2970.0,0.0423
2969.0,0.0474
2968.0,0.0528
2967.0,0.0585
2966.0,0.0643
2965.0,0.07
2964.0,0.0754
2963.0,0.08
2962.0,0.0835
2961.0,0.086
2960.0,0.0877
2959.0,0.0893
2958.0,0.0913
2957.0,0.0941
2956.0,0.0982
2955.0,0.1036
2954.0,0.1099
2953.0,0.1166
2952.0,0.1224
2951.0,0.1265
2950.0,0.1278
2949.0,0.1261
2948.0,0.1215
2947.0,0.1147
2946.0,0.1066
2945.0,0.0982
2944.0,0.0903
2943.0,0.0833
2942.0,0.0776
2941.0,0.0734
2940.0,0.0706
2939.0,0.0692
2938.0,0.0691
2937.0,0.0703
2936.0,0.0725
2935.0,0.0758
2934.0,0.08
2933.0,0.0851
2932.0,0.091
2931.0,0.0976
2930.0,0.1047
2929.0,0.1121
2928.0,0.1196
2927.0,0.1272
2926.0,0.1348
2925.0,0.1423
2924.0,0.1499
2923.0,0.1576
2922.0,0.1653
2921.0,0.1729
2920.0,0.1797
2919.0,0.1849
2918.0,0.1878
2917.0,0.1878
2916.0,0.185
2915.0,0.1799
2914.0,0.1735
2913.0,0.1667
2912.0,0.1603
2911.0,0.1546
2910.0,0.1496
2909.0,0.1452
2908.0,0.1412
2907.0,0.1374
2906.0,0.1336
2905.0,0.1297
2904.0,0.1258
2903.0,0.1219
2902.0,0.1181
2901.0,0.1143
2900.0,0.1106
2899.0,0.1071
2898.0,0.1039
2897.0,0.1008
2896.0,0.098
2895.0,0.0956
2894.0,0.0935
2893.0,0.0918
2892.0,0.0904
2891.0,0.0895
2890.0,0.0888
2889.0,0.0884
2888.0,0.0882
2887.0,0.0881
2886.0,0.0882
2885.0,0.0885
2884.0,0.089
2883.0,0.0897
2882.0,0.0906
2881.0,0.0916
2880.0,0.0925
2879.0,0.0931
2878.0,0.0932
2877.0,0.0928
2876.0,0.0922
2875.0,0.0916
2874.0,0.0913
2873.0,0.0915
2872.0,0.0923
2871.0,0.0936
2870.0,0.0951
2869.0,0.0965
2868.0,0.0975
2867.0,0.0975
2866.0,0.0962
2865.0,0.0934
2864.0,0.0892
2863.0,0.0843
2862.0,0.0794
2861.0,0.075
2860.0,0.0714
2859.0,0.0689
2858.0,0.0673
2857.0,0.0666
2856.0,0.0669
2855.0,0.0681
2854.0,0.0701
2853.0,0.0728
2852.0,0.0758
2851.0,0.0787
2850.0,0.0808
2849.0,0.0821
2848.0,0.0827
2847.0,0.0831
2846.0,0.084
2845.0,0.0857
2844.0,0.0881
2843.0,0.0911
2842.0,0.0942
2841.0,0.0969
2840.0,0.0988
2839.0,0.0995
2838.0,0.0988
2837.0,0.0965
2836.0,0.0927
2835.0,0.0877
2834.0,0.0822
2833.0,0.0764
2832.0,0.071
2831.0,0.0662
2830.0,0.062
2829.0,0.0585
2828.0,0.0555
2827.0,0.0531
2826.0,0.051
2825.0,0.0492
2824.0,0.0476
2823.0,0.0463
2822.0,0.0451
2821.0,0.044
2820.0,0.0431
2819.0,0.0422
2818.0,0.0414
2817.0,0.0406
2816.0,0.04
2815.0,0.0394
2814.0,0.0389
2813.0,0.0383
2812.0,0.0378
2811.0,0.0373
2810.0,0.0367
2809.0,0.0363
2808.0,0.0358
2807.0,0.0353
2806.0,0.0348
2805.0,0.0342
2804.0,0.0336
2803.0,0.033
2802.0,0.0324
2801.0,0.032
2800.0,0.0316
2799.0,0.0313
2798.0,0.031
2797.0,0.0308
2796.0,0.0305
2795.0,0.0302
2794.0,0.0299
2793.0,0.0296
2792.0,0.0293
2791.0,0.029
2790.0,0.0287
2789.0,0.0284
2788.0,0.0281
2787.0,0.0278
2786.0,0.0276
2785.0,0.0273
2784.0,0.027
2783.0,0.0267
2782.0,0.0264
2781.0,0.0262
2780.0,0.026
2779.0,0.0258
2778.0,0.0257
2777.0,0.0255
2776.0,0.0253
2775.0,0.025
2774.0,0.0248
2773.0,0.0247
2772.0,0.0245
2771.0,0.0244
2770.0,0.0243
2769.0,0.0242
2768.0,0.0241
2767.0,0.024
2766.0,0.0239
2765.0,0.0238
2764.0,0.0237
2763.0,0.0236
2762.0,0.0235
2761.0,0.0234
2760.0,0.0233
2759.0,0.0233
2758.0,0.0232
2757.0,0.0231
2756.0,0.023
2755.0,0.0229
2754.0,0.0228
2753.0,0.0227
2752.0,0.0225
2751.0,0.0224
2750.0,0.0224
2749.0,0.0223
2748.0,0.0223
2747.0,0.0223
2746.0,0.0222
2745.0,0.0222
2744.0,0.0221
2743.0,0.0222
2742.0,0.0223
2741.0,0.0223
2740.0,0.0224
2739.0,0.0224
2738.0,0.0225
2737.0,0.0225
2736.0,0.0226
2735.0,0.0226
2734.0,0.0227
2733.0,0.0228
2732.0,0.0228
2731.0,0.023
2730.0,0.0231
2729.0,0.0233
2728.0,0.0235
2727.0,0.0236
2726.0,0.0238
2725.0,0.024
2724.0,0.0241
2723.0,0.0241
2722.0,0.0241
2721.0,0.024
2720.0,0.0238
2719.0,0.0236
2718.0,0.0235
2717.0,0.0233
2716.0,0.0231
2715.0,0.0228
2714.0,0.0226
2713.0,0.0224
2712.0,0.0222
2711.0,0.022
2710.0,0.0219
2709.0,0.0218
2708.0,0.0217
2707.0,0.0216
2706.0,0.0215
2705.0,0.0214
2704.0,0.0212
2703.0,0.0211
2702.0,0.021
2701.0,0.0209
2700.0,0.0208
2699.0,0.0207
2698.0,0.0206
2697.0,0.0206
2696.0,0.0206
2695.0,0.0205
2694.0,0.0205
2693.0,0.0205
2692.0,0.0205
2691.0,0.0204
2690.0,0.0204
2689.0,0.0204
2688.0,0.0203
2687.0,0.0203
2686.0,0.0202
2685.0,0.0202
2684.0,0.0202
2683.0,0.0202
2682.0,0.0203
2681.0,0.0203
2680.0,0.0203
2679.0,0.0203
2678.0,0.0202
2677.0,0.0202
2676.0,0.0202
2675.0,0.0202
2674.0,0.0201
2673.0,0.0201
2672.0,0.02
2671.0,0.02
2670.0,0.0198
2669.0,0.0197
2668.0,0.0197
2667.0,0.0197
2666.0,0.0198
2665.0,0.0199
2664.0,0.0199
2663.0,0.0199
2662.0,0.0198
2661.0,0.0198
2660.0,0.0198
2659.0,0.0197
2658.0,0.0196
2657.0,0.0196
2656.0,0.0195
2655.0,0.0195
2654.0,0.0195
2653.0,0.0194
2652.0,0.0193
2651.0,0.0192
2650.0,0.0191
2649.0,0.0191
2648.0,0.0191
2647.0,0.0191
2646.0,0.019
2645.0,0.0189
2644.0,0.0189
2643.0,0.0189
2642.0,0.0189
2641.0,0.0189
2640.0,0.0189
2639.0,0.0188
2638.0,0.0187
2637.0,0.0186
2636.0,0.0186
2635.0,0.0185
2634.0,0.0185
2633.0,0.0185
2632.0,0.0185
2631.0,0.0185
2630.0,0.0185
2629.0,0.0186
2628.0,0.0186
2627.0,0.0187
2626.0,0.0187
2625.0,0.0187
2624.0,0.0186
2623.0,0.0186
2622.0,0.0186
2621.0,0.0186
2620.0,0.0186
2619.0,0.0186
2618.0,0.0186
2617.0,0.0186
2616.0,0.0186
2615.0,0.0186
2614.0,0.0186
2613.0,0.0186
2612.0,0.0185
2611.0,0.0185
2610.0,0.0184
2609.0,0.0183
2608.0,0.0182
2607.0,0.0181
2606.0,0.018
2605.0,0.0179
2604.0,0.0179
2603.0,0.0179
2602.0,0.0179
2601.0,0.0179
2600.0,0.0179
2599.0,0.0179
2598.0,0.0178
2597.0,0.0177
2596.0,0.0177
2595.0,0.0177
2594.0,0.0177
2593.0,0.0178
2592.0,0.0178
2591.0,0.0178
2590.0,0.0179
2589.0,0.0181
2588.0,0.0182
2587.0,0.0182
2586.0,0.0183
2585.0,0.0183
2584.0,0.0184
2583.0,0.0184
2582.0,0.0184
2581.0,0.0184
2580.0,0.0183
2579.0,0.0182
2578.0,0.0182
2577.0,0.0181
2576.0,0.0181
2575.0,0.018
2574.0,0.0179
2573.0,0.0178
2572.0,0.0177
2571.0,0.0176
2570.0,0.0176
2569.0,0.0175
2568.0,0.0175
2567.0,0.0174
2566.0,0.0173
2565.0,0.0173
2564.0,0.0173
2563.0,0.0173
2562.0,0.0172
2561.0,0.0172
2560.0,0.0171
2559.0,0.0171
2558.0,0.0172
2557.0,0.0172
2556.0,0.0172
2555.0,0.0172
2554.0,0.0171
2553.0,0.0171
2552.0,0.017
2551.0,0.0169
2550.0,0.0168
2549.0,0.0168
2548.0,0.0168
2547.0,0.0167
2546.0,0.0167
2545.0,0.0167
2544.0,0.0166
2543.0,0.0165
2542.0,0.0165
2541.0,0.0164
2540.0,0.0164
2539.0,0.0163
2538.0,0.0163
2537.0,0.0163
2536.0,0.0163
2535.0,0.0163
2534.0,0.0162
2533.0,0.0162
2532.0,0.0162
2531.0,0.0162
2530.0,0.0162
2529.0,0.0162
2528.0,0.0162
2527.0,0.0162
2526.0,0.0162
2525.0,0.0161
2524.0,0.0161
2523.0,0.0161
2522.0,0.0161
2521.0,0.0161
2520.0,0.0161
2519.0,0.0161
2518.0,0.016
2517.0,0.0159
2516.0,0.0158
2515.0,0.0158
2514.0,0.0158
2513.0,0.0158
2512.0,0.0158
2511.0,0.0159
2510.0,0.016
2509.0,0.016
2508.0,0.0159
2507.0,0.0158
2506.0,0.0158
2505.0,0.0157
2504.0,0.0157
2503.0,0.0158
2502.0,0.0158
2501.0,0.0158
2500.0,0.0157
2499.0,0.0157
2498.0,0.0157
2497.0,0.0157
2496.0,0.0157
2495.0,0.0157
2494.0,0.0157
2493.0,0.0157
2492.0,0.0157
2491.0,0.0157
2490.0,0.0157
2489.0,0.0156
2488.0,0.0156
2487.0,0.0156
2486.0,0.0155
2485.0,0.0155
2484.0,0.0155
2483.0,0.0155
2482.0,0.0155
2481.0,0.0155
2480.0,0.0154
2479.0,0.0154
2478.0,0.0154
2477.0,0.0154
2476.0,0.0153
2475.0,0.0153
2474.0,0.0152
2473.0,0.0152
2472.0,0.0152
2471.0,0.0152
2470.0,0.0152
2469.0,0.0152
2468.0,0.0152
2467.0,0.0152
2466.0,0.0152
2465.0,0.0152
2464.0,0.0153
2463.0,0.0153
2462.0,0.0153
2461.0,0.0153
2460.0,0.0153
2459.0,0.0152
2458.0,0.0152
2457.0,0.0152
2456.0,0.0152
2455.0,0.0153
2454.0,0.0153
2453.0,0.0153
2452.0,0.0153
2451.0,0.0152
2450.0,0.0152
2449.0,0.0152
2448.0,0.0152
2447.0,0.0152
2446.0,0.0152
2445.0,0.0152
2444.0,0.0152
2443.0,0.0152
2442.0,0.0152
2441.0,0.0152
2440.0,0.0152
2439.0,0.0152
2438.0,0.0152
2437.0,0.0152
2436.0,0.0152
2435.0,0.0152
2434.0,0.0152
2433.0,0.0152
2432.0,0.0152
2431.0,0.0152
2430.0,0.0152
2429.0,0.0153
2428.0,0.0153
2427.0,0.0152
2426.0,0.0152
2425.0,0.0152
2424.0,0.0152
2423.0,0.0152
2422.0,0.0153
2421.0,0.0153
2420.0,0.0153
2419.0,0.0152
2418.0,0.0152
2417.0,0.0151
2416.0,0.0151
2415.0,0.0151
2414.0,0.0151
2413.0,0.0152
2412.0,0.0152
2411.0,0.0152
2410.0,0.0151
2409.0,0.0151
2408.0,0.0151
2407.0,0.015
2406.0,0.015
2405.0,0.0149
2404.0,0.0149
2403.0,0.0149
2402.0,0.015
2401.0,0.015
2400.0,0.015
2399.0,0.015
2398.0,0.015
2397.0,0.015
2396.0,0.0151
2395.0,0.0151
2394.0,0.0151
2393.0,0.015
2392.0,0.0149
2391.0,0.0149
2390.0,0.0149
2389.0,0.0149
2388.0,0.015
2387.0,0.015
2386.0,0.015
2385.0,0.0149
2384.0,0.0148
2383.0,0.0147
2382.0,0.0146
2381.0,0.0146
2380.0,0.0146
2379.0,0.0146
2378.0,0.0145
2377.0,0.0144
2376.0,0.0141
2375.0,0.0138
2374.0,0.0137
2373.0,0.0137
2372.0,0.0139
2371.0,0.0141
2370.0,0.014
2369.0,0.0134
2368.0,0.0126
2367.0,0.0124
2366.0,0.0127
2365.0,0.0127
2364.0,0.0115
2363.0,0.0096
2362.0,0.0081
2361.0,0.008
2360.0,0.0096
2359.0,0.0125
2358.0,0.0156
2357.0,0.0174
2356.0,0.0173
2355.0,0.0159
2354.0,0.0146
2353.0,0.0139
2352.0,0.0136
2351.0,0.0137
2350.0,0.0139
2349.0,0.0141
2348.0,0.014
2347.0,0.0134
2346.0,0.0127
2345.0,0.0124
2344.0,0.0125
2343.0,0.0129
2342.0,0.0135
2341.0,0.0141
2340.0,0.0145
2339.0,0.0148
2338.0,0.015
2337.0,0.0151
2336.0,0.0151
2335.0,0.0152
2334.0,0.0152
2333.0,0.0152
2332.0,0.0149
2331.0,0.0146
2330.0,0.0145
2329.0,0.0146
2328.0,0.0146
2327.0,0.0146
2326.0,0.0144
2325.0,0.0142
2324.0,0.0139
2323.0,0.0136
2322.0,0.0134
2321.0,0.0134
2320.0,0.0134
2319.0,0.0135
2318.0,0.0137
2317.0,0.0139
2316.0,0.0142
2315.0,0.0143
2314.0,0.0144
2313.0,0.0144
2312.0,0.0144
2311.0,0.0144
2310.0,0.0144
2309.0,0.0143
2308.0,0.0142
2307.0,0.0141
2306.0,0.0141
2305.0,0.0142
2304.0,0.0143
2303.0,0.0144
2302.0,0.0144
2301.0,0.0144
2300.0,0.0144
2299.0,0.0143
2298.0,0.0143
2297.0,0.0144
2296.0,0.0144
2295.0,0.0144
2294.0,0.0144
2293.0,0.0144
2292.0,0.0144
2291.0,0.0143
2290.0,0.0143
2289.0,0.0143
2288.0,0.0143
2287.0,0.0143
2286.0,0.0142
2285.0,0.0141
2284.0,0.0141
2283.0,0.0141
2282.0,0.0142
2281.0,0.0142
2280.0,0.0142
2279.0,0.0142
2278.0,0.0141
2277.0,0.0141
2276.0,0.0141
2275.0,0.0141
2274.0,0.0141
2273.0,0.0141
2272.0,0.0141
2271.0,0.0141
2270.0,0.0141
2269.0,0.0141
2268.0,0.0141
2267.0,0.0142
2266.0,0.0142
2265.0,0.0142
2264.0,0.0142
2263.0,0.0142
2262.0,0.0142
2261.0,0.0142
2260.0,0.0142
2259.0,0.0142
2258.0,0.0142
2257.0,0.0141
2256.0,0.014
2255.0,0.014
2254.0,0.014
2253.0,0.0141
2252.0,0.0141
2251.0,0.014
2250.0,0.0139
2249.0,0.0139
2248.0,0.0139
2247.0,0.0139
2246.0,0.0139
2245.0,0.0139
2244.0,0.0139
2243.0,0.014
2242.0,0.014
2241.0,0.0139
2240.0,0.0139
2239.0,0.0139
2238.0,0.014
2237.0,0.0139
2236.0,0.0139
2235.0,0.0139
2234.0,0.0139
2233.0,0.0139
2232.0,0.0139
2231.0,0.0138
2230.0,0.0138
2229.0,0.0137
2228.0,0.0137
2227.0,0.0137
2226.0,0.0138
2225.0,0.0139
2224.0,0.0139
2223.0,0.0139
2222.0,0.0139
2221.0,0.0138
2220.0,0.0138
2219.0,0.0138
2218.0,0.0139
2217.0,0.0139
2216.0,0.0139
2215.0,0.0139
2214.0,0.0138
2213.0,0.0138
2212.0,0.0138
2211.0,0.0138
2210.0,0.0138
2209.0,0.0138
2208.0,0.0138
2207.0,0.0138
2206.0,0.0138
2205.0,0.0138
2204.0,0.0138
2203.0,0.0138
2202.0,0.0138
2201.0,0.0138
2200.0,0.0138
2199.0,0.0138
2198.0,0.0138
2197.0,0.0138
2196.0,0.0138
2195.0,0.0138
2194.0,0.0138
2193.0,0.0138
2192.0,0.0138
2191.0,0.0138
2190.0,0.0138
2189.0,0.0139
2188.0,0.014
2187.0,0.014
2186.0,0.0139
2185.0,0.0139
2184.0,0.0139
2183.0,0.0139
2182.0,0.0138
2181.0,0.0138
2180.0,0.0138
2179.0,0.0138
2178.0,0.0138
2177.0,0.0138
2176.0,0.0138
2175.0,0.0138
2174.0,0.0137
2173.0,0.0137
2172.0,0.0138
2171.0,0.0138
2170.0,0.0138
2169.0,0.0138
2168.0,0.0138
2167.0,0.0137
2166.0,0.0137
2165.0,0.0137
2164.0,0.0137
2163.0,0.0137
2162.0,0.0137
2161.0,0.0137
2160.0,0.0137
2159.0,0.0137
2158.0,0.0136
2157.0,0.0136
2156.0,0.0136
2155.0,0.0136
2154.0,0.0136
2153.0,0.0136
2152.0,0.0136
2151.0,0.0137
2150.0,0.0137
2149.0,0.0137
2148.0,0.0137
2147.0,0.0136
2146.0,0.0136
2145.0,0.0136
2144.0,0.0136
2143.0,0.0135
2142.0,0.0135
2141.0,0.0135
2140.0,0.0135
2139.0,0.0136
2138.0,0.0136
2137.0,0.0137
2136.0,0.0137
2135.0,0.0136
2134.0,0.0136
2133.0,0.0136
2132.0,0.0136
2131.0,0.0136
2130.0,0.0136
2129.0,0.0136
2128.0,0.0136
2127.0,0.0136
2126.0,0.0136
2125.0,0.0136
2124.0,0.0136
2123.0,0.0136
2122.0,0.0135
2121.0,0.0135
2120.0,0.0134
2119.0,0.0134
2118.0,0.0134
2117.0,0.0134
2116.0,0.0134
2115.0,0.0134
2114.0,0.0134
2113.0,0.0134
2112.0,0.0133
2111.0,0.0134
2110.0,0.0134
2109.0,0.0134
2108.0,0.0134
2107.0,0.0134
2106.0,0.0133
2105.0,0.0133
2104.0,0.0133
2103.0,0.0134
2102.0,0.0134
2101.0,0.0134
2100.0,0.0134
2099.0,0.0134
2098.0,0.0134
2097.0,0.0134
2096.0,0.0134
2095.0,0.0134
2094.0,0.0133
2093.0,0.0133
2092.0,0.0133
2091.0,0.0133
2090.0,0.0133
2089.0,0.0134
2088.0,0.0134
2087.0,0.0134
2086.0,0.0134
2085.0,0.0134
2084.0,0.0133
2083.0,0.0133
2082.0,0.0133
2081.0,0.0133
2080.0,0.0133
2079.0,0.0133
2078.0,0.0134
2077.0,0.0134
2076.0,0.0133
2075.0,0.0133
2074.0,0.0133
2073.0,0.0132
2072.0,0.0132
2071.0,0.0132
2070.0,0.0132
2069.0,0.0132
2068.0,0.0132
2067.0,0.0132
2066.0,0.0131
2065.0,0.0131
2064.0,0.0131
2063.0,0.0131
2062.0,0.0131
2061.0,0.0132
2060.0,0.0132
2059.0,0.0132
2058.0,0.0132
2057.0,0.0133
2056.0,0.0133
2055.0,0.0132
2054.0,0.0132
2053.0,0.0131
2052.0,0.0131
2051.0,0.0131
2050.0,0.0132
2049.0,0.0132
2048.0,0.0133
2047.0,0.0133
2046.0,0.0133
2045.0,0.0133
2044.0,0.0132
2043.0,0.0132
2042.0,0.0132
2041.0,0.0132
2040.0,0.0131
2039.0,0.0131
2038.0,0.0132
2037.0,0.0132
2036.0,0.0132
2035.0,0.0133
2034.0,0.0133
2033.0,0.0133
2032.0,0.0133
2031.0,0.0133
2030.0,0.0132
2029.0,0.0132
2028.0,0.0132
2027.0,0.0132
2026.0,0.0131
2025.0,0.0131
2024.0,0.0131
2023.0,0.0131
2022.0,0.0131
2021.0,0.0131
2020.0,0.0131
2019.0,0.0131
2018.0,0.0132
2017.0,0.0132
2016.0,0.0132
2015.0,0.0132
2014.0,0.0132
2013.0,0.0132
2012.0,0.0132
2011.0,0.0132
2010.0,0.0132
2009.0,0.0132
2008.0,0.0132
2007.0,0.0132
2006.0,0.0132
2005.0,0.0132
2004.0,0.0132
2003.0,0.0132
2002.0,0.0132
2001.0,0.0132
2000.0,0.0132
1999.0,0.0131
1998.0,0.0131
1997.0,0.0131
1996.0,0.0131
1995.0,0.0132
1994.0,0.0132
1993.0,0.0132
1992.0,0.0132
1991.0,0.0132
1990.0,0.0132
1989.0,0.0131
1988.0,0.0131
1987.0,0.0132
1986.0,0.0132
1985.0,0.0132
1984.0,0.0132
1983.0,0.0132
1982.0,0.0131
1981.0,0.0131
1980.0,0.0131
1979.0,0.0131
1978.0,0.0132
1977.0,0.0132
1976.0,0.0132
1975.0,0.0131
1974.0,0.0131
1973.0,0.013
1972.0,0.013
1971.0,0.013
1970.0,0.013
1969.0,0.013
1968.0,0.013
1967.0,0.013
1966.0,0.013
1965.0,0.013
1964.0,0.013
1963.0,0.013
1962.0,0.0131
1961.0,0.0131
1960.0,0.0131
1959.0,0.0131
1958.0,0.0131
1957.0,0.013
1956.0,0.013
1955.0,0.013
1954.0,0.013
1953.0,0.013
1952.0,0.013
1951.0,0.013
1950.0,0.013
1949.0,0.0131
1948.0,0.0131
1947.0,0.0131
1946.0,0.0131
1945.0,0.0132
1944.0,0.0132
1943.0,0.0132
1942.0,0.0132
1941.0,0.0131
1940.0,0.0131
1939.0,0.0131
1938.0,0.0131
1937.0,0.013
1936.0,0.013
1935.0,0.013
1934.0,0.013
1933.0,0.013
1932.0,0.0131
1931.0,0.0131
1930.0,0.0132
1929.0,0.0132
1928.0,0.0132
1927.0,0.0131
1926.0,0.0131
1925.0,0.0131
1924.0,0.0132
1923.0,0.0132
1922.0,0.0131
1921.0,0.0131
1920.0,0.0131
1919.0,0.0131
1918.0,0.0131
1917.0,0.0131
1916.0,0.0131
1915.0,0.0131
1914.0,0.0131
1913.0,0.0131
1912.0,0.0131
1911.0,0.0131
1910.0,0.0131
1909.0,0.0132
1908.0,0.0132
1907.0,0.0132
1906.0,0.0131
1905.0,0.0131
1904.0,0.0131
1903.0,0.0131
1902.0,0.0132
1901.0,0.0132
1900.0,0.0132
1899.0,0.0132
1898.0,0.0132
1897.0,0.0132
1896.0,0.0132
1895.0,0.0132
1894.0,0.0132
1893.0,0.0131
1892.0,0.0131
1891.0,0.013
1890.0,0.013
1889.0,0.0131
1888.0,0.0131
1887.0,0.0131
1886.0,0.0131
1885.0,0.0131
1884.0,0.013
1883.0,0.013
1882.0,0.0129
1881.0,0.013
1880.0,0.013
1879.0,0.0131
1878.0,0.0131
1877.0,0.013
1876.0,0.013
1875.0,0.013
1874.0,0.013
1873.0,0.013
1872.0,0.013
1871.0,0.013
1870.0,0.013
1869.0,0.013
1868.0,0.013
1867.0,0.013
1866.0,0.013
1865.0,0.0131
1864.0,0.0131
1863.0,0.013
1862.0,0.013
1861.0,0.013
1860.0,0.013
1859.0,0.013
1858.0,0.013
1857.0,0.013
1856.0,0.013
1855.0,0.013
1854.0,0.013
1853.0,0.013
1852.0,0.013
1851.0,0.013
1850.0,0.013
1849.0,0.0129
1848.0,0.0129
1847.0,0.0129
1846.0,0.013
1845.0,0.0131
1844.0,0.0132
1843.0,0.0132
1842.0,0.0131
1841.0,0.0131
1840.0,0.0131
1839.0,0.0131
1838.0,0.013
1837.0,0.013
1836.0,0.0129
1835.0,0.0128
1834.0,0.0128
1833.0,0.0128
1832.0,0.0129
1831.0,0.0129
1830.0,0.0129
1829.0,0.0129
1828.0,0.0129
1827.0,0.013
1826.0,0.013
1825.0,0.0131
1824.0,0.0131
1823.0,0.013
1822.0,0.013
1821.0,0.013
1820.0,0.0129
1819.0,0.0129
1818.0,0.0129
1817.0,0.0129
1816.0,0.0129
1815.0,0.0129
1814.0,0.0129
1813.0,0.0129
1812.0,0.013
1811.0,0.013
1810.0,0.013
1809.0,0.013
1808.0,0.013
1807.0,0.013
1806.0,0.013
1805.0,0.0129
1804.0,0.0129
1803.0,0.0129
1802.0,0.0129
1801.0,0.013
1800.0,0.013
1799.0,0.013
1798.0,0.0129
1797.0,0.0129
1796.0,0.0129
1795.0,0.0129
1794.0,0.0129
1793.0,0.0129
1792.0,0.013
1791.0,0.013
1790.0,0.013
1789.0,0.013
1788.0,0.013
1787.0,0.013
1786.0,0.013
1785.0,0.0131
1784.0,0.0131
1783.0,0.0131
1782.0,0.0131
1781.0,0.013
1780.0,0.013
1779.0,0.013
1778.0,0.013
1777.0,0.013
1776.0,0.013
1775.0,0.0131
1774.0,0.013
1773.0,0.013
1772.0,0.013
1771.0,0.013
1770.0,0.013
1769.0,0.0131
1768.0,0.0131
1767.0,0.0131
1766.0,0.0131
1765.0,0.0131
1764.0,0.0131
1763.0,0.0132
1762.0,0.0132
1761.0,0.0132
1760.0,0.0132
1759.0,0.0132
1758.0,0.0133
1757.0,0.0134
1756.0,0.0135
1755.0,0.0136
1754.0,0.0137
1753.0,0.0138
1752.0,0.0139
1751.0,0.014
1750.0,0.0141
1749.0,0.0142
1748.0,0.0143
1747.0,0.0144
1746.0,0.0144
1745.0,0.0145
1744.0,0.0146
1743.0,0.0146
1742.0,0.0146
1741.0,0.0147
1740.0,0.0147
1739.0,0.0147
1738.0,0.0148
1737.0,0.0149
1736.0,0.0148
1735.0,0.0148
1734.0,0.0147
1733.0,0.0146
1732.0,0.0146
1731.0,0.0146
1730.0,0.0147
1729.0,0.0146
1728.0,0.0146
1727.0,0.0146
1726.0,0.0146
1725.0,0.0147
1724.0,0.0147
1723.0,0.0147
1722.0,0.0147
1721.0,0.0146
1720.0,0.0146
1719.0,0.0145
1718.0,0.0145
1717.0,0.0146
1716.0,0.0146
1715.0,0.0146
1714.0,0.0146
1713.0,0.0146
1712.0,0.0146
1711.0,0.0145
1710.0,0.0145
1709.0,0.0145
1708.0,0.0145
1707.0,0.0145
1706.0,0.0145
1705.0,0.0145
1704.0,0.0145
1703.0,0.0146
1702.0,0.0146
1701.0,0.0146
1700.0,0.0146
1699.0,0.0146
1698.0,0.0147
1697.0,0.0148
1696.0,0.0149
1695.0,0.0147
1694.0,0.0147
1693.0,0.0147
1692.0,0.0147
1691.0,0.0147
1690.0,0.0146
1689.0,0.0146
1688.0,0.0146
1687.0,0.0147
1686.0,0.0146
1685.0,0.0147
1684.0,0.0148
1683.0,0.0148
1682.0,0.0148
1681.0,0.0149
1680.0,0.0149
1679.0,0.0149
1678.0,0.015
1677.0,0.015
1676.0,0.015
1675.0,0.015
1674.0,0.015
1673.0,0.015
1672.0,0.0151
1671.0,0.0151
1670.0,0.0152
1669.0,0.0153
1668.0,0.0153
1667.0,0.0153
1666.0,0.0153
1665.0,0.0153
1664.0,0.0154
1663.0,0.0154
1662.0,0.0154
1661.0,0.0154
1660.0,0.0154
1659.0,0.0153
1658.0,0.0153
1657.0,0.0153
1656.0,0.0153
1655.0,0.0152
1654.0,0.0154
1653.0,0.0155
1652.0,0.0154
1651.0,0.0153
1650.0,0.0153
1649.0,0.0153
1648.0,0.0153
1647.0,0.0153
1646.0,0.0154
1645.0,0.0154
1644.0,0.0154
1643.0,0.0154
1642.0,0.0154
1641.0,0.0154
1640.0,0.0154
1639.0,0.0153
1638.0,0.0152
1637.0,0.0152
1636.0,0.0152
1635.0,0.0152
1634.0,0.0151
1633.0,0.0151
1632.0,0.0151
1631.0,0.0151
1630.0,0.015
1629.0,0.015
1628.0,0.015
1627.0,0.015
1626.0,0.015
1625.0,0.015
1624.0,0.015
1623.0,0.0149
1622.0,0.0148
1621.0,0.0148
1620.0,0.0148
1619.0,0.0148
1618.0,0.0148
1617.0,0.0148
1616.0,0.0148
1615.0,0.0147
1614.0,0.0147
1613.0,0.0147
1612.0,0.0146
1611.0,0.0146
1610.0,0.0146
1609.0,0.0146
1608.0,0.0146
1607.0,0.0147
1606.0,0.0148
1605.0,0.0148
1604.0,0.0148
1603.0,0.0149
1602.0,0.0148
1601.0,0.0148
1600.0,0.0148
1599.0,0.0147
1598.0,0.0147
1597.0,0.0146
1596.0,0.0145
1595.0,0.0144
1594.0,0.0143
1593.0,0.0142
1592.0,0.0142
1591.0,0.0142
1590.0,0.0142
1589.0,0.0142
1588.0,0.0142
1587.0,0.0142
1586.0,0.0142
1585.0,0.0141
1584.0,0.0141
1583.0,0.0141
1582.0,0.014
1581.0,0.014
1580.0,0.014
1579.0,0.014
1578.0,0.014
1577.0,0.014
1576.0,0.0139
1575.0,0.0139
1574.0,0.0139
1573.0,0.0139
1572.0,0.0139
1571.0,0.0138
1570.0,0.0137
1569.0,0.0137
1568.0,0.0138
1567.0,0.0138
1566.0,0.0138
1565.0,0.0138
1564.0,0.0138
1563.0,0.0138
1562.0,0.0139
1561.0,0.0138
1560.0,0.0138
1559.0,0.0139
1558.0,0.0138
1557.0,0.0137
1556.0,0.0138
1555.0,0.0139
1554.0,0.0139
1553.0,0.0139
1552.0,0.0139
1551.0,0.0138
1550.0,0.0138
1549.0,0.0138
1548.0,0.0138
1547.0,0.0137
1546.0,0.0137
1545.0,0.0137
1544.0,0.0137
1543.0,0.0136
1542.0,0.0135
1541.0,0.0135
1540.0,0.0135
1539.0,0.0134
1538.0,0.0133
1537.0,0.0134
1536.0,0.0135
1535.0,0.0135
1534.0,0.0134
1533.0,0.0133
1532.0,0.0132
1531.0,0.0131
1530.0,0.0131
1529.0,0.0131
1528.0,0.0132
1527.0,0.0132
1526.0,0.0131
1525.0,0.0131
1524.0,0.0131
1523.0,0.013
1522.0,0.013
1521.0,0.013
1520.0,0.013
1519.0,0.013
1518.0,0.0129
1517.0,0.0129
1516.0,0.0128
1515.0,0.0128
1514.0,0.0127
1513.0,0.0127
1512.0,0.0127
1511.0,0.0126
1510.0,0.0125
1509.0,0.0125
1508.0,0.0125
1507.0,0.0125
1506.0,0.0124
1505.0,0.0124
1504.0,0.0125
1503.0,0.0125
1502.0,0.0125
1501.0,0.0126
1500.0,0.0127
1499.0,0.0128
1498.0,0.0129
1497.0,0.0133
1496.0,0.0137
1495.0,0.014
1494.0,0.0142
1493.0,0.0143
1492.0,0.0142
1491.0,0.0139
1490.0,0.0136
1489.0,0.0135
1488.0,0.0136
1487.0,0.0135
1486.0,0.0136
1485.0,0.0137
1484.0,0.0139
1483.0,0.0142
1482.0,0.0145
1481.0,0.015
1480.0,0.0156
1479.0,0.0162
1478.0,0.0171
1477.0,0.0188
1476.0,0.0211
1475.0,0.0239
1474.0,0.0276
1473.0,0.0324
1472.0,0.0372
1471.0,0.041
1470.0,0.0445
1469.0,0.0485
1468.0,0.053
1467.0,0.0582
1466.0,0.0649
1465.0,0.0729
1464.0,0.0799
1463.0,0.0842
1462.0,0.0865
1461.0,0.0877
1460.0,0.0884
1459.0,0.0887
1458.0,0.0898
1457.0,0.0915
1456.0,0.0924
1455.0,0.0923
1454.0,0.092
1453.0,0.0914
1452.0,0.0903
1451.0,0.0884
1450.0,0.0858
1449.0,0.0819
1448.0,0.0766
1447.0,0.0709
1446.0,0.0657
1445.0,0.0612
1444.0,0.057
1443.0,0.0535
1442.0,0.0507
1441.0,0.0487
1440.0,0.0474
1439.0,0.0467
1438.0,0.0468
1437.0,0.0472
1436.0,0.047
1435.0,0.0456
1434.0,0.0433
1433.0,0.0404
1432.0,0.0371
1431.0,0.0341
1430.0,0.0317
1429.0,0.0298
1428.0,0.0284
1427.0,0.0275
1426.0,0.0267
1425.0,0.026
1424.0,0.0253
1423.0,0.0249
1422.0,0.0246
1421.0,0.0243
1420.0,0.0239
1419.0,0.0236
1418.0,0.0233
1417.0,0.0229
1416.0,0.0225
1415.0,0.0223
1414.0,0.022
1413.0,0.0217
1412.0,0.0214
1411.0,0.0212
1410.0,0.021
1409.0,0.0207
1408.0,0.0205
1407.0,0.0203
1406.0,0.0202
1405.0,0.02
1404.0,0.0198
1403.0,0.0197
1402.0,0.0196
1401.0,0.0193
1400.0,0.0191
1399.0,0.019
1398.0,0.0189
1397.0,0.0188
1396.0,0.0186
1395.0,0.0185
1394.0,0.0185
1393.0,0.0185
1392.0,0.0184
1391.0,0.0186
1390.0,0.0189
1389.0,0.0193
1388.0,0.0202
1387.0,0.0219
1386.0,0.0243
1385.0,0.0276
1384.0,0.0324
1383.0,0.0394
1382.0,0.0489
1381.0,0.0613
1380.0,0.077
1379.0,0.0954
1378.0,0.1137
1377.0,0.1279
1376.0,0.1348
1375.0,0.1318
1374.0,0.1201
1373.0,0.105
1372.0,0.0909
1371.0,0.0786
1370.0,0.0679
1369.0,0.0592
1368.0,0.0529
1367.0,0.0488
1366.0,0.0464
1365.0,0.0452
1364.0,0.045
1363.0,0.0458
1362.0,0.0472
1361.0,0.0488
1360.0,0.0499
1359.0,0.0502
1358.0,0.0495
1357.0,0.0478
1356.0,0.0454
1355.0,0.0427
1354.0,0.04
1353.0,0.0378
1352.0,0.0359
1351.0,0.0344
1350.0,0.033
1349.0,0.0319
1348.0,0.0309
1347.0,0.03
1346.0,0.0292
1345.0,0.0286
1344.0,0.028
1343.0,0.0275
1342.0,0.027
1341.0,0.0266
1340.0,0.0263
1339.0,0.0261
1338.0,0.026
1337.0,0.0259
1336.0,0.0259
1335.0,0.0259
1334.0,0.026
1333.0,0.0262
1332.0,0.0264
1331.0,0.0266
1330.0,0.0267
1329.0,0.0267
1328.0,0.0265
1327.0,0.0262
1326.0,0.0258
1325.0,0.0253
1324.0,0.0249
1323.0,0.0246
1322.0,0.0243
1321.0,0.024
1320.0,0.0238
1319.0,0.0237
1318.0,0.0235
1317.0,0.0233
1316.0,0.0231
1315.0,0.023
1314.0,0.0229
1313.0,0.0228
1312.0,0.0228
1311.0,0.0228
1310.0,0.023
1309.0,0.0234
1308.0,0.0239
1307.0,0.0247
1306.0,0.0254
1305.0,0.0259
1304.0,0.0261
1303.0,0.026
1302.0,0.0257
1301.0,0.0254
1300.0,0.0253
1299.0,0.0252
1298.0,0.0252
1297.0,0.0253
1296.0,0.0252
1295.0,0.0251
1294.0,0.0249
1293.0,0.0247
1292.0,0.0244
1291.0,0.0241
1290.0,0.0238
1289.0,0.0235
1288.0,0.0232
1287.0,0.023
1286.0,0.0228
1285.0,0.0227
1284.0,0.0225
1283.0,0.0224
1282.0,0.0223
1281.0,0.0222
1280.0,0.0222
1279.0,0.0221
1278.0,0.0221
1277.0,0.022
1276.0,0.022
1275.0,0.0219
1274.0,0.0219
1273.0,0.0219
1272.0,0.022
1271.0,0.022
1270.0,0.0221
1269.0,0.0221
1268.0,0.0222
1267.0,0.0223
1266.0,0.0224
1265.0,0.0225
1264.0,0.0225
1263.0,0.0227
1262.0,0.0229
1261.0,0.0232
1260.0,0.0236
1259.0,0.0241
1258.0,0.0246
1257.0,0.0249
1256.0,0.0252
1255.0,0.0251
1254.0,0.0248
1253.0,0.0243
1252.0,0.0238
1251.0,0.0234
1250.0,0.0231
1249.0,0.0228
1248.0,0.0227
1247.0,0.0226
1246.0,0.0225
1245.0,0.0223
1244.0,0.0222
1243.0,0.0221
1242.0,0.0219
1241.0,0.0218
1240.0,0.0217
1239.0,0.0216
1238.0,0.0216
1237.0,0.0215
1236.0,0.0215
1235.0,0.0215
1234.0,0.0214
1233.0,0.0213
1232.0,0.0213
1231.0,0.0213
1230.0,0.0213
1229.0,0.0214
1228.0,0.0214
1227.0,0.0214
1226.0,0.0215
1225.0,0.0216
1224.0,0.0218
1223.0,0.022
1222.0,0.0223
1221.0,0.0224
1220.0,0.0226
1219.0,0.0226
1218.0,0.0227
1217.0,0.0226
1216.0,0.0225
1215.0,0.0222
1214.0,0.022
1213.0,0.0217
1212.0,0.0215
1211.0,0.0214
1210.0,0.0213
1209.0,0.0212
1208.0,0.0211
1207.0,0.0211
1206.0,0.0211
1205.0,0.0211
1204.0,0.021
1203.0,0.0209
1202.0,0.0208
1201.0,0.0207
1200.0,0.0206
1199.0,0.0206
1198.0,0.0207
1197.0,0.0207
1196.0,0.0207
1195.0,0.0207
1194.0,0.0207
1193.0,0.0206
1192.0,0.0206
1191.0,0.0206
1190.0,0.0205
1189.0,0.0205
1188.0,0.0206
1187.0,0.0206
1186.0,0.0206
1185.0,0.0206
1184.0,0.0207
1183.0,0.0208
1182.0,0.0209
1181.0,0.021
1180.0,0.0211
1179.0,0.0214
1178.0,0.0217
1177.0,0.0222
1176.0,0.0228
1175.0,0.0236
1174.0,0.0249
1173.0,0.0266
1172.0,0.0286
1171.0,0.0309
1170.0,0.0331
1169.0,0.0349
1168.0,0.036
1167.0,0.0364
1166.0,0.0361
1165.0,0.0353
1164.0,0.0343
1163.0,0.0334
1162.0,0.0326
1161.0,0.0319
1160.0,0.0314
1159.0,0.0309
1158.0,0.0306
1157.0,0.0304
1156.0,0.0303
1155.0,0.0303
1154.0,0.0302
1153.0,0.0302
1152.0,0.03
1151.0,0.0296
1150.0,0.029
1149.0,0.0284
1148.0,0.0276
1147.0,0.0269
1146.0,0.0263
1145.0,0.0258
1144.0,0.0253
1143.0,0.0247
1142.0,0.0242
1141.0,0.0237
1140.0,0.0233
1139.0,0.023
1138.0,0.0227
1137.0,0.0223
1136.0,0.0221
1135.0,0.0219
1134.0,0.0218
1133.0,0.0217
1132.0,0.0216
1131.0,0.0215
1130.0,0.0215
1129.0,0.0214
1128.0,0.0214
1127.0,0.0213
1126.0,0.0213
1125.0,0.0213
1124.0,0.0213
1123.0,0.0213
1122.0,0.0213
1121.0,0.0213
1120.0,0.0213
1119.0,0.0214
1118.0,0.0215
1117.0,0.0215
1116.0,0.0215
1115.0,0.0215
1114.0,0.0216
1113.0,0.0217
1112.0,0.0218
1111.0,0.0219
1110.0,0.0221
1109.0,0.0223
1108.0,0.0227
1107.0,0.0232
1106.0,0.0237
1105.0,0.0242
1104.0,0.0246
1103.0,0.0249
1102.0,0.025
1101.0,0.0249
1100.0,0.0247
1099.0,0.0243
1098.0,0.0239
1097.0,0.0235
1096.0,0.0232
1095.0,0.0229
1094.0,0.0227
1093.0,0.0225
1092.0,0.0222
1091.0,0.022
1090.0,0.0218
1089.0,0.0217
1088.0,0.0217
1087.0,0.0217
1086.0,0.0216
1085.0,0.0216
1084.0,0.0215
1083.0,0.0214
1082.0,0.0214
1081.0,0.0213
1080.0,0.0212
1079.0,0.0212
1078.0,0.0211
1077.0,0.021
1076.0,0.021
1075.0,0.021
1074.0,0.0211
1073.0,0.0211
1072.0,0.0212
1071.0,0.0211
1070.0,0.0211
1069.0,0.0211
1068.0,0.021
1067.0,0.0209
1066.0,0.0209
1065.0,0.0209
1064.0,0.0209
1063.0,0.0209
1062.0,0.0209
1061.0,0.0209
1060.0,0.0208
1059.0,0.0208
1058.0,0.0209
1057.0,0.0209
1056.0,0.0209
1055.0,0.021
1054.0,0.021
1053.0,0.0211
1052.0,0.0213
1051.0,0.0215
1050.0,0.0217
1049.0,0.022
1048.0,0.0222
1047.0,0.0225
1046.0,0.0228
1045.0,0.023
1044.0,0.0231
1043.0,0.0231
1042.0,0.023
1041.0,0.0229
1040.0,0.0229
1039.0,0.0229
1038.0,0.0229
1037.0,0.023
1036.0,0.0231
1035.0,0.0232
1034.0,0.0234
1033.0,0.0236
1032.0,0.0238
1031.0,0.024
1030.0,0.0243
1029.0,0.0245
1028.0,0.0247
1027.0,0.0249
1026.0,0.0251
1025.0,0.0252
1024.0,0.0254
1023.0,0.0255
1022.0,0.0257
1021.0,0.0257
1020.0,0.0257
1019.0,0.0256
1018.0,0.0256
1017.0,0.0255
1016.0,0.0255
1015.0,0.0255
1014.0,0.0255
1013.0,0.0255
1012.0,0.0255
1011.0,0.0255
1010.0,0.0256
1009.0,0.0257
1008.0,0.0259
1007.0,0.0262
1006.0,0.0266
1005.0,0.0272
1004.0,0.0281
1003.0,0.0295
1002.0,0.0315
1001.0,0.034
1000.0,0.0368
999.0,0.0393
998.0,0.0406
997.0,0.0405
996.0,0.039
995.0,0.0367
994.0,0.0342
993.0,0.0321
992.0,0.0303
991.0,0.029
990.0,0.028
989.0,0.0274
988.0,0.0269
987.0,0.0266
986.0,0.0265
985.0,0.0264
984.0,0.0265
983.0,0.0269
982.0,0.0275
981.0,0.0286
980.0,0.0301
979.0,0.0322
978.0,0.0347
977.0,0.0377
976.0,0.041
975.0,0.0442
974.0,0.0467
973.0,0.0479
972.0,0.0475
971.0,0.0456
970.0,0.0428
969.0,0.0398
968.0,0.0373
967.0,0.0354
966.0,0.034
965.0,0.0329
964.0,0.0322
963.0,0.0315
962.0,0.031
961.0,0.0306
960.0,0.0303
959.0,0.0301
958.0,0.03
957.0,0.0299
956.0,0.0298
955.0,0.0297
954.0,0.0295
953.0,0.0293
952.0,0.0291
951.0,0.029
950.0,0.0289
949.0,0.0289
948.0,0.0289
947.0,0.029
946.0,0.0291
945.0,0.0292
944.0,0.0295
943.0,0.0297
942.0,0.03
941.0,0.0302
940.0,0.0302
939.0,0.03
938.0,0.0296
937.0,0.0292
936.0,0.0288
935.0,0.0284
934.0,0.0281
933.0,0.0278
932.0,0.0275
931.0,0.0273
930.0,0.0272
929.0,0.0271
928.0,0.027
927.0,0.0269
926.0,0.0268
925.0,0.0268
924.0,0.0267
923.0,0.0267
922.0,0.0267
921.0,0.0267
920.0,0.0266
919.0,0.0265
918.0,0.0265
917.0,0.0264
916.0,0.0264
915.0,0.0263
914.0,0.0262
913.0,0.0262
912.0,0.0262
911.0,0.0263
910.0,0.0265
909.0,0.0266
908.0,0.0268
907.0,0.0271
906.0,0.0275
905.0,0.0282
904.0,0.0291
903.0,0.0304
902.0,0.032
901.0,0.0336
900.0,0.0349
899.0,0.0354
898.0,0.035
897.0,0.0341
896.0,0.0328
895.0,0.0315
894.0,0.0303
893.0,0.0294
892.0,0.0287
891.0,0.0282
890.0,0.0278
889.0,0.0276
888.0,0.0274
887.0,0.0273
886.0,0.0272
885.0,0.0271
884.0,0.027
883.0,0.0269
882.0,0.0267
881.0,0.0266
880.0,0.0265
879.0,0.0266
878.0,0.0268
877.0,0.027
876.0,0.0271
875.0,0.0271
874.0,0.027
873.0,0.0269
872.0,0.0268
871.0,0.0268
870.0,0.0267
869.0,0.0267
868.0,0.0266
867.0,0.0265
866.0,0.0265
865.0,0.0264
864.0,0.0264
863.0,0.0264
862.0,0.0265
861.0,0.0266
860.0,0.0267
859.0,0.0268
858.0,0.0268
857.0,0.0268
856.0,0.0268
855.0,0.0269
854.0,0.027
853.0,0.0272
852.0,0.0273
851.0,0.0274
850.0,0.0276
849.0,0.0278
848.0,0.0283
847.0,0.0291
846.0,0.0305
845.0,0.0324
844.0,0.0352
843.0,0.0383
842.0,0.041
841.0,0.0419
840.0,0.0408
839.0,0.0384
838.0,0.0357
837.0,0.0335
836.0,0.0319
835.0,0.0308
834.0,0.0301
833.0,0.0296
832.0,0.0292
831.0,0.0288
830.0,0.0285
829.0,0.0283
828.0,0.028
827.0,0.0278
826.0,0.0276
825.0,0.0275
824.0,0.0275
823.0,0.0275
822.0,0.0275
821.0,0.0276
820.0,0.0277
819.0,0.0278
818.0,0.0281
817.0,0.0285
816.0,0.0291
815.0,0.0299
814.0,0.0309
813.0,0.0322
812.0,0.0336
811.0,0.0349
810.0,0.036
809.0,0.0366
808.0,0.0366
807.0,0.036
806.0,0.0351
805.0,0.0341
804.0,0.0332
803.0,0.0323
802.0,0.0315
801.0,0.0309
800.0,0.0304
799.0,0.0301
798.0,0.0297
797.0,0.0295
796.0,0.0292
795.0,0.0289
794.0,0.0287
793.0,0.0285
792.0,0.0283
791.0,0.0283
790.0,0.0283
789.0,0.0282
788.0,0.028
787.0,0.0278
786.0,0.0276
785.0,0.0275
784.0,0.0274
783.0,0.0273
782.0,0.0272
781.0,0.027
780.0,0.0268
779.0,0.0268
778.0,0.0268
777.0,0.0269
776.0,0.027
775.0,0.027
774.0,0.0271
773.0,0.0273
772.0,0.0275
771.0,0.0277
770.0,0.0279
769.0,0.0281
768.0,0.0282
767.0,0.0282
766.0,0.0282
765.0,0.0283
764.0,0.0285
763.0,0.0288
762.0,0.0289
761.0,0.0291
760.0,0.0292
759.0,0.0293
758.0,0.0294
757.0,0.0294
756.0,0.0295
755.0,0.0296
754.0,0.0297
753.0,0.0298
752.0,0.0299
751.0,0.03
750.0,0.03
749.0,0.03
748.0,0.0299
747.0,0.0298
746.0,0.0298
745.0,0.0298
744.0,0.0297
743.0,0.0297
742.0,0.0296
741.0,0.0297
740.0,0.0299
739.0,0.03
738.0,0.03
737.0,0.0301
736.0,0.0303
735.0,0.0308
734.0,0.0318
733.0,0.0333
732.0,0.035
731.0,0.0363
730.0,0.0368
729.0,0.0366
728.0,0.0359
727.0,0.0352
726.0,0.0347
725.0,0.0345
724.0,0.0347
723.0,0.0354
722.0,0.0366
721.0,0.0381
720.0,0.0395
719.0,0.04
718.0,0.0394
717.0,0.0382
716.0,0.0366
715.0,0.035
714.0,0.0339
713.0,0.0333
712.0,0.0332
711.0,0.0335
710.0,0.0339
709.0,0.0344
708.0,0.035
707.0,0.0356
706.0,0.0364
705.0,0.0372
704.0,0.0384
703.0,0.0398
702.0,0.0414
701.0,0.043
700.0,0.0443
699.0,0.0452
698.0,0.0455
697.0,0.0449
696.0,0.0435
695.0,0.0416
694.0,0.0396
693.0,0.0379
692.0,0.0366
691.0,0.0357
690.0,0.0353
689.0,0.0356
688.0,0.0363
687.0,0.0368
686.0,0.0368
685.0,0.0365
684.0,0.0364
683.0,0.0363
682.0,0.0363
681.0,0.0365
680.0,0.0371
679.0,0.0381
678.0,0.0392
677.0,0.04
676.0,0.0402
675.0,0.0395
674.0,0.0385
673.0,0.0377
672.0,0.0376
671.0,0.038
670.0,0.0382
669.0,0.0374
668.0,0.0356
667.0,0.0349
666.0,0.0357
665.0,0.0368
664.0,0.0378
663.0,0.0384
662.0,0.0381
661.0,0.0369
660.0,0.0358
659.0,0.0351
658.0,0.035
657.0,0.0351
656.0,0.0352
655.0,0.0354
654.0,0.0355
653.0,0.0356
652.0,0.0357
651.0,0.0359
650.0,0.0357
649.0,0.0351
648.0,0.0344
647.0,0.0341
646.0,0.0344
645.0,0.0348
644.0,0.0349
643.0,0.0348
642.0,0.0348
641.0,0.0348
640.0,0.035
639.0,0.0354
638.0,0.0359
637.0,0.0364
636.0,0.0371
635.0,0.0378
634.0,0.0386
633.0,0.0391
632.0,0.0389
631.0,0.0382
630.0,0.0372
629.0,0.0366
628.0,0.0365
627.0,0.0365
626.0,0.0365
625.0,0.0363
624.0,0.0361
623.0,0.036
622.0,0.0358
621.0,0.0355
620.0,0.0351
619.0,0.0349
618.0,0.0347
617.0,0.0342
616.0,0.0338
615.0,0.0336
614.0,0.0338
613.0,0.0345
612.0,0.0354
611.0,0.0365
610.0,0.0378
609.0,0.0391
608.0,0.0403
607.0,0.0404
606.0,0.039
605.0,0.0364
604.0,0.0337
603.0,0.0319
602.0,0.0311
601.0,0.0313
600.0,0.0322
