cm-1,A
4000.0,0.0014
3999.0,0.0015
3998.0,0.0016
3997.0,0.0015
3996.0,0.0015
3995.0,0.0015
3994.0,0.0015
3993.0,0.0015
3992.0,0.0014
3991.0,0.0014
3990.0,0.0013
3989.0,0.0014
3988.0,0.0014
3987.0,0.0015
3986.0,0.0015
3985.0,0.0015
3984.0,0.0015
3983.0,0.0015
3982.0,0.0016
3981.0,0.0016
3980.0,0.0016
3979.0,0.0016
3978.0,0.0015
3977.0,0.0014
3976.0,0.0014
3975.0,0.0013
3974.0,0.0013
3973.0,0.0013
3972.0,0.0013
3971.0,0.0013
3970.0,0.0013
3969.0,0.0013
3968.0,0.0014
3967.0,0.0014
3966.0,0.0015
3965.0,0.0015
3964.0,0.0016
3963.0,0.0016
3962.0,0.0017
3961.0,0.0017
3960.0,0.0016
3959.0,0.0015
3958.0,0.0014
3957.0,0.0013
3956.0,0.0013
3955.0,0.0013
3954.0,0.0013
3953.0,0.0013
3952.0,0.0014
3951.0,0.0013
3950.0,0.0013
3949.0,0.0012
3948.0,0.0013
3947.0,0.0013
3946.0,0.0014
3945.0,0.0014
3944.0,0.0013
3943.0,0.0013
3942.0,0.0012
3941.0,0.0012
3940.0,0.0013
3939.0,0.0014
3938.0,0.0015
3937.0,0.0017
3936.0,0.0017
3935.0,0.0017
3934.0,0.0017
3933.0,0.0017
3932.0,0.0017
3931.0,0.0017
3930.0,0.0017
3929.0,0.0018
3928.0,0.0018
3927.0,0.0017
3926.0,0.0016
3925.0,0.0016
3924.0,0.0015
3923.0,0.0015
3922.0,0.0015
3921.0,0.0015
3920.0,0.0015
3919.0,0.0016
3918.0,0.0017
3917.0,0.0017
3916.0,0.0017
3915.0,0.0016
3914.0,0.0016
3913.0,0.0015
3912.0,0.0015
3911.0,0.0015
3910.0,0.0016
3909.0,0.0018
3908.0,0.0019
3907.0,0.0019
3906.0,0.0019
3905.0,0.0018
3904.0,0.0017
3903.0,0.0017
3902.0,0.0017
3901.0,0.0018
3900.0,0.0017
3899.0,0.0016
3898.0,0.0015
3897.0,0.0015
3896.0,0.0014
3895.0,0.0015
3894.0,0.0015
3893.0,0.0015
3892.0,0.0015
3891.0,0.0015
3890.0,0.0016
3889.0,0.0016
3888.0,0.0016
3887.0,0.0016
3886.0,0.0015
3885.0,0.0015
3884.0,0.0016
3883.0,0.0016
3882.0,0.0016
3881.0,0.0016
3880.0,0.0016
3879.0,0.0016
3878.0,0.0017
3877.0,0.0017
3876.0,0.0017
3875.0,0.0017
3874.0,0.0017
3873.0,0.0018
3872.0,0.0019
3871.0,0.0018
3870.0,0.0016
3869.0,0.0015
3868.0,0.0015
3867.0,0.0014
3866.0,0.0013
3865.0,0.0013
3864.0,0.0014
3863.0,0.0016
3862.0,0.0017
3861.0,0.0017
3860.0,0.0018
3859.0,0.0018
3858.0,0.0019
3857.0,0.002
3856.0,0.002
3855.0,0.002
3854.0,0.0018
3853.0,0.0017
3852.0,0.0017
3851.0,0.0017
3850.0,0.0018
3849.0,0.0018
3848.0,0.0018
3847.0,0.0017
3846.0,0.0017
3845.0,0.0017
3844.0,0.0018
3843.0,0.0018
3842.0,0.0019
3841.0,0.0019
3840.0,0.0018
3839.0,0.0017
3838.0,0.0016
3837.0,0.0015
3836.0,0.0015
3835.0,0.0016
3834.0,0.0017
3833.0,0.0017
3832.0,0.0017
3831.0,0.0018
3830.0,0.0018
3829.0,0.0018
3828.0,0.0019
3827.0,0.0019
3826.0,0.0019
3825.0,0.0019
3824.0,0.002
3823.0,0.0019
3822.0,0.0018
3821.0,0.0017
3820.0,0.0017
3819.0,0.0017
3818.0,0.0017
3817.0,0.0017
3816.0,0.0017
3815.0,0.0017
3814.0,0.0018
3813.0,0.0018
3812.0,0.0018
3811.0,0.0018
3810.0,0.0018
3809.0,0.0017
3808.0,0.0016
3807.0,0.0015
3806.0,0.0015
3805.0,0.0015
3804.0,0.0016
3803.0,0.0015
3802.0,0.0014
3801.0,0.0015
3800.0,0.0016
3799.0,0.0018
3798.0,0.0019
3797.0,0.002
3796.0,0.0021
3795.0,0.0021
3794.0,0.0021
3793.0,0.0021
3792.0,0.0021
3791.0,0.002
3790.0,0.002
3789.0,0.0021
3788.0,0.0021
3787.0,0.0021
3786.0,0.0022
3785.0,0.0021
3784.0,0.0021
3783.0,0.0021
3782.0,0.002
3781.0,0.002
3780.0,0.002
3779.0,0.0021
3778.0,0.0022
3777.0,0.0022
3776.0,0.0022
3775.0,0.0022
3774.0,0.0021
3773.0,0.0021
3772.0,0.002
3771.0,0.002
3770.0,0.002
3769.0,0.002
3768.0,0.0021
3767.0,0.0021
3766.0,0.002
3765.0,0.002
3764.0,0.0019
3763.0,0.0019
3762.0,0.0019
3761.0,0.002
3760.0,0.0021
3759.0,0.0022
3758.0,0.0022
3757.0,0.0022
3756.0,0.0022
3755.0,0.0022
3754.0,0.0021
3753.0,0.002
3752.0,0.0019
3751.0,0.0019
3750.0,0.0018
3749.0,0.0018
3748.0,0.0018
3747.0,0.0018
3746.0,0.0017
3745.0,0.0018
3744.0,0.0018
3743.0,0.0019
3742.0,0.0019
3741.0,0.0019
3740.0,0.0019
3739.0,0.0019
3738.0,0.002
3737.0,0.0021
3736.0,0.0021
3735.0,0.0021
3734.0,0.0022
3733.0,0.0021
3732.0,0.0019
3731.0,0.0018
3730.0,0.0018
3729.0,0.0018
3728.0,0.0018
3727.0,0.0019
3726.0,0.002
3725.0,0.002
3724.0,0.002
3723.0,0.002
3722.0,0.002
3721.0,0.002
3720.0,0.0019
3719.0,0.0019
3718.0,0.0019
3717.0,0.002
3716.0,0.0021
3715.0,0.0022
3714.0,0.0022
3713.0,0.0019
3712.0,0.0016
3711.0,0.0015
3710.0,0.0017
3709.0,0.0018
3708.0,0.0019
3707.0,0.0019
3706.0,0.0018
3705.0,0.0018
3704.0,0.0018
3703.0,0.0019
3702.0,0.002
3701.0,0.002
3700.0,0.002
3699.0,0.002
3698.0,0.002
3697.0,0.002
3696.0,0.002
3695.0,0.002
3694.0,0.0021
3693.0,0.0021
3692.0,0.0022
3691.0,0.0023
3690.0,0.0024
3689.0,0.0024
3688.0,0.0024
3687.0,0.0025
3686.0,0.0025
3685.0,0.0026
3684.0,0.0026
3683.0,0.0026
3682.0,0.0027
3681.0,0.0028
3680.0,0.0029
3679.0,0.0031
3678.0,0.0032
3677.0,0.0032
3676.0,0.0032
3675.0,0.0031
3674.0,0.0032
3673.0,0.0032
3672.0,0.0031
3671.0,0.0031
3670.0,0.003
3669.0,0.0031
3668.0,0.0031
3667.0,0.0032
3666.0,0.0033
3665.0,0.0033
3664.0,0.0034
3663.0,0.0035
3662.0,0.0035
3661.0,0.0036
3660.0,0.0037
3659.0,0.0037
3658.0,0.0037
3657.0,0.0038
3656.0,0.0039
3655.0,0.004
3654.0,0.0042
3653.0,0.0043
3652.0,0.0043
3651.0,0.0043
3650.0,0.0043
3649.0,0.0042
3648.0,0.0043
3647.0,0.0043
3646.0,0.0044
3645.0,0.0045
3644.0,0.0045
3643.0,0.0046
3642.0,0.0046
3641.0,0.0046
3640.0,0.0046
3639.0,0.0046
3638.0,0.0046
3637.0,0.0046
3636.0,0.0046
3635.0,0.0046
3634.0,0.0046
3633.0,0.0047
3632.0,0.005
3631.0,0.0053
3630.0,0.0056
3629.0,0.0058
3628.0,0.0059
3627.0,0.0059
3626.0,0.0059
3625.0,0.0059
3624.0,0.0059
3623.0,0.006
3622.0,0.0062
3621.0,0.0063
3620.0,0.0064
3619.0,0.0066
3618.0,0.0067
3617.0,0.0068
3616.0,0.0069
3615.0,0.0069
3614.0,0.007
3613.0,0.007
3612.0,0.007
3611.0,0.007
3610.0,0.007
3609.0,0.007
3608.0,0.0071
3607.0,0.0071
3606.0,0.0072
3605.0,0.0073
3604.0,0.0074
3603.0,0.0075
3602.0,0.0076
3601.0,0.0077
3600.0,0.0078
3599.0,0.008
3598.0,0.0081
3597.0,0.0083
3596.0,0.0085
3595.0,0.0085
3594.0,0.0086
3593.0,0.0086
3592.0,0.0086
3591.0,0.0087
3590.0,0.0088
3589.0,0.009
3588.0,0.0093
3587.0,0.0095
3586.0,0.0096
3585.0,0.0097
3584.0,0.0097
3583.0,0.0096
3582.0,0.0096
3581.0,0.0097
3580.0,0.0098
3579.0,0.01
3578.0,0.0101
3577.0,0.0102
3576.0,0.0102
3575.0,0.0102
3574.0,0.0103
3573.0,0.0104
3572.0,0.0106
3571.0,0.0107
3570.0,0.0108
3569.0,0.0109
3568.0,0.0111
3567.0,0.0113
3566.0,0.0116
3565.0,0.0117
3564.0,0.0118
3563.0,0.0117
3562.0,0.0117
3561.0,0.0118
3560.0,0.0119
3559.0,0.012
3558.0,0.0122
3557.0,0.0122
3556.0,0.0122
3555.0,0.0122
3554.0,0.0122
3553.0,0.0123
3552.0,0.0123
3551.0,0.0124
3550.0,0.0125
3549.0,0.0126
3548.0,0.0127
3547.0,0.0129
3546.0,0.013
3545.0,0.0132
3544.0,0.0132
3543.0,0.0133
3542.0,0.0134
3541.0,0.0135
3540.0,0.0137
3539.0,0.0139
3538.0,0.0141
3537.0,0.0142
3536.0,0.0142
3535.0,0.0142
3534.0,0.0142
3533.0,0.0143
3532.0,0.0144
3531.0,0.0145
3530.0,0.0147
3529.0,0.0148
3528.0,0.0149
3527.0,0.015
3526.0,0.0151
3525.0,0.0152
3524.0,0.0154
3523.0,0.0155
3522.0,0.0157
3521.0,0.0158
3520.0,0.0158
3519.0,0.0159
3518.0,0.016
3517.0,0.0161
3516.0,0.0162
3515.0,0.0163
3514.0,0.0165
3513.0,0.0167
3512.0,0.0168
3511.0,0.0169
3510.0,0.017
3509.0,0.017
3508.0,0.017
3507.0,0.0171
3506.0,0.0171
3505.0,0.0172
3504.0,0.0173
3503.0,0.0175
3502.0,0.0177
3501.0,0.0178
3500.0,0.0178
3499.0,0.0179
3498.0,0.0179
3497.0,0.0181
3496.0,0.0183
3495.0,0.0185
3494.0,0.0186
3493.0,0.0187
3492.0,0.0187
3491.0,0.0187
3490.0,0.0188
3489.0,0.019
3488.0,0.0192
3487.0,0.0194
3486.0,0.0195
3485.0,0.0195
3484.0,0.0196
3483.0,0.0197
3482.0,0.0198
3481.0,0.0199
3480.0,0.02
3479.0,0.0201
3478.0,0.0202
3477.0,0.0204
3476.0,0.0206
3475.0,0.0208
3474.0,0.0209
3473.0,0.0209
3472.0,0.0209
3471.0,0.0209
3470.0,0.021
3469.0,0.0211
3468.0,0.0213
3467.0,0.0214
3466.0,0.0215
3465.0,0.0217
3464.0,0.0217
3463.0,0.0218
3462.0,0.0219
3461.0,0.022
3460.0,0.0221
3459.0,0.0222
3458.0,0.0223
3457.0,0.0224
3456.0,0.0225
3455.0,0.0226
3454.0,0.0227
3453.0,0.0228
3452.0,0.0229
3451.0,0.023
3450.0,0.0231
3449.0,0.0232
3448.0,0.0233
3447.0,0.0235
3446.0,0.0236
3445.0,0.0237
3444.0,0.0237
3443.0,0.0237
3442.0,0.0239
3441.0,0.024
3440.0,0.0242
3439.0,0.0243
3438.0,0.0243
3437.0,0.0244
3436.0,0.0244
3435.0,0.0245
3434.0,0.0246
3433.0,0.0247
3432.0,0.0248
3431.0,0.0249
3430.0,0.0252
3429.0,0.0255
3428.0,0.0258
3427.0,0.026
3426.0,0.026
3425.0,0.0259
3424.0,0.0259
3423.0,0.0259
3422.0,0.026
3421.0,0.0261
3420.0,0.0261
3419.0,0.0262
3418.0,0.0263
3417.0,0.0264
3416.0,0.0265
3415.0,0.0266
3414.0,0.0267
3413.0,0.0268
3412.0,0.0269
3411.0,0.0271
3410.0,0.0272
3409.0,0.0273
3408.0,0.0273
3407.0,0.0273
3406.0,0.0273
3405.0,0.0274
3404.0,0.0275
3403.0,0.0277
3402.0,0.0278
3401.0,0.0278
3400.0,0.0279
3399.0,0.0279
3398.0,0.0279
3397.0,0.028
3396.0,0.0281
3395.0,0.0281
3394.0,0.0283
3393.0,0.0284
3392.0,0.0286
3391.0,0.0286
3390.0,0.0286
3389.0,0.0286
3388.0,0.0287
3387.0,0.0287
3386.0,0.0288
3385.0,0.0289
3384.0,0.0291
3383.0,0.0291
3382.0,0.0291
3381.0,0.0291
3380.0,0.0291
3379.0,0.0291
3378.0,0.029
3377.0,0.029
3376.0,0.029
3375.0,0.029
3374.0,0.0292
3373.0,0.0293
3372.0,0.0294
3371.0,0.0293
3370.0,0.0292
3369.0,0.0291
3368.0,0.0291
3367.0,0.0292
3366.0,0.0293
3365.0,0.0295
3364.0,0.0295
3363.0,0.0295
3362.0,0.0294
3361.0,0.0293
3360.0,0.0292
3359.0,0.0292
3358.0,0.0291
3357.0,0.0291
3356.0,0.0291
3355.0,0.0291
3354.0,0.0291
3353.0,0.0291
3352.0,0.0291
3351.0,0.0291
3350.0,0.0291
3349.0,0.0291
3348.0,0.029
3347.0,0.0289
3346.0,0.0288
3345.0,0.0288
3344.0,0.0288
3343.0,0.0289
3342.0,0.0289
3341.0,0.029
3340.0,0.0289
3339.0,0.0288
3338.0,0.0286
3337.0,0.0285
3336.0,0.0284
3335.0,0.0283
3334.0,0.0283
3333.0,0.0283
3332.0,0.0283
3331.0,0.0282
3330.0,0.0281
3329.0,0.0281
3328.0,0.0281
3327.0,0.028
3326.0,0.028
3325.0,0.0279
3324.0,0.0278
3323.0,0.0278
3322.0,0.0278
3321.0,0.0277
3320.0,0.0277
3319.0,0.0277
3318.0,0.0276
3317.0,0.0276
3316.0,0.0275
3315.0,0.0274
3314.0,0.0274
3313.0,0.0273
3312.0,0.0273
3311.0,0.0272
3310.0,0.0272
3309.0,0.0271
3308.0,0.0271
3307.0,0.027
3306.0,0.0269
3305.0,0.0268
3304.0,0.0268
3303.0,0.0268
3302.0,0.0268
3301.0,0.0268
3300.0,0.0267
3299.0,0.0267
3298.0,0.0266
3297.0,0.0266
3296.0,0.0265
3295.0,0.0264
3294.0,0.0262
3293.0,0.026
3292.0,0.0259
3291.0,0.0258
3290.0,0.0259
3289.0,0.0259
3288.0,0.026
3287.0,0.0259
3286.0,0.0258
3285.0,0.0257
3284.0,0.0256
3283.0,0.0255
3282.0,0.0255
3281.0,0.0256
3280.0,0.0257
3279.0,0.0257
3278.0,0.0257
3277.0,0.0256
3276.0,0.0255
3275.0,0.0255
3274.0,0.0254
3273.0,0.0254
3272.0,0.0253
3271.0,0.0253
3270.0,0.0253
3269.0,0.0253
3268.0,0.0254
3267.0,0.0254
3266.0,0.0253
3265.0,0.0252
3264.0,0.0251
3263.0,0.025
3262.0,0.0248
3261.0,0.0248
3260.0,0.0247
3259.0,0.0247
3258.0,0.0246
3257.0,0.0246
3256.0,0.0246
3255.0,0.0248
3254.0,0.0249
3253.0,0.0248
3252.0,0.0246
3251.0,0.0243
3250.0,0.0241
3249.0,0.024
3248.0,0.0241
3247.0,0.0243
3246.0,0.0245
3245.0,0.0246
3244.0,0.0246
3243.0,0.0246
3242.0,0.0245
3241.0,0.0244
3240.0,0.0242
3239.0,0.0241
3238.0,0.024
3237.0,0.0238
3236.0,0.0237
3235.0,0.0235
3234.0,0.0234
3233.0,0.0233
3232.0,0.0233
3231.0,0.0233
3230.0,0.0233
3229.0,0.0233
3228.0,0.0232
3227.0,0.0233
3226.0,0.0233
3225.0,0.0232
3224.0,0.023
3223.0,0.0229
3222.0,0.0228
3221.0,0.0227
3220.0,0.0227
3219.0,0.0226
3218.0,0.0226
3217.0,0.0226
3216.0,0.0224
3215.0,0.0223
3214.0,0.0222
3213.0,0.0222
3212.0,0.0222
3211.0,0.0222
3210.0,0.022
3209.0,0.0219
3208.0,0.0218
3207.0,0.0217
3206.0,0.0216
3205.0,0.0216
3204.0,0.0214
3203.0,0.0213
3202.0,0.0212
3201.0,0.0211
3200.0,0.021
3199.0,0.0209
3198.0,0.0208
3197.0,0.0207
3196.0,0.0207
3195.0,0.0207
3194.0,0.0207
3193.0,0.0207
3192.0,0.0207
3191.0,0.0206
3190.0,0.0204
3189.0,0.0202
3188.0,0.0201
3187.0,0.02
3186.0,0.0199
3185.0,0.0198
3184.0,0.0198
3183.0,0.0197
3182.0,0.0196
3181.0,0.0195
3180.0,0.0193
3179.0,0.0192
3178.0,0.0191
3177.0,0.019
3176.0,0.0189
3175.0,0.0189
3174.0,0.0187
3173.0,0.0185
3172.0,0.0183
3171.0,0.0181
3170.0,0.018
3169.0,0.018
3168.0,0.018
3167.0,0.018
3166.0,0.018
3165.0,0.0179
3164.0,0.0179
3163.0,0.0179
3162.0,0.0179
3161.0,0.0179
3160.0,0.0179
3159.0,0.0178
3158.0,0.0177
3157.0,0.0176
3156.0,0.0175
3155.0,0.0173
3154.0,0.0172
3153.0,0.0171
3152.0,0.017
3151.0,0.0169
3150.0,0.0168
3149.0,0.0167
3148.0,0.0166
3147.0,0.0165
3146.0,0.0164
3145.0,0.0164
3144.0,0.0163
3143.0,0.0162
3142.0,0.0161
3141.0,0.016
3140.0,0.0159
3139.0,0.0159
3138.0,0.0158
3137.0,0.0158
3136.0,0.0158
3135.0,0.0157
3134.0,0.0157
3133.0,0.0156
3132.0,0.0155
3131.0,0.0154
3130.0,0.0153
3129.0,0.0152
3128.0,0.015
3127.0,0.0149
3126.0,0.0147
3125.0,0.0146
3124.0,0.0145
3123.0,0.0144
3122.0,0.0144
3121.0,0.0144
3120.0,0.0144
3119.0,0.0144
3118.0,0.0144
3117.0,0.0143
3116.0,0.0143
3115.0,0.0142
3114.0,0.0142
3113.0,0.0142
3112.0,0.0141
3111.0,0.0141
3110.0,0.0141
3109.0,0.0141
3108.0,0.0141
3107.0,0.0141
3106.0,0.0142
3105.0,0.0142
3104.0,0.0142
3103.0,0.0141
3102.0,0.014
3101.0,0.0139
3100.0,0.0137
3099.0,0.0136
3098.0,0.0135
3097.0,0.0134
3096.0,0.0134
3095.0,0.0134
3094.0,0.0134
3093.0,0.0135
3092.0,0.0136
3091.0,0.0137
3090.0,0.0139
3089.0,0.0141
3088.0,0.0143
3087.0,0.0144
3086.0,0.0146
3085.0,0.0148
3084.0,0.0148
3083.0,0.0149
3082.0,0.0149
3081.0,0.0148
3080.0,0.0146
3079.0,0.0144
3078.0,0.0141
3077.0,0.0139
3076.0,0.0138
3075.0,0.0137
3074.0,0.0137
3073.0,0.0136
3072.0,0.0136
3071.0,0.0135
3070.0,0.0135
3069.0,0.0136
3068.0,0.0137
3067.0,0.0139
3066.0,0.0142
3065.0,0.0145
3064.0,0.0148
3063.0,0.0151
3062.0,0.0153
3061.0,0.0155
3060.0,0.0155
3059.0,0.0154
3058.0,0.0152
3057.0,0.0148
3056.0,0.0145
3055.0,0.0141
3054.0,0.0139
3053.0,0.0136
3052.0,0.0134
3051.0,0.0132
3050.0,0.0129
3049.0,0.0127
3048.0,0.0126
3047.0,0.0125
3046.0,0.0124
3045.0,0.0123
3044.0,0.0122
3043.0,0.0121
3042.0,0.0121
3041.0,0.0121
3040.0,0.0122
3039.0,0.0124
3038.0,0.0126
3037.0,0.0128
3036.0,0.0131
3035.0,0.0135
3034.0,0.014
3033.0,0.0147
3032.0,0.0155
3031.0,0.0163
3030.0,0.0171
3029.0,0.0178
3028.0,0.0184
3027.0,0.0188
3026.0,0.0191
3025.0,0.0191
3024.0,0.0189
3023.0,0.0184
3022.0,0.0177
3021.0,0.0169
3020.0,0.0161
3019.0,0.0153
3018.0,0.0147
3017.0,0.0142
3016.0,0.0137
3015.0,0.0133
3014.0,0.0129
3013.0,0.0126
3012.0,0.0123
3011.0,0.0122
3010.0,0.0121
3009.0,0.012
3008.0,0.0119
3007.0,0.0119
3006.0,0.0119
3005.0,0.012
3004.0,0.0121
3003.0,0.0121
3002.0,0.0121
3001.0,0.012
3000.0,0.012
2999.0,0.0119
2998.0,0.0117
2997.0,0.0116
2996.0,0.0114
2995.0,0.0112
2994.0,0.011
2993.0,0.0108
2992.0,0.0107
2991.0,0.0106
2990.0,0.0104
2989.0,0.0103
2988.0,0.0103
2987.0,0.0102
2986.0,0.0102
2985.0,0.0101
2984.0,0.0101
2983.0,0.01
2982.0,0.01
2981.0,0.01
2980.0,0.01
2979.0,0.01
2978.0,0.0099
2977.0,0.0099
2976.0,0.0098
2975.0,0.0099
2974.0,0.0099
2973.0,0.0099
2972.0,0.0099
2971.0,0.0099
2970.0,0.01
2969.0,0.0101
2968.0,0.0101
2967.0,0.0101
2966.0,0.0101
2965.0,0.0101
2964.0,0.0102
2963.0,0.0103
2962.0,0.0105
2961.0,0.0106
2960.0,0.0107
2959.0,0.0107
2958.0,0.0107
2957.0,0.0108
2956.0,0.0109
2955.0,0.0111
2954.0,0.0113
2953.0,0.0114
2952.0,0.0115
2951.0,0.0116
2950.0,0.0117
2949.0,0.0118
2948.0,0.0119
2947.0,0.0121
2946.0,0.0123
2945.0,0.0125
2944.0,0.0127
2943.0,0.0131
2942.0,0.0135
2941.0,0.0139
2940.0,0.0144
2939.0,0.0148
2938.0,0.0152
2937.0,0.0157
2936.0,0.0162
2935.0,0.0167
2934.0,0.0173
2933.0,0.0179
2932.0,0.0184
2931.0,0.019
2930.0,0.0195
2929.0,0.0201
2928.0,0.0206
2927.0,0.0211
2926.0,0.0215
2925.0,0.0217
2924.0,0.0219
2923.0,0.022
2922.0,0.0221
2921.0,0.0221
2920.0,0.022
2919.0,0.0218
2918.0,0.0216
2917.0,0.0214
2916.0,0.0212
2915.0,0.0209
2914.0,0.0205
2913.0,0.0202
2912.0,0.0198
2911.0,0.0195
2910.0,0.0192
2909.0,0.0189
2908.0,0.0186
2907.0,0.0183
2906.0,0.0179
2905.0,0.0176
2904.0,0.0173
2903.0,0.017
2902.0,0.0167
2901.0,0.0164
2900.0,0.016
2899.0,0.0157
2898.0,0.0155
2897.0,0.0152
2896.0,0.015
2895.0,0.0148
2894.0,0.0146
2893.0,0.0144
2892.0,0.0142
2891.0,0.014
2890.0,0.0139
2889.0,0.0138
2888.0,0.0136
2887.0,0.0135
2886.0,0.0134
2885.0,0.0132
2884.0,0.0131
2883.0,0.013
2882.0,0.0128
2881.0,0.0127
2880.0,0.0125
2879.0,0.0124
2878.0,0.0124
2877.0,0.0124
2876.0,0.0123
2875.0,0.0122
2874.0,0.0121
2873.0,0.012
2872.0,0.012
2871.0,0.012
2870.0,0.012
2869.0,0.0119
2868.0,0.0119
2867.0,0.012
2866.0,0.0121
2865.0,0.0123
2864.0,0.0124
2863.0,0.0125
2862.0,0.0127
2861.0,0.0128
2860.0,0.013
2859.0,0.0133
2858.0,0.0135
2857.0,0.0138
2856.0,0.014
2855.0,0.0143
2854.0,0.0145
2853.0,0.0147
2852.0,0.0148
2851.0,0.0149
2850.0,0.0149
2849.0,0.0148
2848.0,0.0147
2847.0,0.0145
2846.0,0.0143
2845.0,0.014
2844.0,0.0137
2843.0,0.0133
2842.0,0.0129
2841.0,0.0125
2840.0,0.0122
2839.0,0.0119
2838.0,0.0117
2837.0,0.0115
2836.0,0.0113
2835.0,0.0112
2834.0,0.011
2833.0,0.0109
2832.0,0.0107
2831.0,0.0105
2830.0,0.0103
2829.0,0.0102
2828.0,0.0102
2827.0,0.0102
2826.0,0.0101
2825.0,0.0099
2824.0,0.0098
2823.0,0.0097
2822.0,0.0098
2821.0,0.0098
2820.0,0.0099
2819.0,0.0099
2818.0,0.0099
2817.0,0.0099
2816.0,0.0098
2815.0,0.0097
2814.0,0.0096
2813.0,0.0096
2812.0,0.0096
2811.0,0.0096
2810.0,0.0096
2809.0,0.0096
2808.0,0.0096
2807.0,0.0096
2806.0,0.0095
2805.0,0.0095
2804.0,0.0094
2803.0,0.0093
2802.0,0.0093
2801.0,0.0092
2800.0,0.0092
2799.0,0.0093
2798.0,0.0093
2797.0,0.0093
2796.0,0.0092
2795.0,0.0091
2794.0,0.0091
2793.0,0.0091
2792.0,0.0092
2791.0,0.0092
2790.0,0.0092
2789.0,0.0092
2788.0,0.0092
2787.0,0.0091
2786.0,0.0091
2785.0,0.009
2784.0,0.009
2783.0,0.0091
2782.0,0.0091
2781.0,0.0091
2780.0,0.0091
2779.0,0.0091
2778.0,0.0092
2777.0,0.0091
2776.0,0.0091
2775.0,0.009
2774.0,0.009
2773.0,0.009
2772.0,0.0091
2771.0,0.009
2770.0,0.009
2769.0,0.0089
2768.0,0.0088
2767.0,0.0088
2766.0,0.0088
2765.0,0.0089
2764.0,0.0089
2763.0,0.0089
2762.0,0.0089
2761.0,0.0089
2760.0,0.009
2759.0,0.009
2758.0,0.009
2757.0,0.0089
2756.0,0.0087
2755.0,0.0087
2754.0,0.0087
2753.0,0.0087
2752.0,0.0087
2751.0,0.0087
2750.0,0.0086
2749.0,0.0086
2748.0,0.0086
2747.0,0.0086
2746.0,0.0086
2745.0,0.0087
2744.0,0.0088
2743.0,0.0089
2742.0,0.0089
2741.0,0.0089
2740.0,0.0089
2739.0,0.0088
2738.0,0.0088
2737.0,0.0088
2736.0,0.0088
2735.0,0.0088
2734.0,0.0087
2733.0,0.0087
2732.0,0.0086
2731.0,0.0086
2730.0,0.0086
2729.0,0.0086
2728.0,0.0086
2727.0,0.0087
2726.0,0.0087
2725.0,0.0087
2724.0,0.0087
2723.0,0.0087
2722.0,0.0087
2721.0,0.0087
2720.0,0.0087
2719.0,0.0088
2718.0,0.0088
2717.0,0.0089
2716.0,0.0089
2715.0,0.0089
2714.0,0.0088
2713.0,0.0088
2712.0,0.0087
2711.0,0.0086
2710.0,0.0085
2709.0,0.0085
2708.0,0.0084
2707.0,0.0085
2706.0,0.0085
2705.0,0.0086
2704.0,0.0086
2703.0,0.0087
2702.0,0.0087
2701.0,0.0087
2700.0,0.0087
2699.0,0.0087
2698.0,0.0088
2697.0,0.0088
2696.0,0.0088
2695.0,0.0087
2694.0,0.0087
2693.0,0.0086
2692.0,0.0087
2691.0,0.0087
2690.0,0.0088
2689.0,0.0089
2688.0,0.0089
2687.0,0.0089
2686.0,0.0088
2685.0,0.0087
2684.0,0.0087
2683.0,0.0086
2682.0,0.0087
2681.0,0.0087
2680.0,0.0087
2679.0,0.0087
2678.0,0.0087
2677.0,0.0087
2676.0,0.0087
2675.0,0.0086
2674.0,0.0085
2673.0,0.0084
2672.0,0.0084
2671.0,0.0085
2670.0,0.0086
2669.0,0.0087
2668.0,0.0086
2667.0,0.0085
2666.0,0.0085
2665.0,0.0084
2664.0,0.0084
2663.0,0.0084
2662.0,0.0085
2661.0,0.0085
2660.0,0.0085
2659.0,0.0085
2658.0,0.0086
2657.0,0.0086
2656.0,0.0086
2655.0,0.0086
2654.0,0.0086
2653.0,0.0086
2652.0,0.0086
2651.0,0.0086
2650.0,0.0086
2649.0,0.0086
2648.0,0.0086
2647.0,0.0087
2646.0,0.0087
2645.0,0.0087
2644.0,0.0087
2643.0,0.0088
2642.0,0.0087
2641.0,0.0087
2640.0,0.0087
2639.0,0.0086
2638.0,0.0086
2637.0,0.0086
2636.0,0.0086
2635.0,0.0087
2634.0,0.0087
2633.0,0.0087
2632.0,0.0086
2631.0,0.0086
2630.0,0.0085
2629.0,0.0085
2628.0,0.0086
2627.0,0.0086
2626.0,0.0086
2625.0,0.0086
2624.0,0.0086
2623.0,0.0086
2622.0,0.0086
2621.0,0.0086
2620.0,0.0086
2619.0,0.0086
2618.0,0.0086
2617.0,0.0086
2616.0,0.0087
2615.0,0.0087
2614.0,0.0087
2613.0,0.0087
2612.0,0.0086
2611.0,0.0085
2610.0,0.0085
2609.0,0.0085
2608.0,0.0085
2607.0,0.0085
2606.0,0.0086
2605.0,0.0086
2604.0,0.0087
2603.0,0.0087
2602.0,0.0087
2601.0,0.0087
2600.0,0.0087
2599.0,0.0088
2598.0,0.0088
2597.0,0.0088
2596.0,0.0087
2595.0,0.0086
2594.0,0.0086
2593.0,0.0086
2592.0,0.0087
2591.0,0.0087
2590.0,0.0087
2589.0,0.0087
2588.0,0.0087
2587.0,0.0087
2586.0,0.0086
2585.0,0.0086
2584.0,0.0085
2583.0,0.0086
2582.0,0.0086
2581.0,0.0087
2580.0,0.0087
2579.0,0.0087
2578.0,0.0086
2577.0,0.0086
2576.0,0.0086
2575.0,0.0086
2574.0,0.0087
2573.0,0.0087
2572.0,0.0087
2571.0,0.0087
2570.0,0.0087
2569.0,0.0088
2568.0,0.0088
2567.0,0.0088
2566.0,0.0087
2565.0,0.0086
2564.0,0.0086
2563.0,0.0086
2562.0,0.0086
2561.0,0.0087
2560.0,0.0088
2559.0,0.0088
2558.0,0.0089
2557.0,0.0089
2556.0,0.0089
2555.0,0.0088
2554.0,0.0088
2553.0,0.0088
2552.0,0.0089
2551.0,0.0089
2550.0,0.0088
2549.0,0.0088
2548.0,0.0088
2547.0,0.0087
2546.0,0.0087
2545.0,0.0087
2544.0,0.0087
2543.0,0.0087
2542.0,0.0087
2541.0,0.0088
2540.0,0.0087
2539.0,0.0087
2538.0,0.0087
2537.0,0.0087
2536.0,0.0088
2535.0,0.0088
2534.0,0.0088
2533.0,0.0088
2532.0,0.0088
2531.0,0.0087
2530.0,0.0087
2529.0,0.0088
2528.0,0.0088
2527.0,0.0088
2526.0,0.0089
2525.0,0.0089
2524.0,0.0089
2523.0,0.0089
2522.0,0.0089
2521.0,0.0089
2520.0,0.0089
2519.0,0.009
2518.0,0.009
2517.0,0.009
2516.0,0.0089
2515.0,0.0089
2514.0,0.0089
2513.0,0.0089
2512.0,0.0089
2511.0,0.0089
2510.0,0.0089
2509.0,0.0089
2508.0,0.0089
2507.0,0.0089
2506.0,0.0089
2505.0,0.009
2504.0,0.009
2503.0,0.009
2502.0,0.0089
2501.0,0.0089
2500.0,0.0088
2499.0,0.0088
2498.0,0.0088
2497.0,0.0089
2496.0,0.0089
2495.0,0.009
2494.0,0.009
2493.0,0.009
2492.0,0.009
2491.0,0.009
2490.0,0.009
2489.0,0.0089
2488.0,0.0089
2487.0,0.0089
2486.0,0.0089
2485.0,0.009
2484.0,0.009
2483.0,0.009
2482.0,0.009
2481.0,0.009
2480.0,0.009
2479.0,0.0091
2478.0,0.0092
2477.0,0.0093
2476.0,0.0093
2475.0,0.0092
2474.0,0.0091
2473.0,0.0091
2472.0,0.009
2471.0,0.009
2470.0,0.0091
2469.0,0.0091
2468.0,0.0091
2467.0,0.0091
2466.0,0.0091
2465.0,0.0091
2464.0,0.0092
2463.0,0.0092
2462.0,0.0091
2461.0,0.0091
2460.0,0.0091
2459.0,0.0092
2458.0,0.0092
2457.0,0.0092
2456.0,0.0092
2455.0,0.0092
2454.0,0.0092
2453.0,0.0092
2452.0,0.0092
2451.0,0.0091
2450.0,0.0091
2449.0,0.009
2448.0,0.009
2447.0,0.009
2446.0,0.009
2445.0,0.0091
2444.0,0.0091
2443.0,0.0092
2442.0,0.0093
2441.0,0.0094
2440.0,0.0094
2439.0,0.0095
2438.0,0.0095
2437.0,0.0095
2436.0,0.0095
2435.0,0.0094
2434.0,0.0094
2433.0,0.0093
2432.0,0.0093
2431.0,0.0093
2430.0,0.0094
2429.0,0.0094
2428.0,0.0093
2427.0,0.0093
2426.0,0.0093
2425.0,0.0093
2424.0,0.0092
2423.0,0.0092
2422.0,0.0092
2421.0,0.0092
2420.0,0.0092
2419.0,0.0092
2418.0,0.0092
2417.0,0.0093
2416.0,0.0093
2415.0,0.0094
2414.0,0.0095
2413.0,0.0095
2412.0,0.0095
2411.0,0.0095
2410.0,0.0095
2409.0,0.0095
2408.0,0.0095
2407.0,0.0095
2406.0,0.0095
2405.0,0.0095
2404.0,0.0095
2403.0,0.0095
2402.0,0.0095
2401.0,0.0095
2400.0,0.0095
2399.0,0.0095
2398.0,0.0095
2397.0,0.0094
2396.0,0.0095
2395.0,0.0095
2394.0,0.0096
2393.0,0.0097
2392.0,0.0096
2391.0,0.0095
2390.0,0.0093
2389.0,0.0091
2388.0,0.009
2387.0,0.0089
2386.0,0.0087
2385.0,0.0086
2384.0,0.0085
2383.0,0.0085
2382.0,0.0087
2381.0,0.0089
2380.0,0.009
2379.0,0.0091
2378.0,0.009
2377.0,0.0088
2376.0,0.0086
2375.0,0.0083
2374.0,0.008
2373.0,0.0078
2372.0,0.0079
2371.0,0.0081
2370.0,0.0084
2369.0,0.0086
2368.0,0.0087
2367.0,0.0084
2366.0,0.0078
2365.0,0.0075
2364.0,0.0079
2363.0,0.0086
2362.0,0.0091
2361.0,0.0089
2360.0,0.0083
2359.0,0.0077
2358.0,0.0076
2357.0,0.0077
2356.0,0.0076
2355.0,0.0075
2354.0,0.0078
2353.0,0.0084
2352.0,0.0085
2351.0,0.008
2350.0,0.0075
2349.0,0.0074
2348.0,0.0079
2347.0,0.0084
2346.0,0.0084
2345.0,0.0078
2344.0,0.0072
2343.0,0.007
2342.0,0.0075
2341.0,0.0085
2340.0,0.0091
2339.0,0.0089
2338.0,0.0081
2337.0,0.0072
2336.0,0.0065
2335.0,0.0062
2334.0,0.0062
2333.0,0.0068
2332.0,0.0076
2331.0,0.0081
2330.0,0.0082
2329.0,0.0079
2328.0,0.0075
2327.0,0.0072
2326.0,0.0073
2325.0,0.0078
2324.0,0.0086
2323.0,0.0093
2322.0,0.0095
2321.0,0.0092
2320.0,0.0085
2319.0,0.0078
2318.0,0.0075
2317.0,0.0075
2316.0,0.0077
2315.0,0.0079
2314.0,0.008
2313.0,0.008
2312.0,0.008
2311.0,0.0079
2310.0,0.008
2309.0,0.0081
2308.0,0.0082
2307.0,0.0083
2306.0,0.0084
2305.0,0.0084
2304.0,0.0083
2303.0,0.0082
2302.0,0.0082
2301.0,0.0082
2300.0,0.0083
2299.0,0.0084
2298.0,0.0085
2297.0,0.0086
2296.0,0.0087
2295.0,0.0088
2294.0,0.0088
2293.0,0.0089
2292.0,0.0091
2291.0,0.0092
2290.0,0.0093
2289.0,0.0095
2288.0,0.0096
2287.0,0.0097
2286.0,0.0098
2285.0,0.0099
2284.0,0.0099
2283.0,0.01
2282.0,0.01
2281.0,0.0099
2280.0,0.0099
2279.0,0.01
2278.0,0.0101
2277.0,0.0102
2276.0,0.0102
2275.0,0.0101
2274.0,0.0101
2273.0,0.01
2272.0,0.0101
2271.0,0.0101
2270.0,0.0101
2269.0,0.0101
2268.0,0.0101
2267.0,0.0102
2266.0,0.0102
2265.0,0.0101
2264.0,0.0102
2263.0,0.0102
2262.0,0.0102
2261.0,0.0102
2260.0,0.0101
2259.0,0.0101
2258.0,0.0101
2257.0,0.0102
2256.0,0.0103
2255.0,0.0104
2254.0,0.0104
2253.0,0.0105
2252.0,0.0104
2251.0,0.0104
2250.0,0.0105
2249.0,0.0105
2248.0,0.0106
2247.0,0.0106
2246.0,0.0106
2245.0,0.0105
2244.0,0.0104
2243.0,0.0103
2242.0,0.0103
2241.0,0.0103
2240.0,0.0104
2239.0,0.0104
2238.0,0.0105
2237.0,0.0105
2236.0,0.0106
2235.0,0.0106
2234.0,0.0106
2233.0,0.0106
2232.0,0.0106
2231.0,0.0107
2230.0,0.0107
2229.0,0.0107
2228.0,0.0108
2227.0,0.0108
2226.0,0.0108
2225.0,0.0109
2224.0,0.0108
2223.0,0.0108
2222.0,0.0107
2221.0,0.0107
2220.0,0.0106
2219.0,0.0106
2218.0,0.0105
2217.0,0.0106
2216.0,0.0106
2215.0,0.0106
2214.0,0.0106
2213.0,0.0106
2212.0,0.0107
2211.0,0.0107
2210.0,0.0107
2209.0,0.0107
2208.0,0.0107
2207.0,0.0107
2206.0,0.0107
2205.0,0.0107
2204.0,0.0107
2203.0,0.0108
2202.0,0.0108
2201.0,0.0108
2200.0,0.0108
2199.0,0.0108
2198.0,0.0108
2197.0,0.0108
2196.0,0.0107
2195.0,0.0106
2194.0,0.0106
2193.0,0.0106
2192.0,0.0106
2191.0,0.0107
2190.0,0.0107
2189.0,0.0108
2188.0,0.0109
2187.0,0.0109
2186.0,0.0109
2185.0,0.0109
2184.0,0.0108
2183.0,0.0108
2182.0,0.0108
2181.0,0.0109
2180.0,0.0109
2179.0,0.0109
2178.0,0.0109
2177.0,0.0109
2176.0,0.0108
2175.0,0.0108
2174.0,0.0108
2173.0,0.0108
2172.0,0.0108
2171.0,0.0108
2170.0,0.0108
2169.0,0.0108
2168.0,0.0108
2167.0,0.0108
2166.0,0.0108
2165.0,0.0109
2164.0,0.0109
2163.0,0.011
2162.0,0.011
2161.0,0.0109
2160.0,0.0109
2159.0,0.011
2158.0,0.0111
2157.0,0.0111
2156.0,0.011
2155.0,0.0109
2154.0,0.0109
2153.0,0.0109
2152.0,0.0109
2151.0,0.011
2150.0,0.011
2149.0,0.011
2148.0,0.011
2147.0,0.011
2146.0,0.011
2145.0,0.011
2144.0,0.011
2143.0,0.011
2142.0,0.011
2141.0,0.011
2140.0,0.011
2139.0,0.0111
2138.0,0.0111
2137.0,0.0111
2136.0,0.0111
2135.0,0.011
2134.0,0.011
2133.0,0.011
2132.0,0.0111
2131.0,0.0111
2130.0,0.011
2129.0,0.011
2128.0,0.011
2127.0,0.011
2126.0,0.011
2125.0,0.011
2124.0,0.0111
2123.0,0.0111
2122.0,0.0111
2121.0,0.0112
2120.0,0.0113
2119.0,0.0112
2118.0,0.0111
2117.0,0.0111
2116.0,0.011
2115.0,0.011
2114.0,0.0111
2113.0,0.0111
2112.0,0.0111
2111.0,0.0111
2110.0,0.0111
2109.0,0.0112
2108.0,0.0112
2107.0,0.0112
2106.0,0.0111
2105.0,0.0111
2104.0,0.011
2103.0,0.0111
2102.0,0.0111
2101.0,0.0112
2100.0,0.0112
2099.0,0.0112
2098.0,0.0112
2097.0,0.0112
2096.0,0.0112
2095.0,0.0112
2094.0,0.0112
2093.0,0.0112
2092.0,0.0113
2091.0,0.0113
2090.0,0.0113
2089.0,0.0113
2088.0,0.0113
2087.0,0.0113
2086.0,0.0113
2085.0,0.0113
2084.0,0.0113
2083.0,0.0114
2082.0,0.0114
2081.0,0.0114
2080.0,0.0115
2079.0,0.0115
2078.0,0.0115
2077.0,0.0115
2076.0,0.0115
2075.0,0.0114
2074.0,0.0114
2073.0,0.0113
2072.0,0.0113
2071.0,0.0114
2070.0,0.0114
2069.0,0.0115
2068.0,0.0115
2067.0,0.0114
2066.0,0.0114
2065.0,0.0114
2064.0,0.0114
2063.0,0.0114
2062.0,0.0114
2061.0,0.0114
2060.0,0.0114
2059.0,0.0114
2058.0,0.0114
2057.0,0.0114
2056.0,0.0114
2055.0,0.0115
2054.0,0.0115
2053.0,0.0115
2052.0,0.0115
2051.0,0.0115
2050.0,0.0115
2049.0,0.0115
2048.0,0.0115
2047.0,0.0116
2046.0,0.0116
2045.0,0.0116
2044.0,0.0115
2043.0,0.0115
2042.0,0.0114
2041.0,0.0114
2040.0,0.0114
2039.0,0.0115
2038.0,0.0116
2037.0,0.0116
2036.0,0.0116
2035.0,0.0116
2034.0,0.0116
2033.0,0.0116
2032.0,0.0116
2031.0,0.0116
2030.0,0.0115
2029.0,0.0115
2028.0,0.0116
2027.0,0.0116
2026.0,0.0116
2025.0,0.0116
2024.0,0.0116
2023.0,0.0116
2022.0,0.0116
2021.0,0.0116
2020.0,0.0116
2019.0,0.0117
2018.0,0.0117
2017.0,0.0117
2016.0,0.0117
2015.0,0.0117
2014.0,0.0117
2013.0,0.0117
2012.0,0.0117
2011.0,0.0118
2010.0,0.0118
2009.0,0.0118
2008.0,0.0118
2007.0,0.0117
2006.0,0.0117
2005.0,0.0116
2004.0,0.0116
2003.0,0.0116
2002.0,0.0116
2001.0,0.0117
2000.0,0.0117
1999.0,0.0117
1998.0,0.0118
1997.0,0.0118
1996.0,0.0119
1995.0,0.0119
1994.0,0.0119
1993.0,0.0119
1992.0,0.0118
1991.0,0.0118
1990.0,0.0118
1989.0,0.0118
1988.0,0.0118
1987.0,0.0118
1986.0,0.0118
1985.0,0.0118
1984.0,0.0118
1983.0,0.0118
1982.0,0.0118
1981.0,0.0118
1980.0,0.0118
1979.0,0.0119
1978.0,0.0119
1977.0,0.0119
1976.0,0.0119
1975.0,0.0119
1974.0,0.0119
1973.0,0.0119
1972.0,0.012
1971.0,0.012
1970.0,0.0121
1969.0,0.0121
1968.0,0.0121
1967.0,0.0122
1966.0,0.0122
1965.0,0.0123
1964.0,0.0123
1963.0,0.0124
1962.0,0.0124
1961.0,0.0125
1960.0,0.0125
1959.0,0.0126
1958.0,0.0126
1957.0,0.0127
1956.0,0.0127
1955.0,0.0127
1954.0,0.0128
1953.0,0.0129
1952.0,0.013
1951.0,0.0131
1950.0,0.0131
1949.0,0.0131
1948.0,0.0132
1947.0,0.0132
1946.0,0.0132
1945.0,0.0133
1944.0,0.0133
1943.0,0.0133
1942.0,0.0134
1941.0,0.0134
1940.0,0.0135
1939.0,0.0135
1938.0,0.0135
1937.0,0.0134
1936.0,0.0134
1935.0,0.0133
1934.0,0.0133
1933.0,0.0132
1932.0,0.0132
1931.0,0.0131
1930.0,0.013
1929.0,0.0129
1928.0,0.0128
1927.0,0.0128
1926.0,0.0129
1925.0,0.0129
1924.0,0.0129
1923.0,0.0128
1922.0,0.0127
1921.0,0.0127
1920.0,0.0127
1919.0,0.0127
1918.0,0.0126
1917.0,0.0126
1916.0,0.0126
1915.0,0.0127
1914.0,0.0127
1913.0,0.0127
1912.0,0.0126
1911.0,0.0126
1910.0,0.0126
1909.0,0.0127
1908.0,0.0127
1907.0,0.0127
1906.0,0.0127
1905.0,0.0126
1904.0,0.0126
1903.0,0.0125
1902.0,0.0126
1901.0,0.0127
1900.0,0.0127
1899.0,0.0127
1898.0,0.0127
1897.0,0.0127
1896.0,0.0127
1895.0,0.0128
1894.0,0.0129
1893.0,0.013
1892.0,0.0131
1891.0,0.0131
1890.0,0.0132
1889.0,0.0132
1888.0,0.0132
1887.0,0.0132
1886.0,0.0133
1885.0,0.0133
1884.0,0.0134
1883.0,0.0134
1882.0,0.0135
1881.0,0.0135
1880.0,0.0136
1879.0,0.0137
1878.0,0.0138
1877.0,0.0139
1876.0,0.014
1875.0,0.014
1874.0,0.014
1873.0,0.014
1872.0,0.014
1871.0,0.014
1870.0,0.0141
1869.0,0.0141
1868.0,0.0142
1867.0,0.0142
1866.0,0.0141
1865.0,0.014
1864.0,0.014
1863.0,0.0139
1862.0,0.0138
1861.0,0.0137
1860.0,0.0137
1859.0,0.0137
1858.0,0.0137
1857.0,0.0137
1856.0,0.0136
1855.0,0.0136
1854.0,0.0135
1853.0,0.0135
1852.0,0.0134
1851.0,0.0134
1850.0,0.0134
1849.0,0.0134
1848.0,0.0134
1847.0,0.0134
1846.0,0.0134
1845.0,0.0134
1844.0,0.0134
1843.0,0.0133
1842.0,0.0133
1841.0,0.0133
1840.0,0.0134
1839.0,0.0134
1838.0,0.0134
1837.0,0.0133
1836.0,0.0133
1835.0,0.0133
1834.0,0.0133
1833.0,0.0134
1832.0,0.0135
1831.0,0.0136
1830.0,0.0135
1829.0,0.0135
1828.0,0.0134
1827.0,0.0135
1826.0,0.0135
1825.0,0.0135
1824.0,0.0136
1823.0,0.0137
1822.0,0.0137
1821.0,0.0138
1820.0,0.0139
1819.0,0.0139
1818.0,0.0139
1817.0,0.014
1816.0,0.0141
1815.0,0.0141
1814.0,0.0141
1813.0,0.0142
1812.0,0.0142
1811.0,0.0142
1810.0,0.0142
1809.0,0.0142
1808.0,0.0143
1807.0,0.0143
1806.0,0.0144
1805.0,0.0146
1804.0,0.0147
1803.0,0.0148
1802.0,0.0149
1801.0,0.015
1800.0,0.015
1799.0,0.0149
1798.0,0.0149
1797.0,0.0148
1796.0,0.0147
1795.0,0.0146
1794.0,0.0146
1793.0,0.0145
1792.0,0.0144
1791.0,0.0143
1790.0,0.0143
1789.0,0.0142
1788.0,0.0142
1787.0,0.0142
1786.0,0.0142
1785.0,0.0142
1784.0,0.0142
1783.0,0.0142
1782.0,0.0141
1781.0,0.0141
1780.0,0.0141
1779.0,0.0141
1778.0,0.0141
1777.0,0.014
1776.0,0.0141
1775.0,0.0142
1774.0,0.0143
1773.0,0.0143
1772.0,0.0144
1771.0,0.0144
1770.0,0.0144
1769.0,0.0143
1768.0,0.0143
1767.0,0.0143
1766.0,0.0143
1765.0,0.0143
1764.0,0.0143
1763.0,0.0143
1762.0,0.0143
1761.0,0.0143
1760.0,0.0144
1759.0,0.0146
1758.0,0.0147
1757.0,0.0148
1756.0,0.0149
1755.0,0.0149
1754.0,0.0149
1753.0,0.015
1752.0,0.0151
1751.0,0.0152
1750.0,0.0153
1749.0,0.0154
1748.0,0.0155
1747.0,0.0156
1746.0,0.0157
1745.0,0.0158
1744.0,0.0159
1743.0,0.016
1742.0,0.016
1741.0,0.0161
1740.0,0.0161
1739.0,0.0161
1738.0,0.016
1737.0,0.016
1736.0,0.016
1735.0,0.0159
1734.0,0.0159
1733.0,0.0159
1732.0,0.016
1731.0,0.0161
1730.0,0.0161
1729.0,0.016
1728.0,0.016
1727.0,0.016
1726.0,0.016
1725.0,0.016
1724.0,0.0161
1723.0,0.0161
1722.0,0.0161
1721.0,0.0161
1720.0,0.0161
1719.0,0.016
1718.0,0.016
1717.0,0.0161
1716.0,0.0162
1715.0,0.0163
1714.0,0.0163
1713.0,0.0163
1712.0,0.0163
1711.0,0.0163
1710.0,0.0164
1709.0,0.0165
1708.0,0.0166
1707.0,0.0168
1706.0,0.0168
1705.0,0.0169
1704.0,0.0169
1703.0,0.017
1702.0,0.0172
1701.0,0.0174
1700.0,0.0175
1699.0,0.0175
1698.0,0.0176
1697.0,0.0178
1696.0,0.018
1695.0,0.0182
1694.0,0.0183
1693.0,0.0184
1692.0,0.0186
1691.0,0.0188
1690.0,0.019
1689.0,0.0191
1688.0,0.0192
1687.0,0.0193
1686.0,0.0195
1685.0,0.0199
1684.0,0.0205
1683.0,0.0209
1682.0,0.021
1681.0,0.0212
1680.0,0.0214
1679.0,0.0215
1678.0,0.0217
1677.0,0.0218
1676.0,0.0221
1675.0,0.0225
1674.0,0.0227
1673.0,0.0228
1672.0,0.0229
1671.0,0.0231
1670.0,0.0235
1669.0,0.0238
1668.0,0.024
1667.0,0.0242
1666.0,0.0243
1665.0,0.0244
1664.0,0.0246
1663.0,0.0249
1662.0,0.0252
1661.0,0.0254
1660.0,0.0256
1659.0,0.0257
1658.0,0.0258
1657.0,0.0257
1656.0,0.0257
1655.0,0.0258
1654.0,0.0261
1653.0,0.027
1652.0,0.0274
1651.0,0.0274
1650.0,0.0274
1649.0,0.0274
1648.0,0.0275
1647.0,0.0279
1646.0,0.0282
1645.0,0.0282
1644.0,0.0281
1643.0,0.028
1642.0,0.0278
1641.0,0.0276
1640.0,0.0274
1639.0,0.0272
1638.0,0.027
1637.0,0.0269
1636.0,0.0269
1635.0,0.0268
1634.0,0.0266
1633.0,0.0264
1632.0,0.0263
1631.0,0.0261
1630.0,0.0259
1629.0,0.0258
1628.0,0.0257
1627.0,0.0256
1626.0,0.0255
1625.0,0.0254
1624.0,0.0253
1623.0,0.0253
1622.0,0.0252
1621.0,0.025
1620.0,0.0249
1619.0,0.0248
1618.0,0.0246
1617.0,0.0245
1616.0,0.0244
1615.0,0.0243
1614.0,0.0243
1613.0,0.0242
1612.0,0.0242
1611.0,0.0243
1610.0,0.0245
1609.0,0.0249
1608.0,0.0256
1607.0,0.0266
1606.0,0.0277
1605.0,0.029
1604.0,0.0303
1603.0,0.0316
1602.0,0.0325
1601.0,0.0329
1600.0,0.0326
1599.0,0.0319
1598.0,0.0309
1597.0,0.0297
1596.0,0.0287
1595.0,0.0277
1594.0,0.0269
1593.0,0.0263
1592.0,0.0258
1591.0,0.0253
1590.0,0.025
1589.0,0.0247
1588.0,0.0246
1587.0,0.0247
1586.0,0.0249
1585.0,0.0251
1584.0,0.0254
1583.0,0.0254
1582.0,0.0252
1581.0,0.0248
1580.0,0.0242
1579.0,0.0237
1578.0,0.0233
1577.0,0.0228
1576.0,0.0224
1575.0,0.0222
1574.0,0.022
1573.0,0.0218
1572.0,0.0217
1571.0,0.0217
1570.0,0.0216
1569.0,0.0215
1568.0,0.0214
1567.0,0.0213
1566.0,0.0212
1565.0,0.0211
1564.0,0.021
1563.0,0.0209
1562.0,0.0208
1561.0,0.0208
1560.0,0.0207
1559.0,0.0208
1558.0,0.0207
1557.0,0.0205
1556.0,0.0205
1555.0,0.0205
1554.0,0.0205
1553.0,0.0205
1552.0,0.0205
1551.0,0.0205
1550.0,0.0205
1549.0,0.0206
1548.0,0.0206
1547.0,0.0206
1546.0,0.0207
1545.0,0.0207
1544.0,0.0206
1543.0,0.0206
1542.0,0.0204
1541.0,0.0203
1540.0,0.0205
1539.0,0.0207
1538.0,0.0207
1537.0,0.0207
1536.0,0.0206
1535.0,0.0206
1534.0,0.0205
1533.0,0.0206
1532.0,0.0206
1531.0,0.0206
1530.0,0.0205
1529.0,0.0205
1528.0,0.0203
1527.0,0.0202
1526.0,0.02
1525.0,0.0199
1524.0,0.0199
1523.0,0.0199
1522.0,0.0198
1521.0,0.0197
1520.0,0.0196
1519.0,0.0196
1518.0,0.0194
1517.0,0.0193
1516.0,0.0191
1515.0,0.0189
1514.0,0.0188
1513.0,0.0187
1512.0,0.0187
1511.0,0.0186
1510.0,0.0185
1509.0,0.0183
1508.0,0.0181
1507.0,0.018
1506.0,0.018
1505.0,0.0179
1504.0,0.0179
1503.0,0.0181
1502.0,0.0182
1501.0,0.0186
1500.0,0.0192
1499.0,0.0206
1498.0,0.0235
1497.0,0.0287
1496.0,0.0353
1495.0,0.0411
1494.0,0.0453
1493.0,0.0477
1492.0,0.0478
1491.0,0.0452
1490.0,0.0406
1489.0,0.0362
1488.0,0.0331
1487.0,0.0309
1486.0,0.0292
1485.0,0.028
1484.0,0.027
1483.0,0.0261
1482.0,0.0254
1481.0,0.0249
1480.0,0.0246
1479.0,0.0243
1478.0,0.024
1477.0,0.0238
1476.0,0.0235
1475.0,0.0232
1474.0,0.0229
1473.0,0.0227
1472.0,0.0227
1471.0,0.0225
1470.0,0.0224
1469.0,0.0224
1468.0,0.0224
1467.0,0.0224
1466.0,0.0223
1465.0,0.0222
1464.0,0.0222
1463.0,0.0221
1462.0,0.022
1461.0,0.022
1460.0,0.0223
1459.0,0.0231
1458.0,0.0258
1457.0,0.0314
1456.0,0.0374
1455.0,0.0422
1454.0,0.0461
1453.0,0.0491
1452.0,0.0505
1451.0,0.0502
1450.0,0.0486
1449.0,0.0464
1448.0,0.0443
1447.0,0.0427
1446.0,0.0414
1445.0,0.0402
1444.0,0.039
1443.0,0.0378
1442.0,0.0367
1441.0,0.0357
1440.0,0.0349
1439.0,0.0342
1438.0,0.0334
1437.0,0.0324
1436.0,0.0314
1435.0,0.0305
1434.0,0.0298
1433.0,0.0292
1432.0,0.0286
1431.0,0.028
1430.0,0.0275
1429.0,0.027
1428.0,0.0266
1427.0,0.0263
1426.0,0.026
1425.0,0.0257
1424.0,0.0255
1423.0,0.0253
1422.0,0.0252
1421.0,0.0251
1420.0,0.025
1419.0,0.0248
1418.0,0.0247
1417.0,0.0245
1416.0,0.0244
1415.0,0.0242
1414.0,0.0241
1413.0,0.024
1412.0,0.0239
1411.0,0.0239
1410.0,0.0238
1409.0,0.0238
1408.0,0.0237
1407.0,0.0237
1406.0,0.0237
1405.0,0.0237
1404.0,0.0237
1403.0,0.0236
1402.0,0.0236
1401.0,0.0237
1400.0,0.0237
1399.0,0.0237
1398.0,0.0236
1397.0,0.0236
1396.0,0.0235
1395.0,0.0236
1394.0,0.0236
1393.0,0.0237
1392.0,0.0237
1391.0,0.0238
1390.0,0.024
1389.0,0.0242
1388.0,0.0245
1387.0,0.0248
1386.0,0.0251
1385.0,0.0253
1384.0,0.0255
1383.0,0.0258
1382.0,0.0261
1381.0,0.0264
1380.0,0.0267
1379.0,0.0271
1378.0,0.0274
1377.0,0.0277
1376.0,0.028
1375.0,0.0282
1374.0,0.0284
1373.0,0.0284
1372.0,0.0284
1371.0,0.0283
1370.0,0.0283
1369.0,0.0284
1368.0,0.0284
1367.0,0.0284
1366.0,0.0284
1365.0,0.0283
1364.0,0.0282
1363.0,0.028
1362.0,0.0279
1361.0,0.0277
1360.0,0.0275
1359.0,0.0273
1358.0,0.0271
1357.0,0.027
1356.0,0.0268
1355.0,0.0268
1354.0,0.0267
1353.0,0.0267
1352.0,0.0267
1351.0,0.0266
1350.0,0.0266
1349.0,0.0265
1348.0,0.0265
1347.0,0.0265
1346.0,0.0264
1345.0,0.0264
1344.0,0.0262
1343.0,0.0261
1342.0,0.0259
1341.0,0.0258
1340.0,0.0257
1339.0,0.0257
1338.0,0.0257
1337.0,0.0257
1336.0,0.0257
1335.0,0.0258
1334.0,0.0259
1333.0,0.026
1332.0,0.0262
1331.0,0.0264
1330.0,0.0265
1329.0,0.0266
1328.0,0.0266
1327.0,0.0266
1326.0,0.0266
1325.0,0.0265
1324.0,0.0265
1323.0,0.0265
1322.0,0.0265
1321.0,0.0264
1320.0,0.0264
1319.0,0.0264
1318.0,0.0265
1317.0,0.0266
1316.0,0.0267
1315.0,0.0268
1314.0,0.027
1313.0,0.027
1312.0,0.0271
1311.0,0.0271
1310.0,0.027
1309.0,0.027
1308.0,0.0269
1307.0,0.0269
1306.0,0.0268
1305.0,0.0268
1304.0,0.0267
1303.0,0.0266
1302.0,0.0266
1301.0,0.0265
1300.0,0.0264
1299.0,0.0264
1298.0,0.0264
1297.0,0.0264
1296.0,0.0263
1295.0,0.0263
1294.0,0.0263
1293.0,0.0263
1292.0,0.0264
1291.0,0.0263
1290.0,0.0263
1289.0,0.0263
1288.0,0.0263
1287.0,0.0262
1286.0,0.0262
1285.0,0.0262
1284.0,0.0262
1283.0,0.0263
1282.0,0.0264
1281.0,0.0264
1280.0,0.0264
1279.0,0.0264
1278.0,0.0263
1277.0,0.0263
1276.0,0.0262
1275.0,0.0262
1274.0,0.0261
1273.0,0.026
1272.0,0.026
1271.0,0.026
1270.0,0.026
1269.0,0.0261
1268.0,0.0261
1267.0,0.0261
1266.0,0.0261
1265.0,0.0261
1264.0,0.0261
1263.0,0.0261
1262.0,0.0261
1261.0,0.0261
1260.0,0.0262
1259.0,0.0262
1258.0,0.0263
1257.0,0.0263
1256.0,0.0263
1255.0,0.0263
1254.0,0.0263
1253.0,0.0263
1252.0,0.0264
1251.0,0.0264
1250.0,0.0265
1249.0,0.0265
1248.0,0.0265
1247.0,0.0265
1246.0,0.0265
1245.0,0.0265
1244.0,0.0264
1243.0,0.0264
1242.0,0.0264
1241.0,0.0264
1240.0,0.0264
1239.0,0.0264
1238.0,0.0264
1237.0,0.0263
1236.0,0.0263
1235.0,0.0263
1234.0,0.0263
1233.0,0.0263
1232.0,0.0262
1231.0,0.0262
1230.0,0.0263
1229.0,0.0263
1228.0,0.0264
1227.0,0.0265
1226.0,0.0265
1225.0,0.0265
1224.0,0.0265
1223.0,0.0265
1222.0,0.0265
1221.0,0.0265
1220.0,0.0265
1219.0,0.0265
1218.0,0.0265
1217.0,0.0265
1216.0,0.0265
1215.0,0.0265
1214.0,0.0266
1213.0,0.0267
1212.0,0.0269
1211.0,0.0269
1210.0,0.027
1209.0,0.027
1208.0,0.0271
1207.0,0.0272
1206.0,0.0273
1205.0,0.0275
1204.0,0.0276
1203.0,0.0277
1202.0,0.0279
1201.0,0.028
1200.0,0.0282
1199.0,0.0284
1198.0,0.0286
1197.0,0.0288
1196.0,0.0289
1195.0,0.0291
1194.0,0.0292
1193.0,0.0293
1192.0,0.0294
1191.0,0.0295
1190.0,0.0296
1189.0,0.0297
1188.0,0.0299
1187.0,0.0301
1186.0,0.0303
1185.0,0.0307
1184.0,0.031
1183.0,0.0314
1182.0,0.0318
1181.0,0.032
1180.0,0.032
1179.0,0.0318
1178.0,0.0315
1177.0,0.0312
1176.0,0.0309
1175.0,0.0307
1174.0,0.0305
1173.0,0.0304
1172.0,0.0303
1171.0,0.0302
1170.0,0.0301
1169.0,0.0301
1168.0,0.0301
1167.0,0.0301
1166.0,0.0302
1165.0,0.0302
1164.0,0.0302
1163.0,0.0303
1162.0,0.0303
1161.0,0.0305
1160.0,0.0308
1159.0,0.0313
1158.0,0.0319
1157.0,0.0325
1156.0,0.033
1155.0,0.0333
1154.0,0.0335
1153.0,0.0336
1152.0,0.0335
1151.0,0.0332
1150.0,0.033
1149.0,0.0327
1148.0,0.0325
1147.0,0.0324
1146.0,0.0324
1145.0,0.0324
1144.0,0.0324
1143.0,0.0324
1142.0,0.0323
1141.0,0.0323
1140.0,0.0322
1139.0,0.0321
1138.0,0.032
1137.0,0.032
1136.0,0.032
1135.0,0.032
1134.0,0.0321
1133.0,0.0322
1132.0,0.0323
1131.0,0.0324
1130.0,0.0325
1129.0,0.0326
1128.0,0.0326
1127.0,0.0326
1126.0,0.0325
1125.0,0.0325
1124.0,0.0326
1123.0,0.0327
1122.0,0.0327
1121.0,0.0328
1120.0,0.0327
1119.0,0.0327
1118.0,0.0326
1117.0,0.0327
1116.0,0.0327
1115.0,0.0328
1114.0,0.0329
1113.0,0.0329
1112.0,0.0329
1111.0,0.0329
1110.0,0.0328
1109.0,0.0328
1108.0,0.0328
1107.0,0.0329
1106.0,0.0329
1105.0,0.0329
1104.0,0.0328
1103.0,0.0326
1102.0,0.0326
1101.0,0.0325
1100.0,0.0326
1099.0,0.0327
1098.0,0.0327
1097.0,0.0328
1096.0,0.0329
1095.0,0.0329
1094.0,0.033
1093.0,0.033
1092.0,0.033
1091.0,0.0329
1090.0,0.0328
1089.0,0.0327
1088.0,0.0327
1087.0,0.0327
1086.0,0.0327
1085.0,0.0328
1084.0,0.0329
1083.0,0.0331
1082.0,0.0333
1081.0,0.0336
1080.0,0.0338
1079.0,0.034
1078.0,0.0342
1077.0,0.0343
1076.0,0.0345
1075.0,0.0347
1074.0,0.0351
1073.0,0.0354
1072.0,0.0358
1071.0,0.0362
1070.0,0.0366
1069.0,0.0368
1068.0,0.0369
1067.0,0.0369
1066.0,0.0367
1065.0,0.0364
1064.0,0.0361
1063.0,0.0358
1062.0,0.0354
1061.0,0.0351
1060.0,0.0349
1059.0,0.0347
1058.0,0.0345
1057.0,0.0343
1056.0,0.034
1055.0,0.0338
1054.0,0.0335
1053.0,0.0334
1052.0,0.0332
1051.0,0.033
1050.0,0.0329
1049.0,0.0327
1048.0,0.0327
1047.0,0.0327
1046.0,0.0327
1045.0,0.0326
1044.0,0.0325
1043.0,0.0323
1042.0,0.0321
1041.0,0.0321
1040.0,0.0321
1039.0,0.0322
1038.0,0.0324
1037.0,0.0328
1036.0,0.0335
1035.0,0.0345
1034.0,0.0359
1033.0,0.0374
1032.0,0.0391
1031.0,0.0407
1030.0,0.0422
1029.0,0.0432
1028.0,0.0438
1027.0,0.0438
1026.0,0.0434
1025.0,0.0427
1024.0,0.0419
1023.0,0.0411
1022.0,0.0404
1021.0,0.0398
1020.0,0.0393
1019.0,0.0388
1018.0,0.0384
1017.0,0.038
1016.0,0.0376
1015.0,0.0372
1014.0,0.0369
1013.0,0.0366
1012.0,0.0364
1011.0,0.0363
1010.0,0.0362
1009.0,0.0361
1008.0,0.0361
1007.0,0.0362
1006.0,0.0363
1005.0,0.0365
1004.0,0.0367
1003.0,0.0368
1002.0,0.0367
1001.0,0.0364
1000.0,0.0361
999.0,0.0358
998.0,0.0355
997.0,0.0353
996.0,0.0351
995.0,0.0349
994.0,0.0348
993.0,0.0348
992.0,0.0348
991.0,0.0348
990.0,0.0349
989.0,0.035
988.0,0.0351
987.0,0.0351
986.0,0.0353
985.0,0.0354
984.0,0.0355
983.0,0.0356
982.0,0.0358
981.0,0.0359
980.0,0.036
979.0,0.036
978.0,0.036
977.0,0.0359
976.0,0.0358
975.0,0.0357
974.0,0.0355
973.0,0.0355
972.0,0.0356
971.0,0.0357
970.0,0.0359
969.0,0.0361
968.0,0.0362
967.0,0.0364
966.0,0.0366
965.0,0.0369
964.0,0.0371
963.0,0.0372
962.0,0.0373
961.0,0.0372
960.0,0.037
959.0,0.0368
958.0,0.0366
957.0,0.0363
956.0,0.0361
955.0,0.036
954.0,0.0359
953.0,0.0358
952.0,0.0358
951.0,0.0359
950.0,0.036
949.0,0.036
948.0,0.0361
947.0,0.0362
946.0,0.0364
945.0,0.0366
944.0,0.0367
943.0,0.0368
942.0,0.0369
941.0,0.0369
940.0,0.0369
939.0,0.0369
938.0,0.0368
937.0,0.0367
936.0,0.0365
935.0,0.0365
934.0,0.0364
933.0,0.0363
932.0,0.0362
931.0,0.0361
930.0,0.0359
929.0,0.0358
928.0,0.0358
927.0,0.0358
926.0,0.0358
925.0,0.0359
924.0,0.0359
923.0,0.036
922.0,0.0359
921.0,0.0359
920.0,0.0359
919.0,0.0361
918.0,0.0364
917.0,0.0368
916.0,0.0371
915.0,0.0375
914.0,0.0381
913.0,0.0388
912.0,0.0397
911.0,0.0407
910.0,0.0418
909.0,0.0429
908.0,0.0438
907.0,0.0445
906.0,0.0449
905.0,0.045
904.0,0.0448
903.0,0.0444
902.0,0.0438
901.0,0.0431
900.0,0.0425
899.0,0.0419
898.0,0.0414
897.0,0.0409
896.0,0.0405
895.0,0.0401
894.0,0.0398
893.0,0.0395
892.0,0.0393
891.0,0.0392
890.0,0.039
889.0,0.039
888.0,0.0389
887.0,0.039
886.0,0.039
885.0,0.0389
884.0,0.0389
883.0,0.0388
882.0,0.0388
881.0,0.0389
880.0,0.039
879.0,0.0391
878.0,0.0392
877.0,0.0392
876.0,0.0392
875.0,0.0392
874.0,0.0393
873.0,0.0393
872.0,0.0394
871.0,0.0394
870.0,0.0393
869.0,0.0391
868.0,0.0389
867.0,0.0388
866.0,0.0388
865.0,0.0389
864.0,0.039
863.0,0.039
862.0,0.039
861.0,0.0389
860.0,0.0388
859.0,0.0388
858.0,0.0388
857.0,0.039
856.0,0.0391
855.0,0.0391
854.0,0.0391
853.0,0.0392
852.0,0.0394
851.0,0.0397
850.0,0.0403
849.0,0.0408
848.0,0.0413
847.0,0.0416
846.0,0.0418
845.0,0.042
844.0,0.0422
843.0,0.0425
842.0,0.0426
841.0,0.0427
840.0,0.0427
839.0,0.0425
838.0,0.0423
837.0,0.0421
836.0,0.0419
835.0,0.0418
834.0,0.0415
833.0,0.0414
832.0,0.0412
831.0,0.0411
830.0,0.0409
829.0,0.0407
828.0,0.0405
827.0,0.0405
826.0,0.0405
825.0,0.0406
824.0,0.0407
823.0,0.0408
822.0,0.0408
821.0,0.0408
820.0,0.0407
819.0,0.0406
818.0,0.0406
817.0,0.0406
816.0,0.0407
815.0,0.0408
814.0,0.0409
813.0,0.0411
812.0,0.0411
811.0,0.041
810.0,0.0408
809.0,0.0407
808.0,0.0406
807.0,0.0405
806.0,0.0405
805.0,0.0406
804.0,0.0407
803.0,0.0408
802.0,0.0408
801.0,0.0408
800.0,0.0407
799.0,0.0407
798.0,0.0408
797.0,0.0409
796.0,0.0411
795.0,0.0412
794.0,0.0412
793.0,0.0413
792.0,0.0414
791.0,0.0417
790.0,0.042
789.0,0.0424
788.0,0.0428
787.0,0.0431
786.0,0.0433
785.0,0.0435
784.0,0.0436
783.0,0.0438
782.0,0.0441
781.0,0.0447
780.0,0.0453
779.0,0.0461
778.0,0.047
777.0,0.0481
776.0,0.0494
775.0,0.0508
774.0,0.0523
773.0,0.0541
772.0,0.0563
771.0,0.0587
770.0,0.0613
769.0,0.0639
768.0,0.0665
767.0,0.069
766.0,0.0715
765.0,0.0741
764.0,0.0767
763.0,0.0794
762.0,0.0821
761.0,0.0848
760.0,0.0875
759.0,0.0903
758.0,0.0928
757.0,0.0949
756.0,0.0965
755.0,0.0976
754.0,0.0982
753.0,0.0985
752.0,0.0988
751.0,0.0992
750.0,0.0997
749.0,0.1004
748.0,0.101
747.0,0.1011
746.0,0.1003
745.0,0.0985
744.0,0.096
743.0,0.0929
742.0,0.0897
741.0,0.0867
740.0,0.0841
739.0,0.0816
738.0,0.0791
737.0,0.0764
736.0,0.0738
735.0,0.071
734.0,0.0684
733.0,0.0661
732.0,0.0641
731.0,0.0624
730.0,0.0608
729.0,0.0592
728.0,0.058
727.0,0.057
726.0,0.0562
725.0,0.0551
724.0,0.0539
723.0,0.0525
722.0,0.0513
721.0,0.0502
720.0,0.0495
719.0,0.0489
718.0,0.0482
717.0,0.0473
716.0,0.0461
715.0,0.0449
714.0,0.0439
713.0,0.0433
712.0,0.0432
711.0,0.0439
710.0,0.0459
709.0,0.0495
708.0,0.0551
707.0,0.0627
706.0,0.0728
705.0,0.0858
704.0,0.1018
703.0,0.1204
702.0,0.1414
701.0,0.1648
700.0,0.1904
699.0,0.2171
698.0,0.243
697.0,0.265
696.0,0.2788
695.0,0.28
694.0,0.2675
693.0,0.2455
692.0,0.2202
691.0,0.1964
690.0,0.1764
689.0,0.1609
688.0,0.1491
687.0,0.1397
686.0,0.1319
685.0,0.1258
684.0,0.1214
683.0,0.118
682.0,0.1149
681.0,0.1117
680.0,0.1085
679.0,0.1056
678.0,0.1034
677.0,0.1019
676.0,0.101
675.0,0.1002
674.0,0.099
673.0,0.0975
672.0,0.0961
671.0,0.0956
670.0,0.0963
669.0,0.0986
668.0,0.1001
667.0,0.0977
666.0,0.0937
665.0,0.091
664.0,0.0893
663.0,0.0881
662.0,0.0871
661.0,0.0863
660.0,0.0858
659.0,0.0854
658.0,0.0847
657.0,0.0836
656.0,0.0822
655.0,0.0809
654.0,0.0803
653.0,0.0805
652.0,0.0812
651.0,0.0815
650.0,0.0811
649.0,0.0804
648.0,0.0799
647.0,0.0794
646.0,0.0786
645.0,0.0775
644.0,0.077
643.0,0.0774
642.0,0.0784
641.0,0.0793
640.0,0.08
639.0,0.0805
638.0,0.0811
637.0,0.0821
636.0,0.0831
635.0,0.0837
634.0,0.084
633.0,0.0841
632.0,0.084
631.0,0.0834
630.0,0.0823
629.0,0.0813
628.0,0.0806
627.0,0.08
626.0,0.0795
625.0,0.0792
624.0,0.0793
623.0,0.0796
622.0,0.08
621.0,0.0803
620.0,0.0806
619.0,0.0806
618.0,0.0805
617.0,0.0804
616.0,0.0803
615.0,0.0802
614.0,0.0798
613.0,0.0796
612.0,0.0799
611.0,0.0804
610.0,0.0805
609.0,0.0806
608.0,0.0812
607.0,0.0825
606.0,0.0834
605.0,0.0832
604.0,0.0818
603.0,0.0801
602.0,0.0788
601.0,0.0784
600.0,0.0791
