cm-1,A
4000.0,-0.0094
3999.0,-0.0093
3998.0,-0.0093
3997.0,-0.0094
3996.0,-0.0095
3995.0,-0.0097
3994.0,-0.0098
3993.0,-0.0099
3992.0,-0.0098
3991.0,-0.0098
3990.0,-0.0097
3989.0,-0.0098
3988.0,-0.0099
3987.0,-0.0099
3986.0,-0.0099
3985.0,-0.0098
3984.0,-0.0096
3983.0,-0.0096
3982.0,-0.0095
3981.0,-0.0096
3980.0,-0.0096
3979.0,-0.0096
3978.0,-0.0096
3977.0,-0.0095
3976.0,-0.0095
3975.0,-0.0095
3974.0,-0.0096
3973.0,-0.0096
3972.0,-0.0097
3971.0,-0.0097
3970.0,-0.0098
3969.0,-0.0098
3968.0,-0.0099
3967.0,-0.0099
3966.0,-0.0099
3965.0,-0.0098
3964.0,-0.0097
3963.0,-0.0097
3962.0,-0.0096
3961.0,-0.0096
3960.0,-0.0097
3959.0,-0.0098
3958.0,-0.0098
3957.0,-0.0098
3956.0,-0.0099
3955.0,-0.0099
3954.0,-0.01
3953.0,-0.0101
3952.0,-0.01
3951.0,-0.01
3950.0,-0.0099
3949.0,-0.0099
3948.0,-0.0099
3947.0,-0.0099
3946.0,-0.0099
3945.0,-0.0099
3944.0,-0.0099
3943.0,-0.0098
3942.0,-0.0098
3941.0,-0.0098
3940.0,-0.0099
3939.0,-0.0099
3938.0,-0.0099
3937.0,-0.0098
3936.0,-0.0098
3935.0,-0.0097
3934.0,-0.0098
3933.0,-0.0099
3932.0,-0.01
3931.0,-0.01
3930.0,-0.01
3929.0,-0.0099
3928.0,-0.0099
3927.0,-0.01
3926.0,-0.01
3925.0,-0.0101
3924.0,-0.01
3923.0,-0.01
3922.0,-0.0099
3921.0,-0.0099
3920.0,-0.0099
3919.0,-0.01
3918.0,-0.01
3917.0,-0.0101
3916.0,-0.0101
3915.0,-0.0101
3914.0,-0.0101
3913.0,-0.0101
3912.0,-0.0102
3911.0,-0.0102
3910.0,-0.0101
3909.0,-0.01
3908.0,-0.0099
3907.0,-0.0099
3906.0,-0.0098
3905.0,-0.0098
3904.0,-0.0099
3903.0,-0.01
3902.0,-0.0101
3901.0,-0.0102
3900.0,-0.0102
3899.0,-0.0101
3898.0,-0.0101
3897.0,-0.01
3896.0,-0.0099
3895.0,-0.0098
3894.0,-0.0098
3893.0,-0.01
3892.0,-0.0102
3891.0,-0.0103
3890.0,-0.0103
3889.0,-0.0103
3888.0,-0.0102
3887.0,-0.0101
3886.0,-0.0101
3885.0,-0.0101
3884.0,-0.0102
3883.0,-0.0102
3882.0,-0.0102
3881.0,-0.0102
3880.0,-0.0102
3879.0,-0.0102
3878.0,-0.0102
3877.0,-0.0103
3876.0,-0.0104
3875.0,-0.0104
3874.0,-0.0105
3873.0,-0.0105
3872.0,-0.0105
3871.0,-0.0104
3870.0,-0.0104
3869.0,-0.0105
3868.0,-0.0105
3867.0,-0.0105
3866.0,-0.0104
3865.0,-0.0102
3864.0,-0.0102
3863.0,-0.0102
3862.0,-0.0104
3861.0,-0.0104
3860.0,-0.0105
3859.0,-0.0106
3858.0,-0.0106
3857.0,-0.0107
3856.0,-0.0108
3855.0,-0.0108
3854.0,-0.0108
3853.0,-0.0108
3852.0,-0.0108
3851.0,-0.0107
3850.0,-0.0107
3849.0,-0.0107
3848.0,-0.0107
3847.0,-0.0107
3846.0,-0.0107
3845.0,-0.0107
3844.0,-0.0107
3843.0,-0.0107
3842.0,-0.0107
3841.0,-0.0107
3840.0,-0.0107
3839.0,-0.0107
3838.0,-0.0107
3837.0,-0.0107
3836.0,-0.0107
3835.0,-0.0108
3834.0,-0.0108
3833.0,-0.0108
3832.0,-0.0108
3831.0,-0.0108
3830.0,-0.0107
3829.0,-0.0108
3828.0,-0.0109
3827.0,-0.0109
3826.0,-0.011
3825.0,-0.011
3824.0,-0.011
3823.0,-0.0109
3822.0,-0.0109
3821.0,-0.0109
3820.0,-0.0108
3819.0,-0.0109
3818.0,-0.011
3817.0,-0.0111
3816.0,-0.0111
3815.0,-0.0112
3814.0,-0.0111
3813.0,-0.0111
3812.0,-0.0111
3811.0,-0.0112
3810.0,-0.0113
3809.0,-0.0114
3808.0,-0.0114
3807.0,-0.0113
3806.0,-0.0112
3805.0,-0.0111
3804.0,-0.011
3803.0,-0.011
3802.0,-0.0111
3801.0,-0.0113
3800.0,-0.0114
3799.0,-0.0115
3798.0,-0.0115
3797.0,-0.0115
3796.0,-0.0115
3795.0,-0.0114
3794.0,-0.0113
3793.0,-0.0113
3792.0,-0.0113
3791.0,-0.0113
3790.0,-0.0112
3789.0,-0.0112
3788.0,-0.0111
3787.0,-0.0111
3786.0,-0.0112
3785.0,-0.0112
3784.0,-0.0113
3783.0,-0.0112
3782.0,-0.0112
3781.0,-0.0112
3780.0,-0.0113
3779.0,-0.0114
3778.0,-0.0115
3777.0,-0.0115
3776.0,-0.0115
3775.0,-0.0115
3774.0,-0.0114
3773.0,-0.0114
3772.0,-0.0114
3771.0,-0.0114
3770.0,-0.0114
3769.0,-0.0115
3768.0,-0.0115
3767.0,-0.0115
3766.0,-0.0116
3765.0,-0.0116
3764.0,-0.0115
3763.0,-0.0115
3762.0,-0.0114
3761.0,-0.0114
3760.0,-0.0114
3759.0,-0.0115
3758.0,-0.0115
3757.0,-0.0116
3756.0,-0.0117
3755.0,-0.0117
3754.0,-0.0118
3753.0,-0.0118
3752.0,-0.0118
3751.0,-0.0117
3750.0,-0.0116
3749.0,-0.0116
3748.0,-0.0116
3747.0,-0.0117
3746.0,-0.0118
3745.0,-0.012
3744.0,-0.0122
3743.0,-0.0122
3742.0,-0.0122
3741.0,-0.0123
3740.0,-0.0123
3739.0,-0.0123
3738.0,-0.0123
3737.0,-0.0123
3736.0,-0.0123
3735.0,-0.0124
3734.0,-0.0126
3733.0,-0.0128
3732.0,-0.0129
3731.0,-0.0129
3730.0,-0.013
3729.0,-0.013
3728.0,-0.0132
3727.0,-0.0134
3726.0,-0.0135
3725.0,-0.0134
3724.0,-0.0132
3723.0,-0.0129
3722.0,-0.0126
3721.0,-0.0125
3720.0,-0.0124
3719.0,-0.0124
3718.0,-0.0122
3717.0,-0.012
3716.0,-0.0118
3715.0,-0.0117
3714.0,-0.0117
3713.0,-0.0117
3712.0,-0.0118
3711.0,-0.012
3710.0,-0.0122
3709.0,-0.0123
3708.0,-0.0123
3707.0,-0.0124
3706.0,-0.0125
3705.0,-0.0126
3704.0,-0.0126
3703.0,-0.0125
3702.0,-0.0124
3701.0,-0.0123
3700.0,-0.0123
3699.0,-0.0123
3698.0,-0.0123
3697.0,-0.0122
3696.0,-0.0122
3695.0,-0.0122
3694.0,-0.0121
3693.0,-0.012
3692.0,-0.0118
3691.0,-0.0117
3690.0,-0.0117
3689.0,-0.0119
3688.0,-0.0119
3687.0,-0.0119
3686.0,-0.0118
3685.0,-0.0116
3684.0,-0.0114
3683.0,-0.0113
3682.0,-0.0112
3681.0,-0.0112
3680.0,-0.0113
3679.0,-0.0113
3678.0,-0.0113
3677.0,-0.0112
3676.0,-0.011
3675.0,-0.0109
3674.0,-0.0108
3673.0,-0.0108
3672.0,-0.0107
3671.0,-0.0106
3670.0,-0.0104
3669.0,-0.0103
3668.0,-0.0102
3667.0,-0.0101
3666.0,-0.0099
3665.0,-0.0097
3664.0,-0.0096
3663.0,-0.0094
3662.0,-0.0092
3661.0,-0.009
3660.0,-0.0089
3659.0,-0.0088
3658.0,-0.0086
3657.0,-0.0085
3656.0,-0.0083
3655.0,-0.0082
3654.0,-0.008
3653.0,-0.0079
3652.0,-0.0076
3651.0,-0.0074
3650.0,-0.0072
3649.0,-0.0071
3648.0,-0.0069
3647.0,-0.0066
3646.0,-0.0063
3645.0,-0.0061
3644.0,-0.0059
3643.0,-0.0058
3642.0,-0.0057
3641.0,-0.0055
3640.0,-0.0053
3639.0,-0.0052
3638.0,-0.005
3637.0,-0.0049
3636.0,-0.0048
3635.0,-0.0047
3634.0,-0.0045
3633.0,-0.0044
3632.0,-0.0042
3631.0,-0.0038
3630.0,-0.0034
3629.0,-0.0029
3628.0,-0.0025
3627.0,-0.0024
3626.0,-0.0022
3625.0,-0.0019
3624.0,-0.0016
3623.0,-0.0013
3622.0,-0.001
3621.0,-0.0005
3620.0,-0.0001
3619.0,0.0005
3618.0,0.001
3617.0,0.0014
3616.0,0.0018
3615.0,0.0023
3614.0,0.0027
3613.0,0.0031
3612.0,0.0034
3611.0,0.0036
3610.0,0.0038
3609.0,0.0041
3608.0,0.0044
3607.0,0.0047
3606.0,0.0049
3605.0,0.005
3604.0,0.0052
3603.0,0.0054
3602.0,0.0058
3601.0,0.0062
3600.0,0.0067
3599.0,0.0071
3598.0,0.0074
3597.0,0.0076
3596.0,0.0079
3595.0,0.0083
3594.0,0.0088
3593.0,0.0092
3592.0,0.0095
3591.0,0.0098
3590.0,0.0101
3589.0,0.0104
3588.0,0.0109
3587.0,0.0113
3586.0,0.0117
3585.0,0.0121
3584.0,0.0124
3583.0,0.0128
3582.0,0.0131
3581.0,0.0136
3580.0,0.0139
3579.0,0.0143
3578.0,0.0146
3577.0,0.015
3576.0,0.0154
3575.0,0.0159
3574.0,0.0164
3573.0,0.0168
3572.0,0.0171
3571.0,0.0175
3570.0,0.0178
3569.0,0.0182
3568.0,0.0188
3567.0,0.0195
3566.0,0.0201
3565.0,0.0205
3564.0,0.0207
3563.0,0.0209
3562.0,0.0212
3561.0,0.0216
3560.0,0.0221
3559.0,0.0226
3558.0,0.0231
3557.0,0.0236
3556.0,0.024
3555.0,0.0245
3554.0,0.0249
3553.0,0.0255
3552.0,0.0262
3551.0,0.0268
3550.0,0.0274
3549.0,0.0279
3548.0,0.0284
3547.0,0.0289
3546.0,0.0295
3545.0,0.0302
3544.0,0.0309
3543.0,0.0317
3542.0,0.0323
3541.0,0.0329
3540.0,0.0334
3539.0,0.0338
3538.0,0.0343
3537.0,0.0348
3536.0,0.0354
3535.0,0.0359
3534.0,0.0365
3533.0,0.037
3532.0,0.0376
3531.0,0.0382
3530.0,0.039
3529.0,0.0398
3528.0,0.0407
3527.0,0.0415
3526.0,0.0422
3525.0,0.0429
3524.0,0.0438
3523.0,0.0447
3522.0,0.0456
3521.0,0.0465
3520.0,0.0473
3519.0,0.048
3518.0,0.0487
3517.0,0.0495
3516.0,0.0503
3515.0,0.0511
3514.0,0.052
3513.0,0.0528
3512.0,0.0537
3511.0,0.0547
3510.0,0.0557
3509.0,0.0568
3508.0,0.0577
3507.0,0.0586
3506.0,0.0594
3505.0,0.0603
3504.0,0.0615
3503.0,0.0628
3502.0,0.0639
3501.0,0.0649
3500.0,0.0658
3499.0,0.0668
3498.0,0.068
3497.0,0.0693
3496.0,0.0707
3495.0,0.0719
3494.0,0.0731
3493.0,0.0742
3492.0,0.0754
3491.0,0.0767
3490.0,0.0781
3489.0,0.0796
3488.0,0.0812
3487.0,0.0827
3486.0,0.0841
3485.0,0.0854
3484.0,0.0868
3483.0,0.0884
3482.0,0.0901
3481.0,0.0919
3480.0,0.0937
3479.0,0.0954
3478.0,0.097
3477.0,0.0986
3476.0,0.1003
3475.0,0.1021
3474.0,0.1039
3473.0,0.1057
3472.0,0.1076
3471.0,0.1094
3470.0,0.1113
3469.0,0.1132
3468.0,0.1151
3467.0,0.117
3466.0,0.1189
3465.0,0.1207
3464.0,0.1226
3463.0,0.1246
3462.0,0.1268
3461.0,0.1291
3460.0,0.1313
3459.0,0.1334
3458.0,0.1355
3457.0,0.1376
3456.0,0.1397
3455.0,0.1418
3454.0,0.1438
3453.0,0.1458
3452.0,0.1478
3451.0,0.1498
3450.0,0.1519
3449.0,0.1542
3448.0,0.157
3447.0,0.1599
3446.0,0.1626
3445.0,0.1651
3444.0,0.1677
3443.0,0.1703
3442.0,0.1732
3441.0,0.1761
3440.0,0.1789
3439.0,0.1818
3438.0,0.1849
3437.0,0.188
3436.0,0.1913
3435.0,0.1947
3434.0,0.1981
3433.0,0.2016
3432.0,0.2052
3431.0,0.209
3430.0,0.213
3429.0,0.2172
3428.0,0.2214
3427.0,0.2256
3426.0,0.2297
3425.0,0.2337
3424.0,0.2379
3423.0,0.2423
3422.0,0.2469
3421.0,0.2518
3420.0,0.2567
3419.0,0.2614
3418.0,0.2659
3417.0,0.2702
3416.0,0.2745
3415.0,0.279
3414.0,0.2836
3413.0,0.2881
3412.0,0.2925
3411.0,0.2967
3410.0,0.301
3409.0,0.3054
3408.0,0.3099
3407.0,0.3145
3406.0,0.3191
3405.0,0.3237
3404.0,0.3284
3403.0,0.333
3402.0,0.3374
3401.0,0.3416
3400.0,0.3457
3399.0,0.3498
3398.0,0.3541
3397.0,0.3585
3396.0,0.3629
3395.0,0.3671
3394.0,0.3713
3393.0,0.3756
3392.0,0.3798
3391.0,0.3835
3390.0,0.3866
3389.0,0.3891
3388.0,0.3915
3387.0,0.3938
3386.0,0.396
3385.0,0.3981
3384.0,0.4
3383.0,0.4015
3382.0,0.4026
3381.0,0.4033
3380.0,0.4038
3379.0,0.404
3378.0,0.4038
3377.0,0.4033
3376.0,0.4026
3375.0,0.4018
3374.0,0.4008
3373.0,0.3996
3372.0,0.3981
3371.0,0.3962
3370.0,0.3941
3369.0,0.3919
3368.0,0.3897
3367.0,0.3875
3366.0,0.3853
3365.0,0.3829
3364.0,0.3804
3363.0,0.3779
3362.0,0.3751
3361.0,0.3722
3360.0,0.3693
3359.0,0.3662
3358.0,0.3631
3357.0,0.36
3356.0,0.3569
3355.0,0.3538
3354.0,0.3507
3353.0,0.3476
3352.0,0.3444
3351.0,0.3412
3350.0,0.3379
3349.0,0.3345
3348.0,0.3313
3347.0,0.3282
3346.0,0.3253
3345.0,0.3224
3344.0,0.3194
3343.0,0.3165
3342.0,0.3134
3341.0,0.3103
3340.0,0.3072
3339.0,0.304
3338.0,0.3008
3337.0,0.2978
3336.0,0.2948
3335.0,0.2919
3334.0,0.2889
3333.0,0.2859
3332.0,0.2829
3331.0,0.2799
3330.0,0.277
3329.0,0.274
3328.0,0.271
3327.0,0.2681
3326.0,0.2652
3325.0,0.2622
3324.0,0.2593
3323.0,0.2564
3322.0,0.2535
3321.0,0.2508
3320.0,0.2481
3319.0,0.2455
3318.0,0.2429
3317.0,0.2403
3316.0,0.2377
3315.0,0.2351
3314.0,0.2325
3313.0,0.23
3312.0,0.2274
3311.0,0.225
3310.0,0.2227
3309.0,0.2206
3308.0,0.2185
3307.0,0.2164
3306.0,0.2142
3305.0,0.2119
3304.0,0.2097
3303.0,0.2076
3302.0,0.2055
3301.0,0.2035
3300.0,0.2015
3299.0,0.1996
3298.0,0.1979
3297.0,0.1963
3296.0,0.1948
3295.0,0.1933
3294.0,0.1917
3293.0,0.1902
3292.0,0.1886
3291.0,0.187
3290.0,0.1854
3289.0,0.1838
3288.0,0.1822
3287.0,0.1807
3286.0,0.1791
3285.0,0.1776
3284.0,0.1761
3283.0,0.1746
3282.0,0.1733
3281.0,0.172
3280.0,0.1708
3279.0,0.1697
3278.0,0.1686
3277.0,0.1674
3276.0,0.1663
3275.0,0.1652
3274.0,0.1641
3273.0,0.1632
3272.0,0.1624
3271.0,0.1617
3270.0,0.161
3269.0,0.1603
3268.0,0.1598
3267.0,0.1595
3266.0,0.1595
3265.0,0.1597
3264.0,0.1601
3263.0,0.1607
3262.0,0.1614
3261.0,0.1622
3260.0,0.1631
3259.0,0.1642
3258.0,0.1653
3257.0,0.1668
3256.0,0.1684
3255.0,0.1701
3254.0,0.1718
3253.0,0.1734
3252.0,0.175
3251.0,0.1766
3250.0,0.178
3249.0,0.1792
3248.0,0.1803
3247.0,0.1812
3246.0,0.1821
3245.0,0.1829
3244.0,0.1836
3243.0,0.184
3242.0,0.184
3241.0,0.1839
3240.0,0.1836
3239.0,0.183
3238.0,0.1821
3237.0,0.181
3236.0,0.1798
3235.0,0.1785
3234.0,0.1771
3233.0,0.1755
3232.0,0.1739
3231.0,0.1721
3230.0,0.1702
3229.0,0.168
3228.0,0.1657
3227.0,0.1634
3226.0,0.1611
3225.0,0.1589
3224.0,0.1567
3223.0,0.1544
3222.0,0.1519
3221.0,0.1494
3220.0,0.1468
3219.0,0.1443
3218.0,0.1418
3217.0,0.1394
3216.0,0.1372
3215.0,0.1351
3214.0,0.1331
3213.0,0.1311
3212.0,0.1291
3211.0,0.1271
3210.0,0.1252
3209.0,0.1235
3208.0,0.1218
3207.0,0.1201
3206.0,0.1184
3205.0,0.1168
3204.0,0.1152
3203.0,0.1138
3202.0,0.1124
3201.0,0.1109
3200.0,0.1095
3199.0,0.1082
3198.0,0.107
3197.0,0.1059
3196.0,0.1049
3195.0,0.1037
3194.0,0.1025
3193.0,0.1012
3192.0,0.1001
3191.0,0.099
3190.0,0.098
3189.0,0.097
3188.0,0.0961
3187.0,0.0951
3186.0,0.0941
3185.0,0.0931
3184.0,0.0921
3183.0,0.0911
3182.0,0.0902
3181.0,0.0893
3180.0,0.0885
3179.0,0.0878
3178.0,0.0871
3177.0,0.0865
3176.0,0.0858
3175.0,0.085
3174.0,0.0842
3173.0,0.0833
3172.0,0.0824
3171.0,0.0816
3170.0,0.0808
3169.0,0.08
3168.0,0.0793
3167.0,0.0785
3166.0,0.0777
3165.0,0.077
3164.0,0.0764
3163.0,0.0758
3162.0,0.0752
3161.0,0.0746
3160.0,0.074
3159.0,0.0734
3158.0,0.0727
3157.0,0.072
3156.0,0.0713
3155.0,0.0706
3154.0,0.0699
3153.0,0.0693
3152.0,0.0687
3151.0,0.0682
3150.0,0.0676
3149.0,0.067
3148.0,0.0663
3147.0,0.0657
3146.0,0.0651
3145.0,0.0646
3144.0,0.0642
3143.0,0.0637
3142.0,0.0631
3141.0,0.0625
3140.0,0.0619
3139.0,0.0613
3138.0,0.0608
3137.0,0.0603
3136.0,0.0598
3135.0,0.0594
3134.0,0.0589
3133.0,0.0584
3132.0,0.0579
3131.0,0.0574
3130.0,0.057
3129.0,0.0566
3128.0,0.0561
3127.0,0.0557
3126.0,0.0552
3125.0,0.0548
3124.0,0.0543
3123.0,0.054
3122.0,0.0536
3121.0,0.0533
3120.0,0.0528
3119.0,0.0524
3118.0,0.0519
3117.0,0.0515
3116.0,0.051
3115.0,0.0506
3114.0,0.0502
3113.0,0.0499
3112.0,0.0496
3111.0,0.0492
3110.0,0.0489
3109.0,0.0485
3108.0,0.0481
3107.0,0.0478
3106.0,0.0474
3105.0,0.0469
3104.0,0.0465
3103.0,0.0461
3102.0,0.0457
3101.0,0.0453
3100.0,0.045
3099.0,0.0448
3098.0,0.0445
3097.0,0.0443
3096.0,0.044
3095.0,0.0437
3094.0,0.0433
3093.0,0.0429
3092.0,0.0425
3091.0,0.0422
3090.0,0.0418
3089.0,0.0415
3088.0,0.0412
3087.0,0.0409
3086.0,0.0406
3085.0,0.0403
3084.0,0.04
3083.0,0.0398
3082.0,0.0396
3081.0,0.0393
3080.0,0.039
3079.0,0.0386
3078.0,0.0382
3077.0,0.0379
3076.0,0.0376
3075.0,0.0374
3074.0,0.0372
3073.0,0.037
3072.0,0.0368
3071.0,0.0366
3070.0,0.0364
3069.0,0.0362
3068.0,0.036
3067.0,0.0358
3066.0,0.0356
3065.0,0.0354
3064.0,0.0352
3063.0,0.035
3062.0,0.0348
3061.0,0.0345
3060.0,0.0343
3059.0,0.0341
3058.0,0.0339
3057.0,0.0337
3056.0,0.0335
3055.0,0.0334
3054.0,0.0332
3053.0,0.0329
3052.0,0.0327
3051.0,0.0324
3050.0,0.0322
3049.0,0.0321
3048.0,0.032
3047.0,0.0318
3046.0,0.0317
3045.0,0.0315
3044.0,0.0314
3043.0,0.0312
3042.0,0.031
3041.0,0.0307
3040.0,0.0305
3039.0,0.0302
3038.0,0.0301
3037.0,0.0299
3036.0,0.0297
3035.0,0.0296
3034.0,0.0295
3033.0,0.0294
3032.0,0.0292
3031.0,0.029
3030.0,0.0288
3029.0,0.0287
3028.0,0.0285
3027.0,0.0284
3026.0,0.0281
3025.0,0.0278
3024.0,0.0276
3023.0,0.0274
3022.0,0.0272
3021.0,0.027
3020.0,0.0268
3019.0,0.0266
3018.0,0.0264
3017.0,0.0262
3016.0,0.026
3015.0,0.0258
3014.0,0.0256
3013.0,0.0254
3012.0,0.0251
3011.0,0.0249
3010.0,0.0248
3009.0,0.0246
3008.0,0.0244
3007.0,0.0242
3006.0,0.024
3005.0,0.0238
3004.0,0.0236
3003.0,0.0235
3002.0,0.0233
3001.0,0.0231
3000.0,0.0228
2999.0,0.0225
2998.0,0.0223
2997.0,0.0222
2996.0,0.022
2995.0,0.0219
2994.0,0.0217
2993.0,0.0214
2992.0,0.0211
2991.0,0.0208
2990.0,0.0207
2989.0,0.0206
2988.0,0.0206
2987.0,0.0205
2986.0,0.0203
2985.0,0.0202
2984.0,0.0201
2983.0,0.02
2982.0,0.0199
2981.0,0.0198
2980.0,0.0197
2979.0,0.0195
2978.0,0.0193
2977.0,0.0191
2976.0,0.0189
2975.0,0.0187
2974.0,0.0187
2973.0,0.0186
2972.0,0.0185
2971.0,0.0184
2970.0,0.0183
2969.0,0.0181
2968.0,0.018
2967.0,0.018
2966.0,0.018
2965.0,0.0181
2964.0,0.0181
2963.0,0.018
2962.0,0.0179
2961.0,0.0178
2960.0,0.0177
2959.0,0.0176
2958.0,0.0175
2957.0,0.0174
2956.0,0.0174
2955.0,0.0173
2954.0,0.0173
2953.0,0.0173
2952.0,0.0172
2951.0,0.0172
2950.0,0.0171
2949.0,0.017
2948.0,0.0169
2947.0,0.0168
2946.0,0.0167
2945.0,0.0166
2944.0,0.0165
2943.0,0.0165
2942.0,0.0165
2941.0,0.0164
2940.0,0.0163
2939.0,0.0162
2938.0,0.0162
2937.0,0.0161
2936.0,0.016
2935.0,0.016
2934.0,0.0159
2933.0,0.0159
2932.0,0.0158
2931.0,0.0158
2930.0,0.0157
2929.0,0.0155
2928.0,0.0154
2927.0,0.0153
2926.0,0.0152
2925.0,0.015
2924.0,0.0149
2923.0,0.0149
2922.0,0.0149
2921.0,0.0148
2920.0,0.0148
2919.0,0.0147
2918.0,0.0146
2917.0,0.0145
2916.0,0.0144
2915.0,0.0142
2914.0,0.0141
2913.0,0.014
2912.0,0.0139
2911.0,0.0138
2910.0,0.0138
2909.0,0.0137
2908.0,0.0136
2907.0,0.0134
2906.0,0.0132
2905.0,0.0131
2904.0,0.013
2903.0,0.0129
2902.0,0.0128
2901.0,0.0128
2900.0,0.0128
2899.0,0.0128
2898.0,0.0128
2897.0,0.0127
2896.0,0.0127
2895.0,0.0126
2894.0,0.0125
2893.0,0.0124
2892.0,0.0124
2891.0,0.0124
2890.0,0.0124
2889.0,0.0124
2888.0,0.0124
2887.0,0.0124
2886.0,0.0123
2885.0,0.0123
2884.0,0.0122
2883.0,0.0121
2882.0,0.012
2881.0,0.012
2880.0,0.012
2879.0,0.0119
2878.0,0.0119
2877.0,0.0118
2876.0,0.0118
2875.0,0.0119
2874.0,0.0119
2873.0,0.0119
2872.0,0.0118
2871.0,0.0118
2870.0,0.0117
2869.0,0.0117
2868.0,0.0117
2867.0,0.0117
2866.0,0.0117
2865.0,0.0116
2864.0,0.0116
2863.0,0.0117
2862.0,0.0117
2861.0,0.0117
2860.0,0.0117
2859.0,0.0117
2858.0,0.0116
2857.0,0.0116
2856.0,0.0116
2855.0,0.0116
2854.0,0.0115
2853.0,0.0115
2852.0,0.0114
2851.0,0.0114
2850.0,0.0114
2849.0,0.0114
2848.0,0.0113
2847.0,0.0112
2846.0,0.011
2845.0,0.0109
2844.0,0.0108
2843.0,0.0108
2842.0,0.0108
2841.0,0.0109
2840.0,0.0109
2839.0,0.0109
2838.0,0.0109
2837.0,0.0109
2836.0,0.0108
2835.0,0.0108
2834.0,0.0108
2833.0,0.0108
2832.0,0.0108
2831.0,0.0107
2830.0,0.0106
2829.0,0.0105
2828.0,0.0104
2827.0,0.0104
2826.0,0.0104
2825.0,0.0104
2824.0,0.0104
2823.0,0.0103
2822.0,0.0103
2821.0,0.0103
2820.0,0.0102
2819.0,0.0102
2818.0,0.0102
2817.0,0.0102
2816.0,0.0103
2815.0,0.0102
2814.0,0.0102
2813.0,0.0102
2812.0,0.0101
2811.0,0.01
2810.0,0.0099
2809.0,0.0098
2808.0,0.0098
2807.0,0.0098
2806.0,0.0099
2805.0,0.0099
2804.0,0.0099
2803.0,0.0098
2802.0,0.0097
2801.0,0.0096
2800.0,0.0096
2799.0,0.0096
2798.0,0.0096
2797.0,0.0096
2796.0,0.0096
2795.0,0.0096
2794.0,0.0095
2793.0,0.0095
2792.0,0.0094
2791.0,0.0093
2790.0,0.0092
2789.0,0.0091
2788.0,0.009
2787.0,0.009
2786.0,0.0089
2785.0,0.0089
2784.0,0.0089
2783.0,0.0089
2782.0,0.0089
2781.0,0.0089
2780.0,0.009
2779.0,0.009
2778.0,0.009
2777.0,0.009
2776.0,0.0089
2775.0,0.0088
2774.0,0.0087
2773.0,0.0086
2772.0,0.0086
2771.0,0.0085
2770.0,0.0085
2769.0,0.0085
2768.0,0.0085
2767.0,0.0084
2766.0,0.0083
2765.0,0.0083
2764.0,0.0083
2763.0,0.0084
2762.0,0.0084
2761.0,0.0084
2760.0,0.0083
2759.0,0.0083
2758.0,0.0082
2757.0,0.0081
2756.0,0.008
2755.0,0.008
2754.0,0.008
2753.0,0.008
2752.0,0.008
2751.0,0.008
2750.0,0.0079
2749.0,0.0078
2748.0,0.0078
2747.0,0.0077
2746.0,0.0077
2745.0,0.0077
2744.0,0.0077
2743.0,0.0077
2742.0,0.0077
2741.0,0.0077
2740.0,0.0077
2739.0,0.0077
2738.0,0.0077
2737.0,0.0076
2736.0,0.0076
2735.0,0.0076
2734.0,0.0075
2733.0,0.0075
2732.0,0.0075
2731.0,0.0074
2730.0,0.0074
2729.0,0.0073
2728.0,0.0073
2727.0,0.0073
2726.0,0.0073
2725.0,0.0073
2724.0,0.0072
2723.0,0.0071
2722.0,0.0071
2721.0,0.0072
2720.0,0.0072
2719.0,0.0073
2718.0,0.0072
2717.0,0.0071
2716.0,0.0071
2715.0,0.0071
2714.0,0.0071
2713.0,0.007
2712.0,0.007
2711.0,0.0069
2710.0,0.0068
2709.0,0.0068
2708.0,0.0068
2707.0,0.0068
2706.0,0.0068
2705.0,0.0068
2704.0,0.0069
2703.0,0.0069
2702.0,0.0069
2701.0,0.0069
2700.0,0.0069
2699.0,0.0068
2698.0,0.0067
2697.0,0.0067
2696.0,0.0067
2695.0,0.0066
2694.0,0.0066
2693.0,0.0065
2692.0,0.0066
2691.0,0.0066
2690.0,0.0066
2689.0,0.0066
2688.0,0.0065
2687.0,0.0065
2686.0,0.0064
2685.0,0.0064
2684.0,0.0065
2683.0,0.0065
2682.0,0.0064
2681.0,0.0064
2680.0,0.0064
2679.0,0.0063
2678.0,0.0063
2677.0,0.0062
2676.0,0.0062
2675.0,0.0061
2674.0,0.0061
2673.0,0.0061
2672.0,0.0061
2671.0,0.0061
2670.0,0.0061
2669.0,0.0061
2668.0,0.0061
2667.0,0.0061
2666.0,0.0061
2665.0,0.0062
2664.0,0.0062
2663.0,0.0062
2662.0,0.0061
2661.0,0.0061
2660.0,0.006
2659.0,0.006
2658.0,0.006
2657.0,0.006
2656.0,0.0059
2655.0,0.0059
2654.0,0.0059
2653.0,0.0059
2652.0,0.0059
2651.0,0.0059
2650.0,0.0059
2649.0,0.006
2648.0,0.006
2647.0,0.006
2646.0,0.0059
2645.0,0.0059
2644.0,0.0059
2643.0,0.0059
2642.0,0.0059
2641.0,0.0059
2640.0,0.0059
2639.0,0.0059
2638.0,0.0058
2637.0,0.0057
2636.0,0.0056
2635.0,0.0056
2634.0,0.0055
2633.0,0.0055
2632.0,0.0055
2631.0,0.0055
2630.0,0.0054
2629.0,0.0055
2628.0,0.0055
2627.0,0.0055
2626.0,0.0055
2625.0,0.0055
2624.0,0.0055
2623.0,0.0054
2622.0,0.0053
2621.0,0.0053
2620.0,0.0053
2619.0,0.0053
2618.0,0.0053
2617.0,0.0053
2616.0,0.0053
2615.0,0.0053
2614.0,0.0054
2613.0,0.0054
2612.0,0.0054
2611.0,0.0053
2610.0,0.0052
2609.0,0.0052
2608.0,0.0052
2607.0,0.0053
2606.0,0.0052
2605.0,0.0052
2604.0,0.0051
2603.0,0.0051
2602.0,0.0051
2601.0,0.0052
2600.0,0.0052
2599.0,0.0052
2598.0,0.0052
2597.0,0.0052
2596.0,0.0052
2595.0,0.0051
2594.0,0.005
2593.0,0.005
2592.0,0.005
2591.0,0.0051
2590.0,0.0051
2589.0,0.0052
2588.0,0.0052
2587.0,0.0051
2586.0,0.0051
2585.0,0.005
2584.0,0.0049
2583.0,0.0049
2582.0,0.0049
2581.0,0.0049
2580.0,0.0049
2579.0,0.0049
2578.0,0.0049
2577.0,0.0049
2576.0,0.0049
2575.0,0.0049
2574.0,0.0049
2573.0,0.0049
2572.0,0.0049
2571.0,0.0049
2570.0,0.0049
2569.0,0.0049
2568.0,0.0049
2567.0,0.0049
2566.0,0.0049
2565.0,0.0049
2564.0,0.0048
2563.0,0.0048
2562.0,0.0047
2561.0,0.0048
2560.0,0.0048
2559.0,0.0049
2558.0,0.0049
2557.0,0.0048
2556.0,0.0048
2555.0,0.0047
2554.0,0.0047
2553.0,0.0047
2552.0,0.0047
2551.0,0.0047
2550.0,0.0047
2549.0,0.0047
2548.0,0.0046
2547.0,0.0046
2546.0,0.0046
2545.0,0.0046
2544.0,0.0047
2543.0,0.0047
2542.0,0.0047
2541.0,0.0047
2540.0,0.0048
2539.0,0.0048
2538.0,0.0048
2537.0,0.0048
2536.0,0.0047
2535.0,0.0047
2534.0,0.0047
2533.0,0.0046
2532.0,0.0047
2531.0,0.0047
2530.0,0.0047
2529.0,0.0047
2528.0,0.0047
2527.0,0.0047
2526.0,0.0047
2525.0,0.0047
2524.0,0.0046
2523.0,0.0046
2522.0,0.0046
2521.0,0.0046
2520.0,0.0047
2519.0,0.0047
2518.0,0.0047
2517.0,0.0047
2516.0,0.0046
2515.0,0.0046
2514.0,0.0045
2513.0,0.0045
2512.0,0.0045
2511.0,0.0045
2510.0,0.0045
2509.0,0.0045
2508.0,0.0045
2507.0,0.0045
2506.0,0.0046
2505.0,0.0046
2504.0,0.0046
2503.0,0.0046
2502.0,0.0046
2501.0,0.0045
2500.0,0.0045
2499.0,0.0044
2498.0,0.0044
2497.0,0.0044
2496.0,0.0044
2495.0,0.0044
2494.0,0.0044
2493.0,0.0044
2492.0,0.0044
2491.0,0.0044
2490.0,0.0044
2489.0,0.0044
2488.0,0.0045
2487.0,0.0044
2486.0,0.0044
2485.0,0.0043
2484.0,0.0043
2483.0,0.0043
2482.0,0.0043
2481.0,0.0044
2480.0,0.0044
2479.0,0.0045
2478.0,0.0045
2477.0,0.0045
2476.0,0.0044
2475.0,0.0044
2474.0,0.0044
2473.0,0.0044
2472.0,0.0043
2471.0,0.0043
2470.0,0.0042
2469.0,0.0041
2468.0,0.0041
2467.0,0.0041
2466.0,0.0041
2465.0,0.0042
2464.0,0.0042
2463.0,0.0043
2462.0,0.0043
2461.0,0.0043
2460.0,0.0043
2459.0,0.0044
2458.0,0.0044
2457.0,0.0043
2456.0,0.0044
2455.0,0.0043
2454.0,0.0043
2453.0,0.0043
2452.0,0.0043
2451.0,0.0043
2450.0,0.0043
2449.0,0.0044
2448.0,0.0044
2447.0,0.0044
2446.0,0.0044
2445.0,0.0044
2444.0,0.0044
2443.0,0.0045
2442.0,0.0045
2441.0,0.0044
2440.0,0.0044
2439.0,0.0044
2438.0,0.0044
2437.0,0.0044
2436.0,0.0044
2435.0,0.0044
2434.0,0.0044
2433.0,0.0043
2432.0,0.0043
2431.0,0.0043
2430.0,0.0043
2429.0,0.0043
2428.0,0.0043
2427.0,0.0044
2426.0,0.0044
2425.0,0.0044
2424.0,0.0044
2423.0,0.0044
2422.0,0.0044
2421.0,0.0044
2420.0,0.0045
2419.0,0.0045
2418.0,0.0044
2417.0,0.0044
2416.0,0.0045
2415.0,0.0044
2414.0,0.0044
2413.0,0.0045
2412.0,0.0045
2411.0,0.0045
2410.0,0.0045
2409.0,0.0045
2408.0,0.0045
2407.0,0.0045
2406.0,0.0045
2405.0,0.0045
2404.0,0.0045
2403.0,0.0045
2402.0,0.0045
2401.0,0.0045
2400.0,0.0045
2399.0,0.0046
2398.0,0.0046
2397.0,0.0046
2396.0,0.0047
2395.0,0.0047
2394.0,0.0047
2393.0,0.0047
2392.0,0.0047
2391.0,0.0047
2390.0,0.0046
2389.0,0.0046
2388.0,0.0044
2387.0,0.0042
2386.0,0.004
2385.0,0.0037
2384.0,0.0035
2383.0,0.0033
2382.0,0.0032
2381.0,0.0031
2380.0,0.0031
2379.0,0.0031
2378.0,0.0031
2377.0,0.003
2376.0,0.0029
2375.0,0.0027
2374.0,0.0025
2373.0,0.0023
2372.0,0.0022
2371.0,0.0021
2370.0,0.0022
2369.0,0.0026
2368.0,0.003
2367.0,0.003
2366.0,0.0024
2365.0,0.0019
2364.0,0.0016
2363.0,0.001
2362.0,0.0004
2361.0,0.0006
2360.0,0.0015
2359.0,0.0022
2358.0,0.0023
2357.0,0.0018
2356.0,0.0006
2355.0,-0.001
2354.0,-0.0019
2353.0,-0.0012
2352.0,0.0003
2351.0,0.0015
2350.0,0.0022
2349.0,0.0022
2348.0,0.002
2347.0,0.0016
2346.0,0.0007
2345.0,-0.0003
2344.0,-0.0011
2343.0,-0.0013
2342.0,-0.0007
2341.0,0.0004
2340.0,0.0013
2339.0,0.0016
2338.0,0.0015
2337.0,0.0017
2336.0,0.0024
2335.0,0.0032
2334.0,0.0039
2333.0,0.0045
2332.0,0.0051
2331.0,0.0051
2330.0,0.0047
2329.0,0.0043
2328.0,0.0041
2327.0,0.0042
2326.0,0.0045
2325.0,0.0051
2324.0,0.0057
2323.0,0.0063
2322.0,0.0066
2321.0,0.0068
2320.0,0.0069
2319.0,0.0069
2318.0,0.0071
2317.0,0.0072
2316.0,0.0075
2315.0,0.0077
2314.0,0.0079
2313.0,0.008
2312.0,0.0081
2311.0,0.0081
2310.0,0.0083
2309.0,0.0087
2308.0,0.0092
2307.0,0.0098
2306.0,0.0104
2305.0,0.0108
2304.0,0.0112
2303.0,0.0113
2302.0,0.0115
2301.0,0.0118
2300.0,0.0121
2299.0,0.0124
2298.0,0.0128
2297.0,0.0131
2296.0,0.0135
2295.0,0.0139
2294.0,0.0142
2293.0,0.0146
2292.0,0.015
2291.0,0.0154
2290.0,0.0157
2289.0,0.0161
2288.0,0.0164
2287.0,0.0168
2286.0,0.0171
2285.0,0.0174
2284.0,0.0176
2283.0,0.0178
2282.0,0.0179
2281.0,0.0179
2280.0,0.018
2279.0,0.0181
2278.0,0.0182
2277.0,0.0184
2276.0,0.0187
2275.0,0.0189
2274.0,0.0191
2273.0,0.0191
2272.0,0.0192
2271.0,0.0192
2270.0,0.0192
2269.0,0.0192
2268.0,0.0193
2267.0,0.0193
2266.0,0.0193
2265.0,0.0194
2264.0,0.0194
2263.0,0.0195
2262.0,0.0195
2261.0,0.0195
2260.0,0.0196
2259.0,0.0196
2258.0,0.0197
2257.0,0.0197
2256.0,0.0197
2255.0,0.0197
2254.0,0.0197
2253.0,0.0197
2252.0,0.0197
2251.0,0.0197
2250.0,0.0197
2249.0,0.0196
2248.0,0.0196
2247.0,0.0195
2246.0,0.0195
2245.0,0.0195
2244.0,0.0195
2243.0,0.0195
2242.0,0.0194
2241.0,0.0193
2240.0,0.0193
2239.0,0.0192
2238.0,0.0191
2237.0,0.019
2236.0,0.0189
2235.0,0.0188
2234.0,0.0187
2233.0,0.0186
2232.0,0.0185
2231.0,0.0185
2230.0,0.0184
2229.0,0.0183
2228.0,0.0183
2227.0,0.0182
2226.0,0.0181
2225.0,0.018
2224.0,0.0179
2223.0,0.0177
2222.0,0.0176
2221.0,0.0175
2220.0,0.0174
2219.0,0.0173
2218.0,0.0172
2217.0,0.0171
2216.0,0.0171
2215.0,0.017
2214.0,0.0169
2213.0,0.0168
2212.0,0.0168
2211.0,0.0167
2210.0,0.0166
2209.0,0.0164
2208.0,0.0163
2207.0,0.0162
2206.0,0.0162
2205.0,0.0162
2204.0,0.0162
2203.0,0.0161
2202.0,0.016
2201.0,0.0159
2200.0,0.0158
2199.0,0.0157
2198.0,0.0156
2197.0,0.0155
2196.0,0.0154
2195.0,0.0153
2194.0,0.0152
2193.0,0.0151
2192.0,0.0151
2191.0,0.015
2190.0,0.0149
2189.0,0.0149
2188.0,0.0148
2187.0,0.0147
2186.0,0.0147
2185.0,0.0146
2184.0,0.0145
2183.0,0.0144
2182.0,0.0143
2181.0,0.0143
2180.0,0.0142
2179.0,0.0142
2178.0,0.014
2177.0,0.0139
2176.0,0.0137
2175.0,0.0136
2174.0,0.0136
2173.0,0.0135
2172.0,0.0135
2171.0,0.0134
2170.0,0.0133
2169.0,0.0132
2168.0,0.0132
2167.0,0.0131
2166.0,0.0131
2165.0,0.0131
2164.0,0.013
2163.0,0.0129
2162.0,0.0128
2161.0,0.0127
2160.0,0.0127
2159.0,0.0127
2158.0,0.0127
2157.0,0.0126
2156.0,0.0125
2155.0,0.0124
2154.0,0.0124
2153.0,0.0123
2152.0,0.0123
2151.0,0.0123
2150.0,0.0122
2149.0,0.0121
2148.0,0.012
2147.0,0.0119
2146.0,0.0119
2145.0,0.0118
2144.0,0.0118
2143.0,0.0117
2142.0,0.0116
2141.0,0.0116
2140.0,0.0115
2139.0,0.0115
2138.0,0.0114
2137.0,0.0113
2136.0,0.0113
2135.0,0.0113
2134.0,0.0113
2133.0,0.0112
2132.0,0.0112
2131.0,0.0111
2130.0,0.0111
2129.0,0.011
2128.0,0.011
2127.0,0.0109
2126.0,0.0109
2125.0,0.0108
2124.0,0.0107
2123.0,0.0107
2122.0,0.0106
2121.0,0.0106
2120.0,0.0106
2119.0,0.0106
2118.0,0.0106
2117.0,0.0106
2116.0,0.0105
2115.0,0.0105
2114.0,0.0104
2113.0,0.0103
2112.0,0.0102
2111.0,0.0102
2110.0,0.0102
2109.0,0.0101
2108.0,0.0101
2107.0,0.0101
2106.0,0.0101
2105.0,0.0101
2104.0,0.0101
2103.0,0.0101
2102.0,0.01
2101.0,0.01
2100.0,0.0099
2099.0,0.0099
2098.0,0.0099
2097.0,0.0099
2096.0,0.0099
2095.0,0.0099
2094.0,0.0099
2093.0,0.01
2092.0,0.01
2091.0,0.01
2090.0,0.0099
2089.0,0.0098
2088.0,0.0098
2087.0,0.0098
2086.0,0.0098
2085.0,0.0098
2084.0,0.0099
2083.0,0.0099
2082.0,0.0099
2081.0,0.0099
2080.0,0.0099
2079.0,0.0098
2078.0,0.0097
2077.0,0.0097
2076.0,0.0098
2075.0,0.0098
2074.0,0.0098
2073.0,0.0098
2072.0,0.0098
2071.0,0.0098
2070.0,0.0097
2069.0,0.0097
2068.0,0.0098
2067.0,0.0098
2066.0,0.0098
2065.0,0.0098
2064.0,0.0098
2063.0,0.0097
2062.0,0.0097
2061.0,0.0096
2060.0,0.0096
2059.0,0.0096
2058.0,0.0095
2057.0,0.0094
2056.0,0.0094
2055.0,0.0094
2054.0,0.0093
2053.0,0.0092
2052.0,0.0092
2051.0,0.0091
2050.0,0.0091
2049.0,0.009
2048.0,0.0089
2047.0,0.0089
2046.0,0.0088
2045.0,0.0087
2044.0,0.0087
2043.0,0.0086
2042.0,0.0085
2041.0,0.0084
2040.0,0.0084
2039.0,0.0083
2038.0,0.0083
2037.0,0.0082
2036.0,0.0081
2035.0,0.0081
2034.0,0.008
2033.0,0.0079
2032.0,0.0079
2031.0,0.0079
2030.0,0.0078
2029.0,0.0077
2028.0,0.0077
2027.0,0.0076
2026.0,0.0076
2025.0,0.0075
2024.0,0.0075
2023.0,0.0074
2022.0,0.0074
2021.0,0.0074
2020.0,0.0073
2019.0,0.0073
2018.0,0.0073
2017.0,0.0073
2016.0,0.0073
2015.0,0.0073
2014.0,0.0072
2013.0,0.0071
2012.0,0.007
2011.0,0.007
2010.0,0.0069
2009.0,0.0069
2008.0,0.0069
2007.0,0.0069
2006.0,0.0069
2005.0,0.0068
2004.0,0.0068
2003.0,0.0067
2002.0,0.0066
2001.0,0.0066
2000.0,0.0065
1999.0,0.0065
1998.0,0.0065
1997.0,0.0065
1996.0,0.0066
1995.0,0.0066
1994.0,0.0066
1993.0,0.0065
1992.0,0.0065
1991.0,0.0064
1990.0,0.0064
1989.0,0.0064
1988.0,0.0063
1987.0,0.0063
1986.0,0.0062
1985.0,0.0061
1984.0,0.0061
1983.0,0.0061
1982.0,0.006
1981.0,0.006
1980.0,0.006
1979.0,0.006
1978.0,0.006
1977.0,0.0061
1976.0,0.0061
1975.0,0.0061
1974.0,0.0061
1973.0,0.006
1972.0,0.006
1971.0,0.0059
1970.0,0.0059
1969.0,0.0059
1968.0,0.0059
1967.0,0.0059
1966.0,0.0059
1965.0,0.0059
1964.0,0.0059
1963.0,0.0059
1962.0,0.0059
1961.0,0.0059
1960.0,0.0059
1959.0,0.0059
1958.0,0.0059
1957.0,0.0058
1956.0,0.0059
1955.0,0.0059
1954.0,0.0059
1953.0,0.0059
1952.0,0.0058
1951.0,0.0058
1950.0,0.0058
1949.0,0.0058
1948.0,0.0058
1947.0,0.0058
1946.0,0.0057
1945.0,0.0057
1944.0,0.0057
1943.0,0.0057
1942.0,0.0057
1941.0,0.0056
1940.0,0.0056
1939.0,0.0056
1938.0,0.0056
1937.0,0.0056
1936.0,0.0056
1935.0,0.0057
1934.0,0.0057
1933.0,0.0057
1932.0,0.0056
1931.0,0.0056
1930.0,0.0055
1929.0,0.0055
1928.0,0.0055
1927.0,0.0055
1926.0,0.0055
1925.0,0.0055
1924.0,0.0055
1923.0,0.0055
1922.0,0.0054
1921.0,0.0054
1920.0,0.0054
1919.0,0.0053
1918.0,0.0053
1917.0,0.0053
1916.0,0.0053
1915.0,0.0053
1914.0,0.0053
1913.0,0.0053
1912.0,0.0054
1911.0,0.0055
1910.0,0.0055
1909.0,0.0055
1908.0,0.0055
1907.0,0.0055
1906.0,0.0054
1905.0,0.0054
1904.0,0.0054
1903.0,0.0055
1902.0,0.0055
1901.0,0.0056
1900.0,0.0056
1899.0,0.0057
1898.0,0.0057
1897.0,0.0058
1896.0,0.0059
1895.0,0.006
1894.0,0.006
1893.0,0.006
1892.0,0.0061
1891.0,0.0062
1890.0,0.0063
1889.0,0.0064
1888.0,0.0064
1887.0,0.0066
1886.0,0.0067
1885.0,0.0068
1884.0,0.0069
1883.0,0.007
1882.0,0.0071
1881.0,0.0072
1880.0,0.0074
1879.0,0.0075
1878.0,0.0077
1877.0,0.0078
1876.0,0.008
1875.0,0.0082
1874.0,0.0083
1873.0,0.0084
1872.0,0.0085
1871.0,0.0087
1870.0,0.0089
1869.0,0.009
1868.0,0.0092
1867.0,0.0092
1866.0,0.0092
1865.0,0.0093
1864.0,0.0093
1863.0,0.0093
1862.0,0.0093
1861.0,0.0093
1860.0,0.0093
1859.0,0.0093
1858.0,0.0093
1857.0,0.0093
1856.0,0.0093
1855.0,0.0092
1854.0,0.0092
1853.0,0.0091
1852.0,0.0091
1851.0,0.009
1850.0,0.0089
1849.0,0.0088
1848.0,0.0086
1847.0,0.0086
1846.0,0.0084
1845.0,0.0082
1844.0,0.008
1843.0,0.0079
1842.0,0.0078
1841.0,0.0077
1840.0,0.0076
1839.0,0.0075
1838.0,0.0074
1837.0,0.0072
1836.0,0.0071
1835.0,0.007
1834.0,0.0069
1833.0,0.0068
1832.0,0.0068
1831.0,0.0067
1830.0,0.0065
1829.0,0.0064
1828.0,0.0063
1827.0,0.0063
1826.0,0.0061
1825.0,0.0059
1824.0,0.0057
1823.0,0.0057
1822.0,0.0056
1821.0,0.0056
1820.0,0.0056
1819.0,0.0056
1818.0,0.0055
1817.0,0.0055
1816.0,0.0055
1815.0,0.0054
1814.0,0.0054
1813.0,0.0054
1812.0,0.0054
1811.0,0.0053
1810.0,0.0052
1809.0,0.0051
1808.0,0.005
1807.0,0.005
1806.0,0.005
1805.0,0.005
1804.0,0.0051
1803.0,0.0051
1802.0,0.005
1801.0,0.005
1800.0,0.0049
1799.0,0.0049
1798.0,0.0048
1797.0,0.0047
1796.0,0.0046
1795.0,0.0045
1794.0,0.0045
1793.0,0.0044
1792.0,0.0044
1791.0,0.0045
1790.0,0.0045
1789.0,0.0045
1788.0,0.0046
1787.0,0.0046
1786.0,0.0046
1785.0,0.0045
1784.0,0.0045
1783.0,0.0045
1782.0,0.0045
1781.0,0.0044
1780.0,0.0044
1779.0,0.0044
1778.0,0.0044
1777.0,0.0044
1776.0,0.0045
1775.0,0.0045
1774.0,0.0045
1773.0,0.0044
1772.0,0.0044
1771.0,0.0043
1770.0,0.0043
1769.0,0.0042
1768.0,0.0041
1767.0,0.0039
1766.0,0.0038
1765.0,0.0039
1764.0,0.0039
1763.0,0.0039
1762.0,0.0037
1761.0,0.0035
1760.0,0.0035
1759.0,0.0035
1758.0,0.0034
1757.0,0.0033
1756.0,0.0032
1755.0,0.0032
1754.0,0.0031
1753.0,0.003
1752.0,0.003
1751.0,0.003
1750.0,0.003
1749.0,0.0029
1748.0,0.0029
1747.0,0.0028
1746.0,0.0027
1745.0,0.0026
1744.0,0.0027
1743.0,0.0028
1742.0,0.0028
1741.0,0.0028
1740.0,0.0028
1739.0,0.0028
1738.0,0.0029
1737.0,0.003
1736.0,0.0033
1735.0,0.0035
1734.0,0.0035
1733.0,0.0037
1732.0,0.004
1731.0,0.0043
1730.0,0.0044
1729.0,0.0045
1728.0,0.0047
1727.0,0.0049
1726.0,0.005
1725.0,0.0052
1724.0,0.0054
1723.0,0.0056
1722.0,0.0057
1721.0,0.0058
1720.0,0.006
1719.0,0.0061
1718.0,0.0061
1717.0,0.0063
1716.0,0.0066
1715.0,0.007
1714.0,0.0072
1713.0,0.0074
1712.0,0.0076
1711.0,0.0079
1710.0,0.008
1709.0,0.0082
1708.0,0.0084
1707.0,0.0087
1706.0,0.0088
1705.0,0.0089
1704.0,0.0091
1703.0,0.0093
1702.0,0.0093
1701.0,0.0093
1700.0,0.0094
1699.0,0.0097
1698.0,0.0099
1697.0,0.0102
1696.0,0.0106
1695.0,0.0109
1694.0,0.0111
1693.0,0.0114
1692.0,0.0117
1691.0,0.012
1690.0,0.0122
1689.0,0.0124
1688.0,0.0127
1687.0,0.0129
1686.0,0.0131
1685.0,0.0132
1684.0,0.0135
1683.0,0.0139
1682.0,0.014
1681.0,0.0142
1680.0,0.0145
1679.0,0.0147
1678.0,0.0147
1677.0,0.0147
1676.0,0.015
1675.0,0.0154
1674.0,0.0156
1673.0,0.0158
1672.0,0.0162
1671.0,0.0166
1670.0,0.0169
1669.0,0.0173
1668.0,0.018
1667.0,0.0187
1666.0,0.0191
1665.0,0.0197
1664.0,0.0208
1663.0,0.0223
1662.0,0.0238
1661.0,0.0254
1660.0,0.0273
1659.0,0.0295
1658.0,0.0318
1657.0,0.0338
1656.0,0.0361
1655.0,0.0398
1654.0,0.05
1653.0,0.0671
1652.0,0.0794
1651.0,0.0861
1650.0,0.0916
1649.0,0.0994
1648.0,0.1137
1647.0,0.1343
1646.0,0.1521
1645.0,0.164
1644.0,0.1751
1643.0,0.188
1642.0,0.2031
1641.0,0.22
1640.0,0.2371
1639.0,0.2526
1638.0,0.267
1637.0,0.2854
1636.0,0.3103
1635.0,0.3289
1634.0,0.3324
1633.0,0.3273
1632.0,0.3192
1631.0,0.3093
1630.0,0.2969
1629.0,0.2814
1628.0,0.2639
1627.0,0.2466
1626.0,0.2296
1625.0,0.2112
1624.0,0.1905
1623.0,0.1704
1622.0,0.1549
1621.0,0.1437
1620.0,0.1344
1619.0,0.1257
1618.0,0.1164
1617.0,0.1067
1616.0,0.0987
1615.0,0.0933
1614.0,0.0893
1613.0,0.0855
1612.0,0.0816
1611.0,0.078
1610.0,0.0749
1609.0,0.072
1608.0,0.0692
1607.0,0.0667
1606.0,0.0646
1605.0,0.0627
1604.0,0.0606
1603.0,0.0588
1602.0,0.0572
1601.0,0.0557
1600.0,0.0542
1599.0,0.0528
1598.0,0.0516
1597.0,0.0504
1596.0,0.0492
1595.0,0.048
1594.0,0.047
1593.0,0.0461
1592.0,0.0451
1591.0,0.0441
1590.0,0.0433
1589.0,0.0424
1588.0,0.0414
1587.0,0.0405
1586.0,0.0398
1585.0,0.039
1584.0,0.0382
1583.0,0.0374
1582.0,0.0368
1581.0,0.0361
1580.0,0.0353
1579.0,0.0346
1578.0,0.0341
1577.0,0.0336
1576.0,0.0332
1575.0,0.0328
1574.0,0.0324
1573.0,0.032
1572.0,0.0314
1571.0,0.0308
1570.0,0.0304
1569.0,0.0301
1568.0,0.0297
1567.0,0.0294
1566.0,0.0291
1565.0,0.0287
1564.0,0.0282
1563.0,0.0276
1562.0,0.0272
1561.0,0.0267
1560.0,0.0261
1559.0,0.0259
1558.0,0.0261
1557.0,0.026
1556.0,0.0257
1555.0,0.0255
1554.0,0.0253
1553.0,0.0252
1552.0,0.025
1551.0,0.0248
1550.0,0.0245
1549.0,0.0243
1548.0,0.024
1547.0,0.0238
1546.0,0.0236
1545.0,0.0233
1544.0,0.023
1543.0,0.0226
1542.0,0.0224
1541.0,0.0224
1540.0,0.0222
1539.0,0.022
1538.0,0.0219
1537.0,0.0219
1536.0,0.0218
1535.0,0.0217
1534.0,0.0216
1533.0,0.0216
1532.0,0.0214
1531.0,0.0212
1530.0,0.0211
1529.0,0.021
1528.0,0.0209
1527.0,0.0207
1526.0,0.0205
1525.0,0.0203
1524.0,0.0201
1523.0,0.0199
1522.0,0.0199
1521.0,0.02
1520.0,0.0199
1519.0,0.0199
1518.0,0.0199
1517.0,0.0199
1516.0,0.0198
1515.0,0.0195
1514.0,0.0193
1513.0,0.0191
1512.0,0.019
1511.0,0.0189
1510.0,0.0189
1509.0,0.0189
1508.0,0.0188
1507.0,0.0189
1506.0,0.0188
1505.0,0.0187
1504.0,0.0187
1503.0,0.0188
1502.0,0.0187
1501.0,0.0186
1500.0,0.0184
1499.0,0.0182
1498.0,0.018
1497.0,0.018
1496.0,0.018
1495.0,0.018
1494.0,0.018
1493.0,0.018
1492.0,0.018
1491.0,0.018
1490.0,0.0181
1489.0,0.018
1488.0,0.0179
1487.0,0.0177
1486.0,0.0176
1485.0,0.0176
1484.0,0.0176
1483.0,0.0176
1482.0,0.0176
1481.0,0.0176
1480.0,0.0176
1479.0,0.0175
1478.0,0.0174
1477.0,0.0174
1476.0,0.0173
1475.0,0.0172
1474.0,0.0172
1473.0,0.0173
1472.0,0.0173
1471.0,0.0173
1470.0,0.0172
1469.0,0.0172
1468.0,0.0172
1467.0,0.0171
1466.0,0.0171
1465.0,0.0171
1464.0,0.0171
1463.0,0.0172
1462.0,0.0172
1461.0,0.0173
1460.0,0.0173
1459.0,0.0172
1458.0,0.0173
1457.0,0.0174
1456.0,0.0175
1455.0,0.0176
1454.0,0.0178
1453.0,0.0179
1452.0,0.0179
1451.0,0.018
1450.0,0.018
1449.0,0.0182
1448.0,0.0184
1447.0,0.0185
1446.0,0.0186
1445.0,0.0186
1444.0,0.0187
1443.0,0.0188
1442.0,0.0189
1441.0,0.019
1440.0,0.0191
1439.0,0.0191
1438.0,0.0193
1437.0,0.0196
1436.0,0.02
1435.0,0.0204
1434.0,0.0207
1433.0,0.021
1432.0,0.0213
1431.0,0.0216
1430.0,0.022
1429.0,0.0224
1428.0,0.0228
1427.0,0.0232
1426.0,0.0236
1425.0,0.0242
1424.0,0.0248
1423.0,0.0253
1422.0,0.0256
1421.0,0.0259
1420.0,0.0265
1419.0,0.0273
1418.0,0.028
1417.0,0.0285
1416.0,0.0289
1415.0,0.0291
1414.0,0.0293
1413.0,0.0296
1412.0,0.03
1411.0,0.0302
1410.0,0.0305
1409.0,0.0306
1408.0,0.0307
1407.0,0.0305
1406.0,0.0302
1405.0,0.0298
1404.0,0.0294
1403.0,0.0288
1402.0,0.0283
1401.0,0.0278
1400.0,0.0272
1399.0,0.0266
1398.0,0.026
1397.0,0.0255
1396.0,0.0249
1395.0,0.0242
1394.0,0.0236
1393.0,0.0232
1392.0,0.0228
1391.0,0.0225
1390.0,0.0222
1389.0,0.0219
1388.0,0.0217
1387.0,0.0214
1386.0,0.0212
1385.0,0.0209
1384.0,0.0207
1383.0,0.0205
1382.0,0.0204
1381.0,0.0203
1380.0,0.0202
1379.0,0.0202
1378.0,0.0201
1377.0,0.0201
1376.0,0.02
1375.0,0.02
1374.0,0.02
1373.0,0.0199
1372.0,0.0199
1371.0,0.0199
1370.0,0.0199
1369.0,0.0199
1368.0,0.0199
1367.0,0.0199
1366.0,0.0199
1365.0,0.0198
1364.0,0.0197
1363.0,0.0196
1362.0,0.0195
1361.0,0.0194
1360.0,0.0192
1359.0,0.019
1358.0,0.0189
1357.0,0.0188
1356.0,0.0187
1355.0,0.0187
1354.0,0.0186
1353.0,0.0185
1352.0,0.0184
1351.0,0.0183
1350.0,0.0182
1349.0,0.0181
1348.0,0.018
1347.0,0.018
1346.0,0.018
1345.0,0.018
1344.0,0.018
1343.0,0.018
1342.0,0.0181
1341.0,0.0183
1340.0,0.0184
1339.0,0.0185
1338.0,0.0185
1337.0,0.0185
1336.0,0.0185
1335.0,0.0184
1334.0,0.0183
1333.0,0.0181
1332.0,0.018
1331.0,0.0179
1330.0,0.0179
1329.0,0.0178
1328.0,0.0177
1327.0,0.0176
1326.0,0.0176
1325.0,0.0175
1324.0,0.0175
1323.0,0.0174
1322.0,0.0174
1321.0,0.0174
1320.0,0.0174
1319.0,0.0174
1318.0,0.0174
1317.0,0.0174
1316.0,0.0174
1315.0,0.0175
1314.0,0.0175
1313.0,0.0175
1312.0,0.0175
1311.0,0.0175
1310.0,0.0176
1309.0,0.0176
1308.0,0.0177
1307.0,0.0178
1306.0,0.0179
1305.0,0.0179
1304.0,0.018
1303.0,0.018
1302.0,0.0181
1301.0,0.0182
1300.0,0.0183
1299.0,0.0185
1298.0,0.0187
1297.0,0.0189
1296.0,0.0191
1295.0,0.0193
1294.0,0.0195
1293.0,0.0198
1292.0,0.0201
1291.0,0.0203
1290.0,0.0206
1289.0,0.0208
1288.0,0.021
1287.0,0.0213
1286.0,0.0216
1285.0,0.0218
1284.0,0.022
1283.0,0.0222
1282.0,0.0223
1281.0,0.0225
1280.0,0.0226
1279.0,0.0227
1278.0,0.0228
1277.0,0.023
1276.0,0.0231
1275.0,0.0232
1274.0,0.0233
1273.0,0.0235
1272.0,0.0237
1271.0,0.0239
1270.0,0.0241
1269.0,0.0244
1268.0,0.0247
1267.0,0.025
1266.0,0.0253
1265.0,0.0256
1264.0,0.0259
1263.0,0.0262
1262.0,0.0265
1261.0,0.0268
1260.0,0.027
1259.0,0.0272
1258.0,0.0274
1257.0,0.0276
1256.0,0.0277
1255.0,0.0278
1254.0,0.028
1253.0,0.0281
1252.0,0.0283
1251.0,0.0285
1250.0,0.0287
1249.0,0.029
1248.0,0.0292
1247.0,0.0295
1246.0,0.0298
1245.0,0.0301
1244.0,0.0303
1243.0,0.0305
1242.0,0.0307
1241.0,0.0309
1240.0,0.0311
1239.0,0.0314
1238.0,0.0316
1237.0,0.0318
1236.0,0.032
1235.0,0.0321
1234.0,0.0323
1233.0,0.0324
1232.0,0.0325
1231.0,0.0327
1230.0,0.0328
1229.0,0.0329
1228.0,0.033
1227.0,0.0331
1226.0,0.0332
1225.0,0.0332
1224.0,0.0333
1223.0,0.0334
1222.0,0.0335
1221.0,0.0336
1220.0,0.0337
1219.0,0.0338
1218.0,0.0338
1217.0,0.0339
1216.0,0.0339
1215.0,0.034
1214.0,0.0341
1213.0,0.0343
1212.0,0.0344
1211.0,0.0345
1210.0,0.0345
1209.0,0.0345
1208.0,0.0346
1207.0,0.0347
1206.0,0.0348
1205.0,0.035
1204.0,0.035
1203.0,0.0351
1202.0,0.0352
1201.0,0.0353
1200.0,0.0353
1199.0,0.0353
1198.0,0.0354
1197.0,0.0355
1196.0,0.0356
1195.0,0.0358
1194.0,0.0359
1193.0,0.036
1192.0,0.0361
1191.0,0.0362
1190.0,0.0364
1189.0,0.0365
1188.0,0.0365
1187.0,0.0366
1186.0,0.0367
1185.0,0.0368
1184.0,0.0369
1183.0,0.037
1182.0,0.0371
1181.0,0.0372
1180.0,0.0374
1179.0,0.0375
1178.0,0.0377
1177.0,0.0378
1176.0,0.038
1175.0,0.0382
1174.0,0.0384
1173.0,0.0385
1172.0,0.0387
1171.0,0.0388
1170.0,0.0389
1169.0,0.039
1168.0,0.0391
1167.0,0.0392
1166.0,0.0393
1165.0,0.0395
1164.0,0.0396
1163.0,0.0397
1162.0,0.0398
1161.0,0.0398
1160.0,0.0399
1159.0,0.04
1158.0,0.04
1157.0,0.0401
1156.0,0.0401
1155.0,0.0401
1154.0,0.0401
1153.0,0.0402
1152.0,0.0404
1151.0,0.0405
1150.0,0.0405
1149.0,0.0406
1148.0,0.0406
1147.0,0.0407
1146.0,0.0408
1145.0,0.0409
1144.0,0.041
1143.0,0.0412
1142.0,0.0414
1141.0,0.0416
1140.0,0.0419
1139.0,0.0421
1138.0,0.0423
1137.0,0.0425
1136.0,0.0427
1135.0,0.0428
1134.0,0.0429
1133.0,0.043
1132.0,0.0432
1131.0,0.0435
1130.0,0.0438
1129.0,0.0441
1128.0,0.0443
1127.0,0.0446
1126.0,0.0448
1125.0,0.045
1124.0,0.0452
1123.0,0.0454
1122.0,0.0457
1121.0,0.046
1120.0,0.0464
1119.0,0.0467
1118.0,0.047
1117.0,0.0472
1116.0,0.0473
1115.0,0.0474
1114.0,0.0474
1113.0,0.0475
1112.0,0.0476
1111.0,0.0477
1110.0,0.0477
1109.0,0.0477
1108.0,0.0478
1107.0,0.048
1106.0,0.0483
1105.0,0.0487
1104.0,0.049
1103.0,0.0494
1102.0,0.0498
1101.0,0.0502
1100.0,0.0506
1099.0,0.051
1098.0,0.0514
1097.0,0.0518
1096.0,0.0522
1095.0,0.0525
1094.0,0.0527
1093.0,0.0529
1092.0,0.053
1091.0,0.0532
1090.0,0.0533
1089.0,0.0534
1088.0,0.0536
1087.0,0.0537
1086.0,0.0538
1085.0,0.0539
1084.0,0.054
1083.0,0.0541
1082.0,0.0542
1081.0,0.0543
1080.0,0.0545
1079.0,0.0546
1078.0,0.0547
1077.0,0.0546
1076.0,0.0545
1075.0,0.0545
1074.0,0.0546
1073.0,0.0547
1072.0,0.0549
1071.0,0.0549
1070.0,0.0548
1069.0,0.0547
1068.0,0.0547
1067.0,0.0547
1066.0,0.0548
1065.0,0.0549
1064.0,0.055
1063.0,0.0551
1062.0,0.0551
1061.0,0.055
1060.0,0.055
1059.0,0.0549
1058.0,0.0548
1057.0,0.0547
1056.0,0.0547
1055.0,0.0547
1054.0,0.0547
1053.0,0.0548
1052.0,0.0549
1051.0,0.0549
1050.0,0.055
1049.0,0.0551
1048.0,0.0552
1047.0,0.0554
1046.0,0.0556
1045.0,0.0558
1044.0,0.056
1043.0,0.0562
1042.0,0.0564
1041.0,0.0565
1040.0,0.0567
1039.0,0.0568
1038.0,0.0569
1037.0,0.057
1036.0,0.0571
1035.0,0.0572
1034.0,0.0574
1033.0,0.0575
1032.0,0.0576
1031.0,0.0576
1030.0,0.0576
1029.0,0.0576
1028.0,0.0576
1027.0,0.0577
1026.0,0.0577
1025.0,0.0577
1024.0,0.0577
1023.0,0.0576
1022.0,0.0576
1021.0,0.0578
1020.0,0.0581
1019.0,0.0586
1018.0,0.0593
1017.0,0.0599
1016.0,0.0605
1015.0,0.061
1014.0,0.0613
1013.0,0.0615
1012.0,0.0616
1011.0,0.0616
1010.0,0.0617
1009.0,0.0617
1008.0,0.0618
1007.0,0.0619
1006.0,0.0619
1005.0,0.0619
1004.0,0.0619
1003.0,0.0619
1002.0,0.0619
1001.0,0.0619
1000.0,0.0619
999.0,0.0619
998.0,0.0619
997.0,0.0619
996.0,0.062
995.0,0.0621
994.0,0.0621
993.0,0.062
992.0,0.0619
991.0,0.0618
990.0,0.0618
989.0,0.0619
988.0,0.0619
987.0,0.062
986.0,0.0619
985.0,0.0619
984.0,0.0618
983.0,0.0618
982.0,0.0617
981.0,0.0617
980.0,0.0617
979.0,0.0616
978.0,0.0615
977.0,0.0614
976.0,0.0613
975.0,0.0612
974.0,0.0611
973.0,0.0611
972.0,0.0611
971.0,0.0612
970.0,0.0613
969.0,0.0615
968.0,0.0616
967.0,0.0616
966.0,0.0615
965.0,0.0614
964.0,0.0613
963.0,0.0611
962.0,0.061
961.0,0.0609
960.0,0.0609
959.0,0.0608
958.0,0.0607
957.0,0.0606
956.0,0.0606
955.0,0.0606
954.0,0.0605
953.0,0.0605
952.0,0.0606
951.0,0.0606
950.0,0.0605
949.0,0.0605
948.0,0.0603
947.0,0.0602
946.0,0.06
945.0,0.0598
944.0,0.0598
943.0,0.0597
942.0,0.0596
941.0,0.0596
940.0,0.0595
939.0,0.0595
938.0,0.0594
937.0,0.0594
936.0,0.0594
935.0,0.0594
934.0,0.0594
933.0,0.0592
932.0,0.0589
931.0,0.0587
930.0,0.0585
929.0,0.0584
928.0,0.0583
927.0,0.0582
926.0,0.0582
925.0,0.0581
924.0,0.058
923.0,0.0579
922.0,0.0578
921.0,0.0577
920.0,0.0576
919.0,0.0576
918.0,0.0576
917.0,0.0575
916.0,0.0574
915.0,0.0573
914.0,0.0571
913.0,0.057
912.0,0.0569
911.0,0.0568
910.0,0.0567
909.0,0.0566
908.0,0.0566
907.0,0.0565
906.0,0.0564
905.0,0.0563
904.0,0.0562
903.0,0.0561
902.0,0.0561
901.0,0.056
900.0,0.056
899.0,0.056
898.0,0.056
897.0,0.0561
896.0,0.0561
895.0,0.0561
894.0,0.056
893.0,0.056
892.0,0.056
891.0,0.0559
890.0,0.0558
889.0,0.0556
888.0,0.0555
887.0,0.0554
886.0,0.0552
885.0,0.0551
884.0,0.0551
883.0,0.0551
882.0,0.0552
881.0,0.0552
880.0,0.0552
879.0,0.0553
878.0,0.0553
877.0,0.0555
876.0,0.0557
875.0,0.056
874.0,0.0563
873.0,0.0566
872.0,0.0567
871.0,0.0567
870.0,0.0566
869.0,0.0566
868.0,0.0566
867.0,0.0565
866.0,0.0565
865.0,0.0564
864.0,0.0563
863.0,0.0561
862.0,0.0559
861.0,0.0557
860.0,0.0555
859.0,0.0553
858.0,0.0551
857.0,0.0549
856.0,0.0547
855.0,0.0545
854.0,0.0544
853.0,0.0544
852.0,0.0544
851.0,0.0544
850.0,0.0543
849.0,0.0542
848.0,0.0541
847.0,0.054
846.0,0.0538
845.0,0.0537
844.0,0.0536
843.0,0.0536
842.0,0.0537
841.0,0.0537
840.0,0.0536
839.0,0.0535
838.0,0.0534
837.0,0.0533
836.0,0.0532
835.0,0.053
834.0,0.0528
833.0,0.0528
832.0,0.0528
831.0,0.0526
830.0,0.0525
829.0,0.0524
828.0,0.0522
827.0,0.052
826.0,0.0518
825.0,0.0516
824.0,0.0516
823.0,0.0516
822.0,0.0516
821.0,0.0516
820.0,0.0514
819.0,0.0512
818.0,0.0511
817.0,0.0511
816.0,0.0512
815.0,0.0512
814.0,0.0512
813.0,0.051
812.0,0.0506
811.0,0.0503
810.0,0.05
809.0,0.0498
808.0,0.0498
807.0,0.0498
806.0,0.0498
805.0,0.0497
804.0,0.0496
803.0,0.0495
802.0,0.0494
801.0,0.0491
800.0,0.0488
799.0,0.0485
798.0,0.0484
797.0,0.0485
796.0,0.0486
795.0,0.0487
794.0,0.0488
793.0,0.0488
792.0,0.0488
791.0,0.0487
790.0,0.0486
789.0,0.0485
788.0,0.0485
787.0,0.0486
786.0,0.0487
785.0,0.0486
784.0,0.0485
783.0,0.0482
782.0,0.0478
781.0,0.0476
780.0,0.0475
779.0,0.0475
778.0,0.0475
777.0,0.0476
776.0,0.0475
775.0,0.0473
774.0,0.0471
773.0,0.047
772.0,0.0469
771.0,0.0469
770.0,0.0468
769.0,0.0467
768.0,0.0465
767.0,0.0463
766.0,0.0461
765.0,0.0459
764.0,0.0459
763.0,0.0458
762.0,0.0457
761.0,0.0455
760.0,0.0453
759.0,0.0452
758.0,0.0451
757.0,0.0451
756.0,0.045
755.0,0.0448
754.0,0.0445
753.0,0.0442
752.0,0.044
751.0,0.0439
750.0,0.0437
749.0,0.0435
748.0,0.0432
747.0,0.0429
746.0,0.0425
745.0,0.0421
744.0,0.0418
743.0,0.0414
742.0,0.0411
741.0,0.041
740.0,0.0413
739.0,0.0418
738.0,0.0427
737.0,0.0437
736.0,0.0447
735.0,0.0455
734.0,0.0464
733.0,0.0477
732.0,0.0493
731.0,0.0511
730.0,0.0528
729.0,0.0544
728.0,0.0559
727.0,0.0574
726.0,0.0589
725.0,0.0603
724.0,0.0615
723.0,0.0621
722.0,0.0621
721.0,0.0618
720.0,0.0617
719.0,0.0619
718.0,0.0621
717.0,0.0621
716.0,0.0619
715.0,0.0616
714.0,0.0613
713.0,0.0613
712.0,0.0614
711.0,0.0616
710.0,0.0616
709.0,0.0616
708.0,0.0618
707.0,0.0622
706.0,0.0628
705.0,0.0636
704.0,0.0642
703.0,0.0646
702.0,0.0647
701.0,0.0647
700.0,0.0648
699.0,0.0649
698.0,0.0652
697.0,0.0657
696.0,0.0665
695.0,0.0676
694.0,0.0691
693.0,0.0706
692.0,0.0719
691.0,0.0729
690.0,0.0736
689.0,0.0744
688.0,0.0754
687.0,0.0766
686.0,0.0778
685.0,0.079
684.0,0.0803
683.0,0.0818
682.0,0.0835
681.0,0.0852
680.0,0.0869
679.0,0.0888
678.0,0.0908
677.0,0.0929
676.0,0.0947
675.0,0.0961
674.0,0.0975
673.0,0.0991
672.0,0.1009
671.0,0.1033
670.0,0.1065
669.0,0.1122
668.0,0.1187
667.0,0.1206
666.0,0.1188
665.0,0.1173
664.0,0.1175
663.0,0.1191
662.0,0.1213
661.0,0.1236
660.0,0.1259
659.0,0.1277
658.0,0.1293
657.0,0.1311
656.0,0.1333
655.0,0.1353
654.0,0.1374
653.0,0.1401
652.0,0.1434
651.0,0.1468
650.0,0.1499
649.0,0.1532
648.0,0.1564
647.0,0.159
646.0,0.1612
645.0,0.1643
644.0,0.1686
643.0,0.1729
642.0,0.1762
641.0,0.1789
640.0,0.182
639.0,0.1855
638.0,0.1897
637.0,0.195
636.0,0.2011
635.0,0.2063
634.0,0.2096
633.0,0.2116
632.0,0.2135
631.0,0.2153
630.0,0.217
629.0,0.2191
628.0,0.2215
627.0,0.2231
626.0,0.2238
625.0,0.2247
624.0,0.2265
623.0,0.2284
622.0,0.2296
621.0,0.2308
620.0,0.2325
619.0,0.2338
618.0,0.2338
617.0,0.2334
616.0,0.2337
615.0,0.2346
614.0,0.2357
613.0,0.2371
612.0,0.2382
611.0,0.2377
610.0,0.2359
609.0,0.2347
608.0,0.235
607.0,0.2353
606.0,0.2344
605.0,0.2331
604.0,0.2323
603.0,0.2309
602.0,0.2279
601.0,0.2247
600.0,0.2228
