cm-1,A
4000.0,0.008
3999.0,0.008
3998.0,0.0081
3997.0,0.0081
3996.0,0.0082
3995.0,0.0082
3994.0,0.0082
3993.0,0.0083
3992.0,0.0082
3991.0,0.0081
3990.0,0.008
3989.0,0.0079
3988.0,0.0079
3987.0,0.008
3986.0,0.0081
3985.0,0.0082
3984.0,0.0082
3983.0,0.0082
3982.0,0.0082
3981.0,0.0082
3980.0,0.0082
3979.0,0.0082
3978.0,0.0083
3977.0,0.0084
3976.0,0.0085
3975.0,0.0085
3974.0,0.0085
3973.0,0.0084
3972.0,0.0083
3971.0,0.0082
3970.0,0.0081
3969.0,0.0082
3968.0,0.0082
3967.0,0.0084
3966.0,0.0085
3965.0,0.0085
3964.0,0.0085
3963.0,0.0085
3962.0,0.0084
3961.0,0.0084
3960.0,0.0083
3959.0,0.0084
3958.0,0.0084
3957.0,0.0084
3956.0,0.0085
3955.0,0.0086
3954.0,0.0087
3953.0,0.0087
3952.0,0.0086
3951.0,0.0085
3950.0,0.0084
3949.0,0.0083
3948.0,0.0083
3947.0,0.0084
3946.0,0.0085
3945.0,0.0086
3944.0,0.0086
3943.0,0.0086
3942.0,0.0087
3941.0,0.0086
3940.0,0.0086
3939.0,0.0086
3938.0,0.0086
3937.0,0.0085
3936.0,0.0085
3935.0,0.0085
3934.0,0.0085
3933.0,0.0085
3932.0,0.0086
3931.0,0.0087
3930.0,0.0088
3929.0,0.0089
3928.0,0.0089
3927.0,0.0089
3926.0,0.0088
3925.0,0.0087
3924.0,0.0087
3923.0,0.0086
3922.0,0.0085
3921.0,0.0083
3920.0,0.0082
3919.0,0.0082
3918.0,0.0083
3917.0,0.0085
3916.0,0.0086
3915.0,0.0086
3914.0,0.0086
3913.0,0.0086
3912.0,0.0086
3911.0,0.0087
3910.0,0.0088
3909.0,0.0088
3908.0,0.0088
3907.0,0.0088
3906.0,0.0086
3905.0,0.0085
3904.0,0.0084
3903.0,0.0085
3902.0,0.0086
3901.0,0.0086
3900.0,0.0087
3899.0,0.0088
3898.0,0.0089
3897.0,0.0089
3896.0,0.009
3895.0,0.009
3894.0,0.009
3893.0,0.009
3892.0,0.009
3891.0,0.0089
3890.0,0.0089
3889.0,0.0089
3888.0,0.0089
3887.0,0.0088
3886.0,0.0088
3885.0,0.0089
3884.0,0.009
3883.0,0.0091
3882.0,0.0091
3881.0,0.009
3880.0,0.009
3879.0,0.0089
3878.0,0.0089
3877.0,0.0089
3876.0,0.0089
3875.0,0.0089
3874.0,0.009
3873.0,0.0091
3872.0,0.0092
3871.0,0.0091
3870.0,0.009
3869.0,0.009
3868.0,0.0089
3867.0,0.0089
3866.0,0.0087
3865.0,0.0086
3864.0,0.0086
3863.0,0.0088
3862.0,0.009
3861.0,0.0091
3860.0,0.0091
3859.0,0.0091
3858.0,0.0091
3857.0,0.0091
3856.0,0.009
3855.0,0.0089
3854.0,0.0091
3853.0,0.0093
3852.0,0.0094
3851.0,0.0092
3850.0,0.009
3849.0,0.0088
3848.0,0.0087
3847.0,0.0087
3846.0,0.0088
3845.0,0.0089
3844.0,0.0091
3843.0,0.0092
3842.0,0.0093
3841.0,0.0094
3840.0,0.0094
3839.0,0.0095
3838.0,0.0095
3837.0,0.0095
3836.0,0.0095
3835.0,0.0094
3834.0,0.0094
3833.0,0.0093
3832.0,0.0093
3831.0,0.0092
3830.0,0.0092
3829.0,0.0092
3828.0,0.0091
3827.0,0.0091
3826.0,0.0091
3825.0,0.0091
3824.0,0.0091
3823.0,0.009
3822.0,0.009
3821.0,0.0091
3820.0,0.0093
3819.0,0.0094
3818.0,0.0096
3817.0,0.0096
3816.0,0.0096
3815.0,0.0096
3814.0,0.0095
3813.0,0.0094
3812.0,0.0093
3811.0,0.0092
3810.0,0.0093
3809.0,0.0093
3808.0,0.0093
3807.0,0.0093
3806.0,0.0095
3805.0,0.0096
3804.0,0.0097
3803.0,0.0096
3802.0,0.0096
3801.0,0.0095
3800.0,0.0094
3799.0,0.0094
3798.0,0.0093
3797.0,0.0093
3796.0,0.0093
3795.0,0.0093
3794.0,0.0093
3793.0,0.0093
3792.0,0.0092
3791.0,0.0092
3790.0,0.0092
3789.0,0.0092
3788.0,0.0092
3787.0,0.0093
3786.0,0.0093
3785.0,0.0094
3784.0,0.0094
3783.0,0.0094
3782.0,0.0094
3781.0,0.0093
3780.0,0.0093
3779.0,0.0094
3778.0,0.0094
3777.0,0.0093
3776.0,0.0092
3775.0,0.0092
3774.0,0.0092
3773.0,0.0093
3772.0,0.0093
3771.0,0.0093
3770.0,0.0093
3769.0,0.0093
3768.0,0.0093
3767.0,0.0093
3766.0,0.0092
3765.0,0.0092
3764.0,0.0092
3763.0,0.0093
3762.0,0.0094
3761.0,0.0094
3760.0,0.0094
3759.0,0.0095
3758.0,0.0097
3757.0,0.0098
3756.0,0.0099
3755.0,0.0101
3754.0,0.0102
3753.0,0.0101
3752.0,0.01
3751.0,0.01
3750.0,0.0099
3749.0,0.0097
3748.0,0.0097
3747.0,0.0097
3746.0,0.0097
3745.0,0.0096
3744.0,0.0095
3743.0,0.0094
3742.0,0.0093
3741.0,0.0093
3740.0,0.0094
3739.0,0.0094
3738.0,0.0095
3737.0,0.0095
3736.0,0.0095
3735.0,0.0094
3734.0,0.0093
3733.0,0.0092
3732.0,0.0092
3731.0,0.0092
3730.0,0.0093
3729.0,0.0093
3728.0,0.0092
3727.0,0.0092
3726.0,0.0092
3725.0,0.0093
3724.0,0.0094
3723.0,0.0094
3722.0,0.0095
3721.0,0.0096
3720.0,0.0096
3719.0,0.0096
3718.0,0.0096
3717.0,0.0096
3716.0,0.0097
3715.0,0.0098
3714.0,0.0098
3713.0,0.0097
3712.0,0.0096
3711.0,0.0096
3710.0,0.0096
3709.0,0.0095
3708.0,0.0094
3707.0,0.0094
3706.0,0.0093
3705.0,0.0093
3704.0,0.0093
3703.0,0.0093
3702.0,0.0094
3701.0,0.0094
3700.0,0.0094
3699.0,0.0095
3698.0,0.0095
3697.0,0.0096
3696.0,0.0097
3695.0,0.0098
3694.0,0.0099
3693.0,0.01
3692.0,0.0101
3691.0,0.0101
3690.0,0.0103
3689.0,0.0104
3688.0,0.0103
3687.0,0.0102
3686.0,0.0101
3685.0,0.0099
3684.0,0.0099
3683.0,0.0098
3682.0,0.0099
3681.0,0.01
3680.0,0.0102
3679.0,0.0103
3678.0,0.0104
3677.0,0.0104
3676.0,0.0104
3675.0,0.0105
3674.0,0.0106
3673.0,0.0106
3672.0,0.0104
3671.0,0.0102
3670.0,0.01
3669.0,0.0099
3668.0,0.0099
3667.0,0.0099
3666.0,0.0099
3665.0,0.0099
3664.0,0.0099
3663.0,0.0101
3662.0,0.0102
3661.0,0.0104
3660.0,0.0105
3659.0,0.0106
3658.0,0.0105
3657.0,0.0103
3656.0,0.0102
3655.0,0.0102
3654.0,0.0103
3653.0,0.0104
3652.0,0.0104
3651.0,0.0102
3650.0,0.0101
3649.0,0.0102
3648.0,0.0104
3647.0,0.0105
3646.0,0.0106
3645.0,0.0106
3644.0,0.0105
3643.0,0.0105
3642.0,0.0104
3641.0,0.0104
3640.0,0.0104
3639.0,0.0103
3638.0,0.0103
3637.0,0.0104
3636.0,0.0104
3635.0,0.0104
3634.0,0.0104
3633.0,0.0104
3632.0,0.0105
3631.0,0.0106
3630.0,0.0107
3629.0,0.0109
3628.0,0.0109
3627.0,0.0108
3626.0,0.0107
3625.0,0.0107
3624.0,0.0107
3623.0,0.0107
3622.0,0.0108
3621.0,0.0108
3620.0,0.0108
3619.0,0.0109
3618.0,0.011
3617.0,0.0111
3616.0,0.0112
3615.0,0.0112
3614.0,0.0111
3613.0,0.0111
3612.0,0.011
3611.0,0.011
3610.0,0.011
3609.0,0.0111
3608.0,0.0112
3607.0,0.0112
3606.0,0.0112
3605.0,0.0111
3604.0,0.0111
3603.0,0.0111
3602.0,0.0111
3601.0,0.0112
3600.0,0.0112
3599.0,0.0112
3598.0,0.0112
3597.0,0.0112
3596.0,0.0112
3595.0,0.0113
3594.0,0.0113
3593.0,0.0113
3592.0,0.0112
3591.0,0.0112
3590.0,0.0112
3589.0,0.0111
3588.0,0.0112
3587.0,0.0112
3586.0,0.0112
3585.0,0.0113
3584.0,0.0113
3583.0,0.0114
3582.0,0.0114
3581.0,0.0115
3580.0,0.0116
3579.0,0.0116
3578.0,0.0116
3577.0,0.0117
3576.0,0.0117
3575.0,0.0117
3574.0,0.0118
3573.0,0.0119
3572.0,0.0119
3571.0,0.012
3570.0,0.0121
3569.0,0.0122
3568.0,0.0123
3567.0,0.0124
3566.0,0.0124
3565.0,0.0124
3564.0,0.0125
3563.0,0.0125
3562.0,0.0125
3561.0,0.0124
3560.0,0.0123
3559.0,0.0122
3558.0,0.0121
3557.0,0.0121
3556.0,0.0121
3555.0,0.0121
3554.0,0.0122
3553.0,0.0122
3552.0,0.0123
3551.0,0.0124
3550.0,0.0125
3549.0,0.0125
3548.0,0.0125
3547.0,0.0126
3546.0,0.0127
3545.0,0.0127
3544.0,0.0127
3543.0,0.0126
3542.0,0.0126
3541.0,0.0126
3540.0,0.0126
3539.0,0.0126
3538.0,0.0126
3537.0,0.0126
3536.0,0.0126
3535.0,0.0127
3534.0,0.0127
3533.0,0.0127
3532.0,0.0127
3531.0,0.0127
3530.0,0.0128
3529.0,0.0129
3528.0,0.013
3527.0,0.0131
3526.0,0.0132
3525.0,0.0132
3524.0,0.0133
3523.0,0.0133
3522.0,0.0133
3521.0,0.0133
3520.0,0.0132
3519.0,0.0131
3518.0,0.0131
3517.0,0.013
3516.0,0.013
3515.0,0.013
3514.0,0.013
3513.0,0.0131
3512.0,0.0132
3511.0,0.0133
3510.0,0.0133
3509.0,0.0134
3508.0,0.0134
3507.0,0.0134
3506.0,0.0133
3505.0,0.0132
3504.0,0.0132
3503.0,0.0132
3502.0,0.0133
3501.0,0.0133
3500.0,0.0133
3499.0,0.0132
3498.0,0.0132
3497.0,0.0132
3496.0,0.0132
3495.0,0.0133
3494.0,0.0133
3493.0,0.0133
3492.0,0.0134
3491.0,0.0135
3490.0,0.0136
3489.0,0.0136
3488.0,0.0136
3487.0,0.0136
3486.0,0.0137
3485.0,0.0137
3484.0,0.0137
3483.0,0.0137
3482.0,0.0136
3481.0,0.0136
3480.0,0.0136
3479.0,0.0137
3478.0,0.0137
3477.0,0.0137
3476.0,0.0138
3475.0,0.0138
3474.0,0.0138
3473.0,0.0138
3472.0,0.0138
3471.0,0.0139
3470.0,0.0139
3469.0,0.0139
3468.0,0.0138
3467.0,0.0137
3466.0,0.0137
3465.0,0.0137
3464.0,0.0138
3463.0,0.0139
3462.0,0.014
3461.0,0.0141
3460.0,0.0142
3459.0,0.0142
3458.0,0.0141
3457.0,0.014
3456.0,0.014
3455.0,0.014
3454.0,0.0141
3453.0,0.0141
3452.0,0.0141
3451.0,0.0141
3450.0,0.0141
3449.0,0.0142
3448.0,0.0143
3447.0,0.0145
3446.0,0.0146
3445.0,0.0147
3444.0,0.0147
3443.0,0.0146
3442.0,0.0146
3441.0,0.0146
3440.0,0.0147
3439.0,0.0148
3438.0,0.0149
3437.0,0.0151
3436.0,0.0151
3435.0,0.0151
3434.0,0.0151
3433.0,0.015
3432.0,0.015
3431.0,0.015
3430.0,0.015
3429.0,0.015
3428.0,0.015
3427.0,0.015
3426.0,0.015
3425.0,0.0149
3424.0,0.015
3423.0,0.015
3422.0,0.015
3421.0,0.015
3420.0,0.015
3419.0,0.015
3418.0,0.015
3417.0,0.015
3416.0,0.0149
3415.0,0.0148
3414.0,0.0148
3413.0,0.0148
3412.0,0.0148
3411.0,0.0149
3410.0,0.0149
3409.0,0.0149
3408.0,0.0149
3407.0,0.0148
3406.0,0.0147
3405.0,0.0147
3404.0,0.0146
3403.0,0.0146
3402.0,0.0146
3401.0,0.0145
3400.0,0.0145
3399.0,0.0146
3398.0,0.0147
3397.0,0.0147
3396.0,0.0147
3395.0,0.0147
3394.0,0.0147
3393.0,0.0148
3392.0,0.0148
3391.0,0.0147
3390.0,0.0146
3389.0,0.0145
3388.0,0.0145
3387.0,0.0145
3386.0,0.0146
3385.0,0.0146
3384.0,0.0146
3383.0,0.0146
3382.0,0.0147
3381.0,0.0148
3380.0,0.0149
3379.0,0.015
3378.0,0.0151
3377.0,0.015
3376.0,0.0149
3375.0,0.0148
3374.0,0.0148
3373.0,0.0147
3372.0,0.0147
3371.0,0.0147
3370.0,0.0146
3369.0,0.0146
3368.0,0.0146
3367.0,0.0147
3366.0,0.0148
3365.0,0.0149
3364.0,0.0149
3363.0,0.0148
3362.0,0.0148
3361.0,0.0148
3360.0,0.0148
3359.0,0.0148
3358.0,0.0147
3357.0,0.0147
3356.0,0.0147
3355.0,0.0148
3354.0,0.0149
3353.0,0.015
3352.0,0.0149
3351.0,0.0149
3350.0,0.0149
3349.0,0.0149
3348.0,0.015
3347.0,0.015
3346.0,0.015
3345.0,0.0149
3344.0,0.0149
3343.0,0.0148
3342.0,0.0148
3341.0,0.0148
3340.0,0.0148
3339.0,0.0148
3338.0,0.0148
3337.0,0.0148
3336.0,0.0148
3335.0,0.0147
3334.0,0.0146
3333.0,0.0146
3332.0,0.0146
3331.0,0.0146
3330.0,0.0147
3329.0,0.0147
3328.0,0.0147
3327.0,0.0147
3326.0,0.0146
3325.0,0.0146
3324.0,0.0146
3323.0,0.0146
3322.0,0.0146
3321.0,0.0146
3320.0,0.0147
3319.0,0.0148
3318.0,0.0148
3317.0,0.0149
3316.0,0.0149
3315.0,0.0148
3314.0,0.0146
3313.0,0.0145
3312.0,0.0145
3311.0,0.0145
3310.0,0.0145
3309.0,0.0146
3308.0,0.0146
3307.0,0.0146
3306.0,0.0146
3305.0,0.0146
3304.0,0.0146
3303.0,0.0147
3302.0,0.0147
3301.0,0.0147
3300.0,0.0146
3299.0,0.0146
3298.0,0.0146
3297.0,0.0146
3296.0,0.0146
3295.0,0.0147
3294.0,0.0148
3293.0,0.0148
3292.0,0.0148
3291.0,0.0147
3290.0,0.0146
3289.0,0.0145
3288.0,0.0145
3287.0,0.0145
3286.0,0.0145
3285.0,0.0146
3284.0,0.0146
3283.0,0.0146
3282.0,0.0146
3281.0,0.0145
3280.0,0.0144
3279.0,0.0143
3278.0,0.0143
3277.0,0.0144
3276.0,0.0145
3275.0,0.0145
3274.0,0.0144
3273.0,0.0144
3272.0,0.0143
3271.0,0.0143
3270.0,0.0143
3269.0,0.0142
3268.0,0.0142
3267.0,0.0141
3266.0,0.014
3265.0,0.014
3264.0,0.0139
3263.0,0.0139
3262.0,0.014
3261.0,0.0141
3260.0,0.0141
3259.0,0.014
3258.0,0.014
3257.0,0.014
3256.0,0.014
3255.0,0.0139
3254.0,0.0138
3253.0,0.0137
3252.0,0.0137
3251.0,0.0138
3250.0,0.0139
3249.0,0.014
3248.0,0.014
3247.0,0.0139
3246.0,0.0139
3245.0,0.0139
3244.0,0.0139
3243.0,0.014
3242.0,0.014
3241.0,0.0139
3240.0,0.0139
3239.0,0.0139
3238.0,0.0139
3237.0,0.014
3236.0,0.014
3235.0,0.014
3234.0,0.0139
3233.0,0.0139
3232.0,0.0138
3231.0,0.0138
3230.0,0.0137
3229.0,0.0137
3228.0,0.0137
3227.0,0.0138
3226.0,0.0138
3225.0,0.0138
3224.0,0.0137
3223.0,0.0137
3222.0,0.0137
3221.0,0.0136
3220.0,0.0136
3219.0,0.0136
3218.0,0.0136
3217.0,0.0136
3216.0,0.0136
3215.0,0.0135
3214.0,0.0134
3213.0,0.0133
3212.0,0.0132
3211.0,0.0133
3210.0,0.0134
3209.0,0.0135
3208.0,0.0135
3207.0,0.0134
3206.0,0.0133
3205.0,0.0132
3204.0,0.0132
3203.0,0.0133
3202.0,0.0135
3201.0,0.0136
3200.0,0.0136
3199.0,0.0136
3198.0,0.0136
3197.0,0.0136
3196.0,0.0135
3195.0,0.0135
3194.0,0.0135
3193.0,0.0135
3192.0,0.0134
3191.0,0.0134
3190.0,0.0133
3189.0,0.0132
3188.0,0.0132
3187.0,0.0133
3186.0,0.0134
3185.0,0.0135
3184.0,0.0135
3183.0,0.0134
3182.0,0.0133
3181.0,0.0132
3180.0,0.0131
3179.0,0.0131
3178.0,0.0131
3177.0,0.0131
3176.0,0.0131
3175.0,0.0131
3174.0,0.0131
3173.0,0.0131
3172.0,0.0131
3171.0,0.0131
3170.0,0.0132
3169.0,0.0132
3168.0,0.0131
3167.0,0.0131
3166.0,0.0131
3165.0,0.013
3164.0,0.0129
3163.0,0.0128
3162.0,0.0128
3161.0,0.0129
3160.0,0.0129
3159.0,0.013
3158.0,0.0129
3157.0,0.0129
3156.0,0.0128
3155.0,0.0128
3154.0,0.0128
3153.0,0.0128
3152.0,0.0128
3151.0,0.0128
3150.0,0.0127
3149.0,0.0127
3148.0,0.0128
3147.0,0.0128
3146.0,0.0128
3145.0,0.0128
3144.0,0.0128
3143.0,0.0128
3142.0,0.0128
3141.0,0.0127
3140.0,0.0127
3139.0,0.0126
3138.0,0.0125
3137.0,0.0125
3136.0,0.0126
3135.0,0.0126
3134.0,0.0128
3133.0,0.0128
3132.0,0.0128
3131.0,0.0127
3130.0,0.0126
3129.0,0.0125
3128.0,0.0126
3127.0,0.0126
3126.0,0.0127
3125.0,0.0127
3124.0,0.0127
3123.0,0.0127
3122.0,0.0126
3121.0,0.0126
3120.0,0.0125
3119.0,0.0125
3118.0,0.0124
3117.0,0.0124
3116.0,0.0125
3115.0,0.0126
3114.0,0.0127
3113.0,0.0127
3112.0,0.0128
3111.0,0.0128
3110.0,0.0128
3109.0,0.0129
3108.0,0.0129
3107.0,0.013
3106.0,0.0129
3105.0,0.0129
3104.0,0.0128
3103.0,0.0127
3102.0,0.0127
3101.0,0.0127
3100.0,0.0128
3099.0,0.0129
3098.0,0.0129
3097.0,0.0129
3096.0,0.0128
3095.0,0.0128
3094.0,0.0127
3093.0,0.0127
3092.0,0.0126
3091.0,0.0126
3090.0,0.0126
3089.0,0.0127
3088.0,0.0128
3087.0,0.0129
3086.0,0.013
3085.0,0.013
3084.0,0.013
3083.0,0.013
3082.0,0.013
3081.0,0.0131
3080.0,0.0133
3079.0,0.0133
3078.0,0.0134
3077.0,0.0133
3076.0,0.0132
3075.0,0.0131
3074.0,0.013
3073.0,0.0129
3072.0,0.0129
3071.0,0.0129
3070.0,0.013
3069.0,0.0132
3068.0,0.0133
3067.0,0.0133
3066.0,0.0133
3065.0,0.0132
3064.0,0.0132
3063.0,0.0132
3062.0,0.0131
3061.0,0.013
3060.0,0.013
3059.0,0.013
3058.0,0.0129
3057.0,0.0129
3056.0,0.0129
3055.0,0.0129
3054.0,0.013
3053.0,0.013
3052.0,0.0131
3051.0,0.0131
3050.0,0.013
3049.0,0.0128
3048.0,0.0128
3047.0,0.0127
3046.0,0.0127
3045.0,0.0127
3044.0,0.0126
3043.0,0.0125
3042.0,0.0125
3041.0,0.0124
3040.0,0.0125
3039.0,0.0125
3038.0,0.0125
3037.0,0.0125
3036.0,0.0125
3035.0,0.0125
3034.0,0.0125
3033.0,0.0124
3032.0,0.0124
3031.0,0.0124
3030.0,0.0125
3029.0,0.0125
3028.0,0.0126
3027.0,0.0126
3026.0,0.0126
3025.0,0.0126
3024.0,0.0127
3023.0,0.0127
3022.0,0.0128
3021.0,0.013
3020.0,0.0131
3019.0,0.0133
3018.0,0.0135
3017.0,0.0137
3016.0,0.0139
3015.0,0.0142
3014.0,0.0145
3013.0,0.0148
3012.0,0.015
3011.0,0.0152
3010.0,0.0154
3009.0,0.0155
3008.0,0.0156
3007.0,0.0158
3006.0,0.0158
3005.0,0.0159
3004.0,0.016
3003.0,0.0161
3002.0,0.0161
3001.0,0.0161
3000.0,0.016
2999.0,0.016
2998.0,0.0159
2997.0,0.0159
2996.0,0.0159
2995.0,0.0159
2994.0,0.016
2993.0,0.0161
2992.0,0.0163
2991.0,0.0164
2990.0,0.0166
2989.0,0.0167
2988.0,0.017
2987.0,0.0172
2986.0,0.0175
2985.0,0.0178
2984.0,0.0181
2983.0,0.0184
2982.0,0.0188
2981.0,0.0193
2980.0,0.0198
2979.0,0.0204
2978.0,0.021
2977.0,0.0216
2976.0,0.0223
2975.0,0.023
2974.0,0.0238
2973.0,0.0246
2972.0,0.0256
2971.0,0.0267
2970.0,0.0278
2969.0,0.0289
2968.0,0.03
2967.0,0.0311
2966.0,0.0322
2965.0,0.0333
2964.0,0.0344
2963.0,0.0354
2962.0,0.0364
2961.0,0.0374
2960.0,0.0382
2959.0,0.0389
2958.0,0.0395
2957.0,0.0398
2956.0,0.04
2955.0,0.0401
2954.0,0.04
2953.0,0.0398
2952.0,0.0396
2951.0,0.0394
2950.0,0.0392
2949.0,0.0391
2948.0,0.0392
2947.0,0.0394
2946.0,0.0398
2945.0,0.0405
2944.0,0.0413
2943.0,0.0424
2942.0,0.0437
2941.0,0.0453
2940.0,0.0471
2939.0,0.049
2938.0,0.0512
2937.0,0.0534
2936.0,0.0559
2935.0,0.0584
2934.0,0.0611
2933.0,0.0637
2932.0,0.0665
2931.0,0.0692
2930.0,0.0719
2929.0,0.0745
2928.0,0.0769
2927.0,0.0791
2926.0,0.0808
2925.0,0.0822
2924.0,0.0831
2923.0,0.0833
2922.0,0.083
2921.0,0.082
2920.0,0.0805
2919.0,0.0786
2918.0,0.0763
2917.0,0.0738
2916.0,0.0712
2915.0,0.0686
2914.0,0.066
2913.0,0.0635
2912.0,0.0613
2911.0,0.0593
2910.0,0.0576
2909.0,0.0559
2908.0,0.0544
2907.0,0.053
2906.0,0.0518
2905.0,0.0506
2904.0,0.0494
2903.0,0.0483
2902.0,0.0472
2901.0,0.0462
2900.0,0.0453
2899.0,0.0444
2898.0,0.0436
2897.0,0.0427
2896.0,0.0418
2895.0,0.0409
2894.0,0.0401
2893.0,0.0393
2892.0,0.0386
2891.0,0.0378
2890.0,0.0371
2889.0,0.0363
2888.0,0.0356
2887.0,0.0349
2886.0,0.0343
2885.0,0.0337
2884.0,0.0332
2883.0,0.0328
2882.0,0.0326
2881.0,0.0324
2880.0,0.0323
2879.0,0.0324
2878.0,0.0325
2877.0,0.0329
2876.0,0.0334
2875.0,0.034
2874.0,0.0345
2873.0,0.035
2872.0,0.0353
2871.0,0.0356
2870.0,0.0357
2869.0,0.0359
2868.0,0.0362
2867.0,0.0367
2866.0,0.0375
2865.0,0.0385
2864.0,0.0399
2863.0,0.0417
2862.0,0.0437
2861.0,0.046
2860.0,0.0486
2859.0,0.0513
2858.0,0.054
2857.0,0.0566
2856.0,0.0587
2855.0,0.0602
2854.0,0.061
2853.0,0.061
2852.0,0.0602
2851.0,0.0585
2850.0,0.0562
2849.0,0.0534
2848.0,0.0503
2847.0,0.0471
2846.0,0.0439
2845.0,0.041
2844.0,0.0382
2843.0,0.0358
2842.0,0.0336
2841.0,0.0318
2840.0,0.0303
2839.0,0.029
2838.0,0.0278
2837.0,0.0268
2836.0,0.0259
2835.0,0.0252
2834.0,0.0245
2833.0,0.0239
2832.0,0.0233
2831.0,0.0228
2830.0,0.0224
2829.0,0.022
2828.0,0.0216
2827.0,0.0212
2826.0,0.0208
2825.0,0.0205
2824.0,0.0203
2823.0,0.0201
2822.0,0.0198
2821.0,0.0195
2820.0,0.0192
2819.0,0.019
2818.0,0.0188
2817.0,0.0186
2816.0,0.0184
2815.0,0.0183
2814.0,0.0181
2813.0,0.018
2812.0,0.0178
2811.0,0.0176
2810.0,0.0175
2809.0,0.0174
2808.0,0.0173
2807.0,0.0172
2806.0,0.0171
2805.0,0.017
2804.0,0.0169
2803.0,0.0168
2802.0,0.0167
2801.0,0.0167
2800.0,0.0166
2799.0,0.0166
2798.0,0.0165
2797.0,0.0163
2796.0,0.0161
2795.0,0.016
2794.0,0.0158
2793.0,0.0157
2792.0,0.0156
2791.0,0.0156
2790.0,0.0156
2789.0,0.0156
2788.0,0.0156
2787.0,0.0156
2786.0,0.0156
2785.0,0.0156
2784.0,0.0155
2783.0,0.0154
2782.0,0.0152
2781.0,0.0151
2780.0,0.015
2779.0,0.015
2778.0,0.015
2777.0,0.0149
2776.0,0.0149
2775.0,0.0149
2774.0,0.0149
2773.0,0.0149
2772.0,0.0148
2771.0,0.0148
2770.0,0.0147
2769.0,0.0147
2768.0,0.0146
2767.0,0.0146
2766.0,0.0146
2765.0,0.0145
2764.0,0.0145
2763.0,0.0145
2762.0,0.0145
2761.0,0.0146
2760.0,0.0145
2759.0,0.0145
2758.0,0.0144
2757.0,0.0144
2756.0,0.0143
2755.0,0.0143
2754.0,0.0143
2753.0,0.0142
2752.0,0.0142
2751.0,0.0142
2750.0,0.0142
2749.0,0.0142
2748.0,0.0141
2747.0,0.0141
2746.0,0.0141
2745.0,0.0141
2744.0,0.0142
2743.0,0.0142
2742.0,0.0142
2741.0,0.0142
2740.0,0.0143
2739.0,0.0142
2738.0,0.0142
2737.0,0.0142
2736.0,0.0142
2735.0,0.0142
2734.0,0.0142
2733.0,0.0141
2732.0,0.0141
2731.0,0.014
2730.0,0.014
2729.0,0.0139
2728.0,0.0139
2727.0,0.0139
2726.0,0.014
2725.0,0.0141
2724.0,0.0141
2723.0,0.0141
2722.0,0.014
2721.0,0.0138
2720.0,0.0137
2719.0,0.0136
2718.0,0.0136
2717.0,0.0136
2716.0,0.0136
2715.0,0.0135
2714.0,0.0135
2713.0,0.0135
2712.0,0.0135
2711.0,0.0136
2710.0,0.0137
2709.0,0.0137
2708.0,0.0136
2707.0,0.0136
2706.0,0.0135
2705.0,0.0135
2704.0,0.0135
2703.0,0.0135
2702.0,0.0134
2701.0,0.0134
2700.0,0.0134
2699.0,0.0134
2698.0,0.0134
2697.0,0.0135
2696.0,0.0135
2695.0,0.0135
2694.0,0.0134
2693.0,0.0134
2692.0,0.0134
2691.0,0.0134
2690.0,0.0135
2689.0,0.0135
2688.0,0.0135
2687.0,0.0134
2686.0,0.0134
2685.0,0.0134
2684.0,0.0134
2683.0,0.0135
2682.0,0.0135
2681.0,0.0135
2680.0,0.0135
2679.0,0.0135
2678.0,0.0135
2677.0,0.0134
2676.0,0.0134
2675.0,0.0134
2674.0,0.0134
2673.0,0.0134
2672.0,0.0133
2671.0,0.0132
2670.0,0.0132
2669.0,0.0132
2668.0,0.0132
2667.0,0.0132
2666.0,0.0132
2665.0,0.0132
2664.0,0.0132
2663.0,0.0131
2662.0,0.0131
2661.0,0.013
2660.0,0.013
2659.0,0.013
2658.0,0.013
2657.0,0.013
2656.0,0.0129
2655.0,0.013
2654.0,0.013
2653.0,0.013
2652.0,0.0129
2651.0,0.0129
2650.0,0.0129
2649.0,0.0128
2648.0,0.0128
2647.0,0.0128
2646.0,0.0128
2645.0,0.0128
2644.0,0.0129
2643.0,0.0128
2642.0,0.0128
2641.0,0.0127
2640.0,0.0127
2639.0,0.0127
2638.0,0.0127
2637.0,0.0127
2636.0,0.0128
2635.0,0.0128
2634.0,0.0128
2633.0,0.0128
2632.0,0.0129
2631.0,0.0129
2630.0,0.0129
2629.0,0.0128
2628.0,0.0127
2627.0,0.0127
2626.0,0.0127
2625.0,0.0127
2624.0,0.0127
2623.0,0.0128
2622.0,0.0128
2621.0,0.0128
2620.0,0.0128
2619.0,0.0128
2618.0,0.0127
2617.0,0.0127
2616.0,0.0126
2615.0,0.0126
2614.0,0.0126
2613.0,0.0126
2612.0,0.0126
2611.0,0.0126
2610.0,0.0127
2609.0,0.0127
2608.0,0.0126
2607.0,0.0126
2606.0,0.0126
2605.0,0.0126
2604.0,0.0126
2603.0,0.0126
2602.0,0.0126
2601.0,0.0126
2600.0,0.0126
2599.0,0.0126
2598.0,0.0126
2597.0,0.0125
2596.0,0.0125
2595.0,0.0125
2594.0,0.0124
2593.0,0.0124
2592.0,0.0123
2591.0,0.0123
2590.0,0.0123
2589.0,0.0123
2588.0,0.0123
2587.0,0.0123
2586.0,0.0124
2585.0,0.0124
2584.0,0.0124
2583.0,0.0124
2582.0,0.0124
2581.0,0.0124
2580.0,0.0124
2579.0,0.0123
2578.0,0.0122
2577.0,0.0122
2576.0,0.0121
2575.0,0.0122
2574.0,0.0122
2573.0,0.0123
2572.0,0.0123
2571.0,0.0123
2570.0,0.0122
2569.0,0.0123
2568.0,0.0123
2567.0,0.0124
2566.0,0.0124
2565.0,0.0124
2564.0,0.0123
2563.0,0.0122
2562.0,0.0122
2561.0,0.0121
2560.0,0.0121
2559.0,0.0121
2558.0,0.0121
2557.0,0.0121
2556.0,0.0121
2555.0,0.0121
2554.0,0.0121
2553.0,0.0121
2552.0,0.0122
2551.0,0.0122
2550.0,0.0121
2549.0,0.012
2548.0,0.012
2547.0,0.0119
2546.0,0.012
2545.0,0.012
2544.0,0.012
2543.0,0.012
2542.0,0.012
2541.0,0.012
2540.0,0.012
2539.0,0.012
2538.0,0.0119
2537.0,0.0119
2536.0,0.0119
2535.0,0.0119
2534.0,0.0119
2533.0,0.0119
2532.0,0.0119
2531.0,0.012
2530.0,0.012
2529.0,0.0119
2528.0,0.0119
2527.0,0.0119
2526.0,0.0119
2525.0,0.0118
2524.0,0.0118
2523.0,0.0118
2522.0,0.0118
2521.0,0.0118
2520.0,0.0118
2519.0,0.0118
2518.0,0.0118
2517.0,0.0118
2516.0,0.0118
2515.0,0.0117
2514.0,0.0117
2513.0,0.0117
2512.0,0.0117
2511.0,0.0117
2510.0,0.0117
2509.0,0.0117
2508.0,0.0117
2507.0,0.0117
2506.0,0.0117
2505.0,0.0117
2504.0,0.0117
2503.0,0.0117
2502.0,0.0117
2501.0,0.0116
2500.0,0.0115
2499.0,0.0115
2498.0,0.0115
2497.0,0.0116
2496.0,0.0116
2495.0,0.0116
2494.0,0.0115
2493.0,0.0114
2492.0,0.0114
2491.0,0.0115
2490.0,0.0115
2489.0,0.0116
2488.0,0.0116
2487.0,0.0116
2486.0,0.0116
2485.0,0.0115
2484.0,0.0115
2483.0,0.0114
2482.0,0.0114
2481.0,0.0113
2480.0,0.0113
2479.0,0.0113
2478.0,0.0114
2477.0,0.0114
2476.0,0.0113
2475.0,0.0113
2474.0,0.0113
2473.0,0.0113
2472.0,0.0113
2471.0,0.0113
2470.0,0.0113
2469.0,0.0113
2468.0,0.0113
2467.0,0.0113
2466.0,0.0113
2465.0,0.0112
2464.0,0.0112
2463.0,0.0112
2462.0,0.0112
2461.0,0.0112
2460.0,0.0112
2459.0,0.0111
2458.0,0.0111
2457.0,0.0111
2456.0,0.0111
2455.0,0.0111
2454.0,0.011
2453.0,0.011
2452.0,0.011
2451.0,0.011
2450.0,0.011
2449.0,0.011
2448.0,0.011
2447.0,0.011
2446.0,0.011
2445.0,0.011
2444.0,0.011
2443.0,0.011
2442.0,0.0111
2441.0,0.0111
2440.0,0.0111
2439.0,0.011
2438.0,0.0109
2437.0,0.0109
2436.0,0.0109
2435.0,0.0109
2434.0,0.0109
2433.0,0.0109
2432.0,0.0109
2431.0,0.0109
2430.0,0.011
2429.0,0.011
2428.0,0.011
2427.0,0.0109
2426.0,0.0109
2425.0,0.0108
2424.0,0.0109
2423.0,0.011
2422.0,0.011
2421.0,0.011
2420.0,0.0109
2419.0,0.0109
2418.0,0.0109
2417.0,0.0108
2416.0,0.0109
2415.0,0.0109
2414.0,0.0109
2413.0,0.0108
2412.0,0.0108
2411.0,0.0108
2410.0,0.0108
2409.0,0.0108
2408.0,0.0109
2407.0,0.0109
2406.0,0.0109
2405.0,0.0109
2404.0,0.0109
2403.0,0.0109
2402.0,0.0109
2401.0,0.0109
2400.0,0.0109
2399.0,0.0108
2398.0,0.0108
2397.0,0.0108
2396.0,0.0108
2395.0,0.0108
2394.0,0.0109
2393.0,0.011
2392.0,0.011
2391.0,0.0109
2390.0,0.0108
2389.0,0.0108
2388.0,0.0107
2387.0,0.0106
2386.0,0.0105
2385.0,0.0104
2384.0,0.0102
2383.0,0.0101
2382.0,0.0101
2381.0,0.0101
2380.0,0.0101
2379.0,0.0101
2378.0,0.01
2377.0,0.0099
2376.0,0.0099
2375.0,0.0099
2374.0,0.0099
2373.0,0.0096
2372.0,0.0091
2371.0,0.0085
2370.0,0.0081
2369.0,0.0081
2368.0,0.0085
2367.0,0.0094
2366.0,0.0102
2365.0,0.0106
2364.0,0.0104
2363.0,0.01
2362.0,0.0097
2361.0,0.0095
2360.0,0.0096
2359.0,0.0097
2358.0,0.0096
2357.0,0.0096
2356.0,0.0095
2355.0,0.0095
2354.0,0.0094
2353.0,0.0098
2352.0,0.0108
2351.0,0.0117
2350.0,0.012
2349.0,0.0116
2348.0,0.0106
2347.0,0.0098
2346.0,0.0093
2345.0,0.009
2344.0,0.0085
2343.0,0.0078
2342.0,0.0074
2341.0,0.0074
2340.0,0.0077
2339.0,0.0081
2338.0,0.0086
2337.0,0.0089
2336.0,0.0091
2335.0,0.0094
2334.0,0.0097
2333.0,0.0099
2332.0,0.0099
2331.0,0.0095
2330.0,0.009
2329.0,0.0087
2328.0,0.0088
2327.0,0.009
2326.0,0.0093
2325.0,0.0095
2324.0,0.0095
2323.0,0.0096
2322.0,0.0098
2321.0,0.01
2320.0,0.01
2319.0,0.0099
2318.0,0.0098
2317.0,0.0096
2316.0,0.0095
2315.0,0.0095
2314.0,0.0095
2313.0,0.0094
2312.0,0.0093
2311.0,0.0092
2310.0,0.0091
2309.0,0.0091
2308.0,0.0091
2307.0,0.0091
2306.0,0.0091
2305.0,0.0091
2304.0,0.0092
2303.0,0.0092
2302.0,0.0092
2301.0,0.0092
2300.0,0.0092
2299.0,0.0092
2298.0,0.0092
2297.0,0.0092
2296.0,0.0093
2295.0,0.0093
2294.0,0.0094
2293.0,0.0094
2292.0,0.0095
2291.0,0.0096
2290.0,0.0097
2289.0,0.0097
2288.0,0.0097
2287.0,0.0097
2286.0,0.0097
2285.0,0.0098
2284.0,0.0099
2283.0,0.01
2282.0,0.01
2281.0,0.0099
2280.0,0.0099
2279.0,0.0098
2278.0,0.0098
2277.0,0.0097
2276.0,0.0097
2275.0,0.0097
2274.0,0.0097
2273.0,0.0097
2272.0,0.0097
2271.0,0.0098
2270.0,0.0098
2269.0,0.0098
2268.0,0.0098
2267.0,0.0098
2266.0,0.0098
2265.0,0.0098
2264.0,0.0097
2263.0,0.0097
2262.0,0.0097
2261.0,0.0098
2260.0,0.0098
2259.0,0.0099
2258.0,0.0099
2257.0,0.0099
2256.0,0.0099
2255.0,0.0098
2254.0,0.0098
2253.0,0.0098
2252.0,0.0097
2251.0,0.0096
2250.0,0.0096
2249.0,0.0096
2248.0,0.0096
2247.0,0.0097
2246.0,0.0097
2245.0,0.0098
2244.0,0.0097
2243.0,0.0097
2242.0,0.0097
2241.0,0.0096
2240.0,0.0096
2239.0,0.0096
2238.0,0.0096
2237.0,0.0096
2236.0,0.0096
2235.0,0.0096
2234.0,0.0096
2233.0,0.0096
2232.0,0.0096
2231.0,0.0096
2230.0,0.0096
2229.0,0.0096
2228.0,0.0096
2227.0,0.0096
2226.0,0.0096
2225.0,0.0096
2224.0,0.0095
2223.0,0.0094
2222.0,0.0094
2221.0,0.0094
2220.0,0.0094
2219.0,0.0094
2218.0,0.0094
2217.0,0.0093
2216.0,0.0094
2215.0,0.0094
2214.0,0.0094
2213.0,0.0094
2212.0,0.0094
2211.0,0.0093
2210.0,0.0092
2209.0,0.0093
2208.0,0.0093
2207.0,0.0094
2206.0,0.0094
2205.0,0.0093
2204.0,0.0093
2203.0,0.0093
2202.0,0.0093
2201.0,0.0093
2200.0,0.0093
2199.0,0.0092
2198.0,0.0091
2197.0,0.0091
2196.0,0.009
2195.0,0.009
2194.0,0.009
2193.0,0.0089
2192.0,0.0089
2191.0,0.0089
2190.0,0.0089
2189.0,0.009
2188.0,0.009
2187.0,0.0091
2186.0,0.0091
2185.0,0.0091
2184.0,0.0091
2183.0,0.0091
2182.0,0.009
2181.0,0.009
2180.0,0.0089
2179.0,0.0089
2178.0,0.0088
2177.0,0.0089
2176.0,0.0089
2175.0,0.0089
2174.0,0.0089
2173.0,0.0088
2172.0,0.0088
2171.0,0.0088
2170.0,0.0088
2169.0,0.0088
2168.0,0.0088
2167.0,0.0088
2166.0,0.0088
2165.0,0.0088
2164.0,0.0088
2163.0,0.0088
2162.0,0.0088
2161.0,0.0088
2160.0,0.0088
2159.0,0.0088
2158.0,0.0088
2157.0,0.0088
2156.0,0.0088
2155.0,0.0088
2154.0,0.0088
2153.0,0.0088
2152.0,0.0088
2151.0,0.0088
2150.0,0.0087
2149.0,0.0087
2148.0,0.0087
2147.0,0.0087
2146.0,0.0088
2145.0,0.0088
2144.0,0.0088
2143.0,0.0088
2142.0,0.0088
2141.0,0.0088
2140.0,0.0088
2139.0,0.0088
2138.0,0.0088
2137.0,0.0088
2136.0,0.0088
2135.0,0.0088
2134.0,0.0087
2133.0,0.0086
2132.0,0.0086
2131.0,0.0086
2130.0,0.0086
2129.0,0.0086
2128.0,0.0087
2127.0,0.0088
2126.0,0.0087
2125.0,0.0087
2124.0,0.0087
2123.0,0.0087
2122.0,0.0087
2121.0,0.0087
2120.0,0.0086
2119.0,0.0086
2118.0,0.0086
2117.0,0.0087
2116.0,0.0087
2115.0,0.0088
2114.0,0.0088
2113.0,0.0087
2112.0,0.0087
2111.0,0.0087
2110.0,0.0087
2109.0,0.0086
2108.0,0.0087
2107.0,0.0087
2106.0,0.0087
2105.0,0.0087
2104.0,0.0087
2103.0,0.0087
2102.0,0.0087
2101.0,0.0087
2100.0,0.0087
2099.0,0.0087
2098.0,0.0086
2097.0,0.0086
2096.0,0.0085
2095.0,0.0085
2094.0,0.0085
2093.0,0.0085
2092.0,0.0085
2091.0,0.0085
2090.0,0.0085
2089.0,0.0085
2088.0,0.0085
2087.0,0.0084
2086.0,0.0084
2085.0,0.0084
2084.0,0.0084
2083.0,0.0084
2082.0,0.0083
2081.0,0.0083
2080.0,0.0083
2079.0,0.0083
2078.0,0.0084
2077.0,0.0085
2076.0,0.0085
2075.0,0.0084
2074.0,0.0083
2073.0,0.0082
2072.0,0.0082
2071.0,0.0082
2070.0,0.0082
2069.0,0.0082
2068.0,0.0082
2067.0,0.0082
2066.0,0.0081
2065.0,0.008
2064.0,0.0079
2063.0,0.0078
2062.0,0.0079
2061.0,0.0079
2060.0,0.0079
2059.0,0.0079
2058.0,0.0079
2057.0,0.0079
2056.0,0.0079
2055.0,0.0079
2054.0,0.0078
2053.0,0.0078
2052.0,0.0078
2051.0,0.0077
2050.0,0.0077
2049.0,0.0077
2048.0,0.0076
2047.0,0.0076
2046.0,0.0076
2045.0,0.0075
2044.0,0.0075
2043.0,0.0074
2042.0,0.0074
2041.0,0.0074
2040.0,0.0074
2039.0,0.0074
2038.0,0.0073
2037.0,0.0073
2036.0,0.0073
2035.0,0.0073
2034.0,0.0074
2033.0,0.0074
2032.0,0.0074
2031.0,0.0074
2030.0,0.0073
2029.0,0.0073
2028.0,0.0073
2027.0,0.0073
2026.0,0.0072
2025.0,0.0072
2024.0,0.0072
2023.0,0.0072
2022.0,0.0072
2021.0,0.0072
2020.0,0.0071
2019.0,0.0071
2018.0,0.0071
2017.0,0.007
2016.0,0.0069
2015.0,0.0069
2014.0,0.0069
2013.0,0.0069
2012.0,0.0069
2011.0,0.0069
2010.0,0.0069
2009.0,0.0069
2008.0,0.0069
2007.0,0.0069
2006.0,0.0069
2005.0,0.0069
2004.0,0.0069
2003.0,0.0069
2002.0,0.0069
2001.0,0.007
2000.0,0.007
1999.0,0.0071
1998.0,0.007
1997.0,0.007
1996.0,0.007
1995.0,0.007
1994.0,0.007
1993.0,0.007
1992.0,0.007
1991.0,0.007
1990.0,0.007
1989.0,0.007
1988.0,0.0069
1987.0,0.0069
1986.0,0.0069
1985.0,0.0069
1984.0,0.0069
1983.0,0.0069
1982.0,0.0069
1981.0,0.0069
1980.0,0.0069
1979.0,0.007
1978.0,0.007
1977.0,0.007
1976.0,0.007
1975.0,0.0069
1974.0,0.0069
1973.0,0.0068
1972.0,0.0068
1971.0,0.0069
1970.0,0.007
1969.0,0.007
1968.0,0.007
1967.0,0.007
1966.0,0.007
1965.0,0.007
1964.0,0.007
1963.0,0.0071
1962.0,0.0072
1961.0,0.0073
1960.0,0.0074
1959.0,0.0074
1958.0,0.0075
1957.0,0.0075
1956.0,0.0075
1955.0,0.0075
1954.0,0.0075
1953.0,0.0075
1952.0,0.0076
1951.0,0.0076
1950.0,0.0076
1949.0,0.0076
1948.0,0.0075
1947.0,0.0075
1946.0,0.0074
1945.0,0.0074
1944.0,0.0073
1943.0,0.0073
1942.0,0.0072
1941.0,0.0071
1940.0,0.007
1939.0,0.0069
1938.0,0.0068
1937.0,0.0066
1936.0,0.0065
1935.0,0.0065
1934.0,0.0064
1933.0,0.0064
1932.0,0.0064
1931.0,0.0063
1930.0,0.0063
1929.0,0.0062
1928.0,0.0061
1927.0,0.0061
1926.0,0.006
1925.0,0.006
1924.0,0.0059
1923.0,0.0059
1922.0,0.0058
1921.0,0.0057
1920.0,0.0056
1919.0,0.0055
1918.0,0.0055
1917.0,0.0055
1916.0,0.0055
1915.0,0.0055
1914.0,0.0055
1913.0,0.0054
1912.0,0.0053
1911.0,0.0052
1910.0,0.0051
1909.0,0.0049
1908.0,0.0048
1907.0,0.0048
1906.0,0.0047
1905.0,0.0046
1904.0,0.0046
1903.0,0.0046
1902.0,0.0046
1901.0,0.0045
1900.0,0.0045
1899.0,0.0045
1898.0,0.0044
1897.0,0.0044
1896.0,0.0043
1895.0,0.0043
1894.0,0.0042
1893.0,0.0042
1892.0,0.0041
1891.0,0.004
1890.0,0.0039
1889.0,0.0039
1888.0,0.0038
1887.0,0.0037
1886.0,0.0036
1885.0,0.0036
1884.0,0.0035
1883.0,0.0035
1882.0,0.0035
1881.0,0.0034
1880.0,0.0034
1879.0,0.0033
1878.0,0.0032
1877.0,0.0032
1876.0,0.0032
1875.0,0.0031
1874.0,0.0031
1873.0,0.003
1872.0,0.003
1871.0,0.003
1870.0,0.0029
1869.0,0.0029
1868.0,0.0029
1867.0,0.0028
1866.0,0.0028
1865.0,0.0027
1864.0,0.0027
1863.0,0.0026
1862.0,0.0025
1861.0,0.0025
1860.0,0.0024
1859.0,0.0024
1858.0,0.0024
1857.0,0.0023
1856.0,0.0023
1855.0,0.0022
1854.0,0.0022
1853.0,0.0022
1852.0,0.0022
1851.0,0.0022
1850.0,0.0023
1849.0,0.0023
1848.0,0.0023
1847.0,0.0023
1846.0,0.0022
1845.0,0.002
1844.0,0.0019
1843.0,0.0019
1842.0,0.0019
1841.0,0.002
1840.0,0.0021
1839.0,0.0021
1838.0,0.0021
1837.0,0.0021
1836.0,0.002
1835.0,0.0021
1834.0,0.0021
1833.0,0.0021
1832.0,0.0022
1831.0,0.0021
1830.0,0.0021
1829.0,0.002
1828.0,0.0021
1827.0,0.0021
1826.0,0.0021
1825.0,0.002
1824.0,0.0019
1823.0,0.0019
1822.0,0.0019
1821.0,0.0018
1820.0,0.0017
1819.0,0.0016
1818.0,0.0016
1817.0,0.0015
1816.0,0.0015
1815.0,0.0014
1814.0,0.0014
1813.0,0.0013
1812.0,0.0013
1811.0,0.0012
1810.0,0.0011
1809.0,0.0009
1808.0,0.0008
1807.0,0.0008
1806.0,0.0007
1805.0,0.0006
1804.0,0.0006
1803.0,0.0005
1802.0,0.0004
1801.0,0.0003
1800.0,0.0003
1799.0,0.0002
1798.0,0.0002
1797.0,0.0001
1796.0,0.0
1795.0,-0.0
1794.0,-0.0001
1793.0,-0.0003
1792.0,-0.0005
1791.0,-0.0006
1790.0,-0.0007
1789.0,-0.0007
1788.0,-0.0007
1787.0,-0.0007
1786.0,-0.0008
1785.0,-0.0009
1784.0,-0.0009
1783.0,-0.0009
1782.0,-0.0009
1781.0,-0.001
1780.0,-0.0011
1779.0,-0.0011
1778.0,-0.0011
1777.0,-0.0011
1776.0,-0.001
1775.0,-0.0009
1774.0,-0.0009
1773.0,-0.001
1772.0,-0.0011
1771.0,-0.001
1770.0,-0.0009
1769.0,-0.0009
1768.0,-0.0007
1767.0,-0.0004
1766.0,-0.0001
1765.0,0.0003
1764.0,0.0007
1763.0,0.0013
1762.0,0.0021
1761.0,0.003
1760.0,0.004
1759.0,0.0051
1758.0,0.0064
1757.0,0.008
1756.0,0.0097
1755.0,0.0115
1754.0,0.0132
1753.0,0.015
1752.0,0.0173
1751.0,0.0202
1750.0,0.0232
1749.0,0.0261
1748.0,0.0291
1747.0,0.0318
1746.0,0.0345
1745.0,0.0373
1744.0,0.0405
1743.0,0.0437
1742.0,0.0468
1741.0,0.0499
1740.0,0.0534
1739.0,0.0568
1738.0,0.0594
1737.0,0.0611
1736.0,0.0628
1735.0,0.0658
1734.0,0.0702
1733.0,0.0742
1732.0,0.0772
1731.0,0.0802
1730.0,0.0836
1729.0,0.0871
1728.0,0.0905
1727.0,0.0938
1726.0,0.0971
1725.0,0.1007
1724.0,0.1046
1723.0,0.1083
1722.0,0.1114
1721.0,0.1138
1720.0,0.1158
1719.0,0.1185
1718.0,0.1225
1717.0,0.1263
1716.0,0.1287
1715.0,0.13
1714.0,0.1306
1713.0,0.1304
1712.0,0.1291
1711.0,0.1271
1710.0,0.1246
1709.0,0.1217
1708.0,0.1181
1707.0,0.1138
1706.0,0.1089
1705.0,0.1043
1704.0,0.1007
1703.0,0.0974
1702.0,0.0937
1701.0,0.0889
1700.0,0.0844
1699.0,0.0815
1698.0,0.0794
1697.0,0.077
1696.0,0.074
1695.0,0.0713
1694.0,0.0695
1693.0,0.0682
1692.0,0.0668
1691.0,0.0652
1690.0,0.0637
1689.0,0.0626
1688.0,0.0617
1687.0,0.0607
1686.0,0.0595
1685.0,0.0582
1684.0,0.0572
1683.0,0.0565
1682.0,0.0558
1681.0,0.0551
1680.0,0.0544
1679.0,0.0535
1678.0,0.0526
1677.0,0.0516
1676.0,0.0506
1675.0,0.0497
1674.0,0.0491
1673.0,0.0486
1672.0,0.048
1671.0,0.0472
1670.0,0.0464
1669.0,0.0458
1668.0,0.0453
1667.0,0.0448
1666.0,0.0442
1665.0,0.0435
1664.0,0.0427
1663.0,0.042
1662.0,0.0414
1661.0,0.041
1660.0,0.0406
1659.0,0.0401
1658.0,0.0397
1657.0,0.0393
1656.0,0.0388
1655.0,0.0381
1654.0,0.0374
1653.0,0.0372
1652.0,0.0371
1651.0,0.037
1650.0,0.0369
1649.0,0.0366
1648.0,0.0361
1647.0,0.0356
1646.0,0.0352
1645.0,0.0349
1644.0,0.0345
1643.0,0.0342
1642.0,0.0338
1641.0,0.0335
1640.0,0.0332
1639.0,0.0328
1638.0,0.0324
1637.0,0.032
1636.0,0.0318
1635.0,0.0316
1634.0,0.0314
1633.0,0.0312
1632.0,0.031
1631.0,0.0307
1630.0,0.0304
1629.0,0.0303
1628.0,0.0301
1627.0,0.0299
1626.0,0.0297
1625.0,0.0294
1624.0,0.0292
1623.0,0.0291
1622.0,0.029
1621.0,0.029
1620.0,0.0289
1619.0,0.0287
1618.0,0.0287
1617.0,0.0291
1616.0,0.0296
1615.0,0.03
1614.0,0.0302
1613.0,0.0302
1612.0,0.0302
1611.0,0.0302
1610.0,0.0302
1609.0,0.0303
1608.0,0.0302
1607.0,0.0301
1606.0,0.0299
1605.0,0.0297
1604.0,0.0293
1603.0,0.0289
1602.0,0.0284
1601.0,0.0279
1600.0,0.0275
1599.0,0.0271
1598.0,0.0267
1597.0,0.0265
1596.0,0.0263
1595.0,0.0261
1594.0,0.0259
1593.0,0.0258
1592.0,0.0256
1591.0,0.0255
1590.0,0.0255
1589.0,0.0254
1588.0,0.0254
1587.0,0.0253
1586.0,0.0252
1585.0,0.0253
1584.0,0.0255
1583.0,0.0259
1582.0,0.0265
1581.0,0.0271
1580.0,0.0277
1579.0,0.0281
1578.0,0.0282
1577.0,0.028
1576.0,0.0276
1575.0,0.027
1574.0,0.0264
1573.0,0.026
1572.0,0.0254
1571.0,0.0248
1570.0,0.0241
1569.0,0.0236
1568.0,0.0232
1567.0,0.0228
1566.0,0.0225
1565.0,0.0222
1564.0,0.0219
1563.0,0.0217
1562.0,0.0215
1561.0,0.0212
1560.0,0.021
1559.0,0.0209
1558.0,0.0206
1557.0,0.0203
1556.0,0.0201
1555.0,0.0199
1554.0,0.0198
1553.0,0.0197
1552.0,0.0196
1551.0,0.0195
1550.0,0.0194
1549.0,0.0193
1548.0,0.0192
1547.0,0.0191
1546.0,0.0191
1545.0,0.0191
1544.0,0.0191
1543.0,0.0189
1542.0,0.0187
1541.0,0.0187
1540.0,0.0188
1539.0,0.0187
1538.0,0.0185
1537.0,0.0185
1536.0,0.0185
1535.0,0.0184
1534.0,0.0184
1533.0,0.0185
1532.0,0.0184
1531.0,0.0183
1530.0,0.0181
1529.0,0.018
1528.0,0.0178
1527.0,0.0176
1526.0,0.0174
1525.0,0.0172
1524.0,0.0171
1523.0,0.0169
1522.0,0.0166
1521.0,0.0164
1520.0,0.0163
1519.0,0.0162
1518.0,0.0161
1517.0,0.0162
1516.0,0.0163
1515.0,0.0163
1514.0,0.0163
1513.0,0.0164
1512.0,0.0168
1511.0,0.0173
1510.0,0.0181
1509.0,0.0192
1508.0,0.0214
1507.0,0.0252
1506.0,0.0277
1505.0,0.0281
1504.0,0.0276
1503.0,0.0265
1502.0,0.025
1501.0,0.0235
1500.0,0.0219
1499.0,0.0205
1498.0,0.0192
1497.0,0.0182
1496.0,0.0174
1495.0,0.0169
1494.0,0.0165
1493.0,0.0163
1492.0,0.0161
1491.0,0.0158
1490.0,0.0156
1489.0,0.0156
1488.0,0.0157
1487.0,0.0158
1486.0,0.0159
1485.0,0.0161
1484.0,0.0164
1483.0,0.0168
1482.0,0.0174
1481.0,0.018
1480.0,0.0187
1479.0,0.0193
1478.0,0.0198
1477.0,0.0206
1476.0,0.0214
1475.0,0.0222
1474.0,0.0234
1473.0,0.0255
1472.0,0.028
1471.0,0.0301
1470.0,0.0317
1469.0,0.0331
1468.0,0.0343
1467.0,0.0352
1466.0,0.0359
1465.0,0.0366
1464.0,0.0373
1463.0,0.0378
1462.0,0.0382
1461.0,0.0385
1460.0,0.0389
1459.0,0.0391
1458.0,0.0397
1457.0,0.0405
1456.0,0.0408
1455.0,0.0407
1454.0,0.0404
1453.0,0.04
1452.0,0.0393
1451.0,0.0385
1450.0,0.0378
1449.0,0.037
1448.0,0.0363
1447.0,0.0356
1446.0,0.0351
1445.0,0.0347
1444.0,0.0343
1443.0,0.034
1442.0,0.0337
1441.0,0.0334
1440.0,0.0331
1439.0,0.0324
1438.0,0.0315
1437.0,0.0304
1436.0,0.0293
1435.0,0.0284
1434.0,0.0276
1433.0,0.0266
1432.0,0.0255
1431.0,0.0241
1430.0,0.0228
1429.0,0.0216
1428.0,0.0207
1427.0,0.02
1426.0,0.0194
1425.0,0.0189
1424.0,0.0186
1423.0,0.0186
1422.0,0.0186
1421.0,0.0189
1420.0,0.0197
1419.0,0.0212
1418.0,0.0232
1417.0,0.0255
1416.0,0.0282
1415.0,0.0315
1414.0,0.0355
1413.0,0.0402
1412.0,0.0453
1411.0,0.0501
1410.0,0.0538
1409.0,0.0561
1408.0,0.0569
1407.0,0.056
1406.0,0.0537
1405.0,0.0504
1404.0,0.0471
1403.0,0.0441
1402.0,0.0416
1401.0,0.0393
1400.0,0.037
1399.0,0.0348
1398.0,0.033
1397.0,0.0316
1396.0,0.0303
1395.0,0.0291
1394.0,0.028
1393.0,0.0272
1392.0,0.0266
1391.0,0.0262
1390.0,0.0257
1389.0,0.0254
1388.0,0.0253
1387.0,0.0253
1386.0,0.0255
1385.0,0.0258
1384.0,0.0261
1383.0,0.0265
1382.0,0.027
1381.0,0.0276
1380.0,0.0283
1379.0,0.029
1378.0,0.0296
1377.0,0.0301
1376.0,0.0304
1375.0,0.0307
1374.0,0.0308
1373.0,0.0308
1372.0,0.0308
1371.0,0.0308
1370.0,0.0307
1369.0,0.0304
1368.0,0.0298
1367.0,0.029
1366.0,0.028
1365.0,0.0267
1364.0,0.0253
1363.0,0.0237
1362.0,0.0223
1361.0,0.0212
1360.0,0.0205
1359.0,0.02
1358.0,0.0197
1357.0,0.0195
1356.0,0.0195
1355.0,0.0196
1354.0,0.0199
1353.0,0.0202
1352.0,0.0208
1351.0,0.0215
1350.0,0.0225
1349.0,0.0239
1348.0,0.0256
1347.0,0.0276
1346.0,0.0301
1345.0,0.0329
1344.0,0.036
1343.0,0.0391
1342.0,0.042
1341.0,0.0448
1340.0,0.0468
1339.0,0.0477
1338.0,0.047
1337.0,0.045
1336.0,0.042
1335.0,0.0383
1334.0,0.0344
1333.0,0.0305
1332.0,0.027
1331.0,0.0241
1330.0,0.0218
1329.0,0.0201
1328.0,0.019
1327.0,0.0183
1326.0,0.018
1325.0,0.018
1324.0,0.0182
1323.0,0.0186
1322.0,0.019
1321.0,0.0196
1320.0,0.0202
1319.0,0.0209
1318.0,0.0216
1317.0,0.0223
1316.0,0.0229
1315.0,0.0237
1314.0,0.0245
1313.0,0.0254
1312.0,0.0264
1311.0,0.0274
1310.0,0.0284
1309.0,0.0295
1308.0,0.0306
1307.0,0.0317
1306.0,0.0328
1305.0,0.0338
1304.0,0.0347
1303.0,0.0358
1302.0,0.0371
1301.0,0.0385
1300.0,0.0403
1299.0,0.0423
1298.0,0.0445
1297.0,0.0468
1296.0,0.0491
1295.0,0.0514
1294.0,0.0537
1293.0,0.056
1292.0,0.0583
1291.0,0.0605
1290.0,0.0627
1289.0,0.0648
1288.0,0.0668
1287.0,0.0687
1286.0,0.0705
1285.0,0.0722
1284.0,0.0738
1283.0,0.0753
1282.0,0.0767
1281.0,0.0782
1280.0,0.0797
1279.0,0.0811
1278.0,0.0826
1277.0,0.0842
1276.0,0.0861
1275.0,0.0881
1274.0,0.0904
1273.0,0.093
1272.0,0.0961
1271.0,0.0994
1270.0,0.1029
1269.0,0.1066
1268.0,0.1104
1267.0,0.1142
1266.0,0.1179
1265.0,0.1215
1264.0,0.1249
1263.0,0.128
1262.0,0.1308
1261.0,0.1331
1260.0,0.1351
1259.0,0.1365
1258.0,0.1375
1257.0,0.1383
1256.0,0.139
1255.0,0.1398
1254.0,0.1406
1253.0,0.1417
1252.0,0.1432
1251.0,0.1449
1250.0,0.1467
1249.0,0.1488
1248.0,0.1511
1247.0,0.1533
1246.0,0.1554
1245.0,0.1574
1244.0,0.1593
1243.0,0.161
1242.0,0.1623
1241.0,0.1633
1240.0,0.1639
1239.0,0.164
1238.0,0.1635
1237.0,0.1627
1236.0,0.1614
1235.0,0.1597
1234.0,0.1575
1233.0,0.155
1232.0,0.1523
1231.0,0.1493
1230.0,0.1461
1229.0,0.1429
1228.0,0.1397
1227.0,0.1365
1226.0,0.1333
1225.0,0.1301
1224.0,0.127
1223.0,0.1239
1222.0,0.1208
1221.0,0.1178
1220.0,0.1148
1219.0,0.1119
1218.0,0.109
1217.0,0.1063
1216.0,0.1037
1215.0,0.1013
1214.0,0.099
1213.0,0.0969
1212.0,0.095
1211.0,0.0931
1210.0,0.0912
1209.0,0.0894
1208.0,0.0876
1207.0,0.0859
1206.0,0.0841
1205.0,0.0824
1204.0,0.0808
1203.0,0.0793
1202.0,0.0778
1201.0,0.0763
1200.0,0.0749
1199.0,0.0736
1198.0,0.0723
1197.0,0.0711
1196.0,0.07
1195.0,0.0689
1194.0,0.0678
1193.0,0.0667
1192.0,0.0657
1191.0,0.0647
1190.0,0.0638
1189.0,0.063
1188.0,0.0624
1187.0,0.0619
1186.0,0.0615
1185.0,0.0613
1184.0,0.0613
1183.0,0.0615
1182.0,0.0619
1181.0,0.0626
1180.0,0.0634
1179.0,0.0644
1178.0,0.0655
1177.0,0.0666
1176.0,0.0675
1175.0,0.0682
1174.0,0.0684
1173.0,0.0681
1172.0,0.0674
1171.0,0.0661
1170.0,0.0646
1169.0,0.0628
1168.0,0.0611
1167.0,0.0595
1166.0,0.0581
1165.0,0.0569
1164.0,0.0558
1163.0,0.0549
1162.0,0.0541
1161.0,0.0534
1160.0,0.0529
1159.0,0.0524
1158.0,0.052
1157.0,0.0516
1156.0,0.0513
1155.0,0.0511
1154.0,0.0511
1153.0,0.0513
1152.0,0.0517
1151.0,0.0522
1150.0,0.0528
1149.0,0.0535
1148.0,0.0544
1147.0,0.0554
1146.0,0.0565
1145.0,0.0577
1144.0,0.059
1143.0,0.0604
1142.0,0.0618
1141.0,0.0632
1140.0,0.0646
1139.0,0.066
1138.0,0.0675
1137.0,0.0691
1136.0,0.071
1135.0,0.0729
1134.0,0.0751
1133.0,0.0774
1132.0,0.08
1131.0,0.0829
1130.0,0.0859
1129.0,0.0892
1128.0,0.0927
1127.0,0.0964
1126.0,0.1001
1125.0,0.104
1124.0,0.1078
1123.0,0.1115
1122.0,0.115
1121.0,0.1181
1120.0,0.121
1119.0,0.1234
1118.0,0.1251
1117.0,0.1262
1116.0,0.1265
1115.0,0.1262
1114.0,0.1254
1113.0,0.1246
1112.0,0.1242
1111.0,0.1243
1110.0,0.1251
1109.0,0.1269
1108.0,0.1297
1107.0,0.1332
1106.0,0.1373
1105.0,0.1416
1104.0,0.1461
1103.0,0.1505
1102.0,0.1545
1101.0,0.1583
1100.0,0.1618
1099.0,0.165
1098.0,0.1676
1097.0,0.1698
1096.0,0.1715
1095.0,0.1726
1094.0,0.173
1093.0,0.173
1092.0,0.1726
1091.0,0.1718
1090.0,0.1706
1089.0,0.1691
1088.0,0.1675
1087.0,0.1659
1086.0,0.1642
1085.0,0.1624
1084.0,0.1606
1083.0,0.1585
1082.0,0.1562
1081.0,0.1536
1080.0,0.1508
1079.0,0.1476
1078.0,0.1442
1077.0,0.1406
1076.0,0.1369
1075.0,0.1333
1074.0,0.1296
1073.0,0.1262
1072.0,0.1229
1071.0,0.1198
1070.0,0.1169
1069.0,0.1141
1068.0,0.1115
1067.0,0.1089
1066.0,0.1065
1065.0,0.1042
1064.0,0.1021
1063.0,0.1001
1062.0,0.0983
1061.0,0.0967
1060.0,0.0952
1059.0,0.0937
1058.0,0.0925
1057.0,0.0914
1056.0,0.0906
1055.0,0.09
1054.0,0.0895
1053.0,0.0892
1052.0,0.0892
1051.0,0.0894
1050.0,0.0896
1049.0,0.0899
1048.0,0.0902
1047.0,0.0905
1046.0,0.0907
1045.0,0.0909
1044.0,0.091
1043.0,0.091
1042.0,0.0907
1041.0,0.0904
1040.0,0.09
1039.0,0.0894
1038.0,0.0887
1037.0,0.0878
1036.0,0.0869
1035.0,0.0859
1034.0,0.0849
1033.0,0.084
1032.0,0.0831
1031.0,0.0821
1030.0,0.0811
1029.0,0.0802
1028.0,0.0796
1027.0,0.0796
1026.0,0.0805
1025.0,0.0828
1024.0,0.0866
1023.0,0.0921
1022.0,0.099
1021.0,0.1072
1020.0,0.1158
1019.0,0.124
1018.0,0.1305
1017.0,0.1343
1016.0,0.1348
1015.0,0.1318
1014.0,0.1264
1013.0,0.1198
1012.0,0.1133
1011.0,0.1074
1010.0,0.1023
1009.0,0.0982
1008.0,0.0947
1007.0,0.0917
1006.0,0.0891
1005.0,0.087
1004.0,0.0852
1003.0,0.0837
1002.0,0.0823
1001.0,0.081
1000.0,0.0799
999.0,0.0788
998.0,0.0778
997.0,0.0769
996.0,0.0761
995.0,0.0754
994.0,0.0747
993.0,0.0741
992.0,0.0736
991.0,0.073
990.0,0.0726
989.0,0.0722
988.0,0.0719
987.0,0.0717
986.0,0.0715
985.0,0.0714
984.0,0.0716
983.0,0.0719
982.0,0.0723
981.0,0.0727
980.0,0.0732
979.0,0.0736
978.0,0.0742
977.0,0.0748
976.0,0.0755
975.0,0.0762
974.0,0.0767
973.0,0.0772
972.0,0.0776
971.0,0.0777
970.0,0.0775
969.0,0.0772
968.0,0.0768
967.0,0.0763
966.0,0.0756
965.0,0.0747
964.0,0.0739
963.0,0.073
962.0,0.0721
961.0,0.0713
960.0,0.0704
959.0,0.0695
958.0,0.0687
957.0,0.0679
956.0,0.0672
955.0,0.0666
954.0,0.0659
953.0,0.0652
952.0,0.0645
951.0,0.0639
950.0,0.0634
949.0,0.0629
948.0,0.0625
947.0,0.0621
946.0,0.0616
945.0,0.0613
944.0,0.061
943.0,0.0607
942.0,0.0604
941.0,0.06
940.0,0.0597
939.0,0.0594
938.0,0.059
937.0,0.0588
936.0,0.0586
935.0,0.0583
934.0,0.058
933.0,0.0578
932.0,0.0575
931.0,0.0572
930.0,0.0569
929.0,0.0566
928.0,0.0564
927.0,0.0561
926.0,0.0558
925.0,0.0554
924.0,0.0551
923.0,0.0548
922.0,0.0545
921.0,0.0542
920.0,0.0538
919.0,0.0535
918.0,0.0533
917.0,0.0531
916.0,0.053
915.0,0.053
914.0,0.053
913.0,0.0531
912.0,0.0532
911.0,0.0533
910.0,0.0535
909.0,0.0538
908.0,0.0544
907.0,0.055
906.0,0.0557
905.0,0.0564
904.0,0.0571
903.0,0.0578
902.0,0.0584
901.0,0.0589
900.0,0.0593
899.0,0.0597
898.0,0.06
897.0,0.0601
896.0,0.0602
895.0,0.06
894.0,0.0598
893.0,0.0596
892.0,0.0593
891.0,0.0592
890.0,0.0591
889.0,0.0592
888.0,0.0594
887.0,0.0597
886.0,0.0602
885.0,0.0611
884.0,0.0623
883.0,0.064
882.0,0.0662
881.0,0.0689
880.0,0.0723
879.0,0.076
878.0,0.0801
877.0,0.0845
876.0,0.0892
875.0,0.094
874.0,0.0983
873.0,0.1013
872.0,0.1023
871.0,0.101
870.0,0.098
869.0,0.094
868.0,0.0899
867.0,0.0863
866.0,0.0832
865.0,0.0808
864.0,0.0789
863.0,0.0774
862.0,0.0762
861.0,0.0753
860.0,0.0747
859.0,0.0742
858.0,0.0739
857.0,0.0737
856.0,0.0736
855.0,0.0736
854.0,0.0736
853.0,0.0737
852.0,0.074
851.0,0.0744
850.0,0.0748
849.0,0.0753
848.0,0.0757
847.0,0.076
846.0,0.0762
845.0,0.0762
844.0,0.0761
843.0,0.0759
842.0,0.0756
841.0,0.0752
840.0,0.0747
839.0,0.0742
838.0,0.0735
837.0,0.0727
836.0,0.0719
835.0,0.0712
834.0,0.0704
833.0,0.0697
832.0,0.0689
831.0,0.0682
830.0,0.0675
829.0,0.0669
828.0,0.0664
827.0,0.0659
826.0,0.0655
825.0,0.0651
824.0,0.0648
823.0,0.0645
822.0,0.0643
821.0,0.0641
820.0,0.064
819.0,0.0639
818.0,0.0637
817.0,0.0635
816.0,0.0633
815.0,0.063
814.0,0.0628
813.0,0.0627
812.0,0.0626
811.0,0.0625
810.0,0.0622
809.0,0.0619
808.0,0.0616
807.0,0.0614
806.0,0.0611
805.0,0.0609
804.0,0.0607
803.0,0.0604
802.0,0.06
801.0,0.0597
800.0,0.0595
799.0,0.0596
798.0,0.0601
797.0,0.0613
796.0,0.0629
795.0,0.0647
794.0,0.0661
793.0,0.0669
792.0,0.0669
791.0,0.0661
790.0,0.0648
789.0,0.0633
788.0,0.0617
787.0,0.0601
786.0,0.0585
785.0,0.0569
784.0,0.0555
783.0,0.0543
782.0,0.0533
781.0,0.0527
780.0,0.0522
779.0,0.0516
778.0,0.051
777.0,0.0504
776.0,0.0498
775.0,0.0492
774.0,0.0487
773.0,0.0481
772.0,0.0475
771.0,0.0467
770.0,0.046
769.0,0.0452
768.0,0.0443
767.0,0.0434
766.0,0.0424
765.0,0.0416
764.0,0.0409
763.0,0.0403
762.0,0.0393
761.0,0.0383
760.0,0.0373
759.0,0.0365
758.0,0.036
757.0,0.0356
756.0,0.0352
755.0,0.0345
754.0,0.0337
753.0,0.0328
752.0,0.0318
751.0,0.0309
750.0,0.03
749.0,0.0293
748.0,0.0289
747.0,0.0285
746.0,0.0283
745.0,0.0285
744.0,0.0293
743.0,0.0309
742.0,0.0337
741.0,0.0379
740.0,0.0437
739.0,0.0508
738.0,0.0592
737.0,0.0689
736.0,0.0794
735.0,0.0907
734.0,0.1024
733.0,0.1148
732.0,0.1281
731.0,0.1422
730.0,0.1572
729.0,0.1735
728.0,0.1908
727.0,0.2081
726.0,0.224
725.0,0.2369
724.0,0.2454
723.0,0.2483
722.0,0.246
721.0,0.2397
720.0,0.2307
719.0,0.2201
718.0,0.2087
717.0,0.1976
716.0,0.1872
715.0,0.1779
714.0,0.1699
713.0,0.1632
712.0,0.1579
711.0,0.1534
710.0,0.1494
709.0,0.1458
708.0,0.1425
707.0,0.1392
706.0,0.1359
705.0,0.1328
704.0,0.1298
703.0,0.127
702.0,0.1243
701.0,0.122
700.0,0.1201
699.0,0.118
698.0,0.1152
697.0,0.1118
696.0,0.1084
695.0,0.1053
694.0,0.1028
693.0,0.101
692.0,0.1
691.0,0.0997
690.0,0.0996
689.0,0.0991
688.0,0.0973
687.0,0.0942
686.0,0.0907
685.0,0.0882
684.0,0.0873
683.0,0.0877
682.0,0.0887
681.0,0.0897
680.0,0.0903
679.0,0.0904
678.0,0.0901
677.0,0.0898
676.0,0.0897
675.0,0.0894
674.0,0.0883
673.0,0.0863
672.0,0.0841
671.0,0.0821
670.0,0.0808
669.0,0.0812
668.0,0.0831
667.0,0.0833
666.0,0.0813
665.0,0.0792
664.0,0.0778
663.0,0.0772
662.0,0.077
661.0,0.0768
660.0,0.0766
659.0,0.0765
658.0,0.0766
657.0,0.0767
656.0,0.0764
655.0,0.0756
654.0,0.0745
653.0,0.0738
652.0,0.0738
651.0,0.0741
650.0,0.0742
649.0,0.0741
648.0,0.0739
647.0,0.0733
646.0,0.0724
645.0,0.0715
644.0,0.0708
643.0,0.0704
642.0,0.07
641.0,0.0698
640.0,0.07
639.0,0.0708
638.0,0.072
637.0,0.0736
636.0,0.0755
635.0,0.0772
634.0,0.0781
633.0,0.0784
632.0,0.0781
631.0,0.0771
630.0,0.0757
629.0,0.0746
628.0,0.0742
627.0,0.074
626.0,0.0734
625.0,0.0723
624.0,0.0714
623.0,0.0711
622.0,0.0716
621.0,0.0723
620.0,0.0729
619.0,0.0729
618.0,0.0724
617.0,0.0721
616.0,0.0722
615.0,0.0725
614.0,0.0725
613.0,0.072
612.0,0.0714
611.0,0.0708
610.0,0.0705
609.0,0.0706
608.0,0.0708
607.0,0.0708
606.0,0.0704
605.0,0.0704
604.0,0.0709
603.0,0.0715
602.0,0.0717
601.0,0.0718
600.0,0.0721
