cm-1,A
4000.0,0.0064
3999.0,0.0065
3998.0,0.0065
3997.0,0.0064
3996.0,0.0064
3995.0,0.0065
3994.0,0.0065
3993.0,0.0066
3992.0,0.0066
3991.0,0.0066
3990.0,0.0066
3989.0,0.0066
3988.0,0.0066
3987.0,0.0067
3986.0,0.0067
3985.0,0.0067
3984.0,0.0066
3983.0,0.0066
3982.0,0.0065
3981.0,0.0065
3980.0,0.0066
3979.0,0.0066
3978.0,0.0066
3977.0,0.0067
3976.0,0.0067
3975.0,0.0067
3974.0,0.0067
3973.0,0.0066
3972.0,0.0066
3971.0,0.0065
3970.0,0.0065
3969.0,0.0065
3968.0,0.0065
3967.0,0.0065
3966.0,0.0065
3965.0,0.0065
3964.0,0.0065
3963.0,0.0066
3962.0,0.0066
3961.0,0.0067
3960.0,0.0067
3959.0,0.0068
3958.0,0.0069
3957.0,0.0069
3956.0,0.0068
3955.0,0.0067
3954.0,0.0066
3953.0,0.0066
3952.0,0.0066
3951.0,0.0066
3950.0,0.0066
3949.0,0.0067
3948.0,0.0067
3947.0,0.0068
3946.0,0.0068
3945.0,0.0068
3944.0,0.0067
3943.0,0.0067
3942.0,0.0066
3941.0,0.0065
3940.0,0.0065
3939.0,0.0066
3938.0,0.0066
3937.0,0.0067
3936.0,0.0067
3935.0,0.0066
3934.0,0.0066
3933.0,0.0065
3932.0,0.0065
3931.0,0.0066
3930.0,0.0066
3929.0,0.0067
3928.0,0.0068
3927.0,0.0068
3926.0,0.0068
3925.0,0.0068
3924.0,0.0068
3923.0,0.0068
3922.0,0.0069
3921.0,0.0069
3920.0,0.0069
3919.0,0.0069
3918.0,0.0068
3917.0,0.0068
3916.0,0.0068
3915.0,0.0068
3914.0,0.0068
3913.0,0.0068
3912.0,0.0068
3911.0,0.0068
3910.0,0.0067
3909.0,0.0067
3908.0,0.0067
3907.0,0.0067
3906.0,0.0068
3905.0,0.0069
3904.0,0.0071
3903.0,0.0071
3902.0,0.007
3901.0,0.0069
3900.0,0.0069
3899.0,0.0069
3898.0,0.0069
3897.0,0.007
3896.0,0.0071
3895.0,0.0071
3894.0,0.0071
3893.0,0.0071
3892.0,0.007
3891.0,0.0069
3890.0,0.0069
3889.0,0.007
3888.0,0.0069
3887.0,0.0069
3886.0,0.0069
3885.0,0.007
3884.0,0.0071
3883.0,0.0071
3882.0,0.0069
3881.0,0.0068
3880.0,0.0068
3879.0,0.0069
3878.0,0.0069
3877.0,0.0069
3876.0,0.0069
3875.0,0.0068
3874.0,0.0069
3873.0,0.0069
3872.0,0.007
3871.0,0.007
3870.0,0.007
3869.0,0.0071
3868.0,0.0072
3867.0,0.0072
3866.0,0.0073
3865.0,0.0073
3864.0,0.0072
3863.0,0.0071
3862.0,0.0069
3861.0,0.0069
3860.0,0.0069
3859.0,0.0069
3858.0,0.007
3857.0,0.0071
3856.0,0.0071
3855.0,0.0072
3854.0,0.0072
3853.0,0.0071
3852.0,0.0071
3851.0,0.0072
3850.0,0.0072
3849.0,0.0071
3848.0,0.0071
3847.0,0.0071
3846.0,0.0071
3845.0,0.0071
3844.0,0.0071
3843.0,0.0071
3842.0,0.0071
3841.0,0.0071
3840.0,0.0071
3839.0,0.0071
3838.0,0.0071
3837.0,0.007
3836.0,0.0071
3835.0,0.0071
3834.0,0.0071
3833.0,0.0071
3832.0,0.007
3831.0,0.0071
3830.0,0.0071
3829.0,0.0072
3828.0,0.0072
3827.0,0.0071
3826.0,0.0071
3825.0,0.0071
3824.0,0.0071
3823.0,0.0071
3822.0,0.0071
3821.0,0.0072
3820.0,0.0073
3819.0,0.0074
3818.0,0.0074
3817.0,0.0074
3816.0,0.0074
3815.0,0.0074
3814.0,0.0074
3813.0,0.0074
3812.0,0.0073
3811.0,0.0073
3810.0,0.0073
3809.0,0.0073
3808.0,0.0073
3807.0,0.0073
3806.0,0.0074
3805.0,0.0074
3804.0,0.0073
3803.0,0.0073
3802.0,0.0073
3801.0,0.0073
3800.0,0.0074
3799.0,0.0073
3798.0,0.0072
3797.0,0.0071
3796.0,0.0071
3795.0,0.0071
3794.0,0.0072
3793.0,0.0072
3792.0,0.0073
3791.0,0.0074
3790.0,0.0074
3789.0,0.0074
3788.0,0.0074
3787.0,0.0074
3786.0,0.0074
3785.0,0.0073
3784.0,0.0072
3783.0,0.0072
3782.0,0.0071
3781.0,0.007
3780.0,0.007
3779.0,0.007
3778.0,0.0071
3777.0,0.0071
3776.0,0.0072
3775.0,0.0073
3774.0,0.0074
3773.0,0.0075
3772.0,0.0076
3771.0,0.0076
3770.0,0.0076
3769.0,0.0075
3768.0,0.0075
3767.0,0.0074
3766.0,0.0074
3765.0,0.0075
3764.0,0.0075
3763.0,0.0074
3762.0,0.0073
3761.0,0.0073
3760.0,0.0075
3759.0,0.0076
3758.0,0.0076
3757.0,0.0076
3756.0,0.0077
3755.0,0.0077
3754.0,0.0079
3753.0,0.0081
3752.0,0.0085
3751.0,0.0086
3750.0,0.0085
3749.0,0.0083
3748.0,0.0082
3747.0,0.0081
3746.0,0.008
3745.0,0.008
3744.0,0.0081
3743.0,0.0082
3742.0,0.0081
3741.0,0.0079
3740.0,0.0077
3739.0,0.0077
3738.0,0.0077
3737.0,0.0078
3736.0,0.0079
3735.0,0.0078
3734.0,0.0076
3733.0,0.0075
3732.0,0.0074
3731.0,0.0074
3730.0,0.0074
3729.0,0.0074
3728.0,0.0073
3727.0,0.0074
3726.0,0.0075
3725.0,0.0076
3724.0,0.0075
3723.0,0.0075
3722.0,0.0074
3721.0,0.0074
3720.0,0.0074
3719.0,0.0074
3718.0,0.0075
3717.0,0.0077
3716.0,0.0078
3715.0,0.0078
3714.0,0.0078
3713.0,0.0079
3712.0,0.0079
3711.0,0.0079
3710.0,0.0078
3709.0,0.0078
3708.0,0.0077
3707.0,0.0076
3706.0,0.0076
3705.0,0.0075
3704.0,0.0075
3703.0,0.0074
3702.0,0.0073
3701.0,0.0073
3700.0,0.0074
3699.0,0.0074
3698.0,0.0075
3697.0,0.0076
3696.0,0.0077
3695.0,0.0079
3694.0,0.0079
3693.0,0.0079
3692.0,0.0079
3691.0,0.0079
3690.0,0.0079
3689.0,0.0079
3688.0,0.0079
3687.0,0.008
3686.0,0.008
3685.0,0.008
3684.0,0.008
3683.0,0.0081
3682.0,0.0082
3681.0,0.0083
3680.0,0.0083
3679.0,0.0083
3678.0,0.0082
3677.0,0.008
3676.0,0.0078
3675.0,0.0078
3674.0,0.0079
3673.0,0.008
3672.0,0.0081
3671.0,0.0081
3670.0,0.0081
3669.0,0.0081
3668.0,0.0081
3667.0,0.008
3666.0,0.008
3665.0,0.0079
3664.0,0.0079
3663.0,0.0078
3662.0,0.0078
3661.0,0.0078
3660.0,0.0078
3659.0,0.0079
3658.0,0.008
3657.0,0.0081
3656.0,0.0082
3655.0,0.0082
3654.0,0.0081
3653.0,0.008
3652.0,0.0079
3651.0,0.008
3650.0,0.0082
3649.0,0.0081
3648.0,0.0081
3647.0,0.0081
3646.0,0.0082
3645.0,0.0083
3644.0,0.0083
3643.0,0.0083
3642.0,0.0083
3641.0,0.0083
3640.0,0.0083
3639.0,0.0083
3638.0,0.0083
3637.0,0.0083
3636.0,0.0083
3635.0,0.0083
3634.0,0.0084
3633.0,0.0085
3632.0,0.0085
3631.0,0.0085
3630.0,0.0086
3629.0,0.0086
3628.0,0.0086
3627.0,0.0085
3626.0,0.0085
3625.0,0.0084
3624.0,0.0084
3623.0,0.0084
3622.0,0.0084
3621.0,0.0084
3620.0,0.0083
3619.0,0.0083
3618.0,0.0083
3617.0,0.0083
3616.0,0.0084
3615.0,0.0085
3614.0,0.0087
3613.0,0.0088
3612.0,0.0088
3611.0,0.0088
3610.0,0.0089
3609.0,0.009
3608.0,0.0091
3607.0,0.009
3606.0,0.0089
3605.0,0.0087
3604.0,0.0086
3603.0,0.0086
3602.0,0.0086
3601.0,0.0088
3600.0,0.0088
3599.0,0.0088
3598.0,0.0088
3597.0,0.0088
3596.0,0.0089
3595.0,0.009
3594.0,0.0091
3593.0,0.0092
3592.0,0.0093
3591.0,0.0093
3590.0,0.0094
3589.0,0.0094
3588.0,0.0095
3587.0,0.0095
3586.0,0.0094
3585.0,0.0094
3584.0,0.0094
3583.0,0.0093
3582.0,0.0093
3581.0,0.0092
3580.0,0.0093
3579.0,0.0093
3578.0,0.0093
3577.0,0.0093
3576.0,0.0093
3575.0,0.0092
3574.0,0.0093
3573.0,0.0093
3572.0,0.0094
3571.0,0.0094
3570.0,0.0094
3569.0,0.0093
3568.0,0.0094
3567.0,0.0095
3566.0,0.0095
3565.0,0.0095
3564.0,0.0095
3563.0,0.0095
3562.0,0.0095
3561.0,0.0095
3560.0,0.0095
3559.0,0.0095
3558.0,0.0094
3557.0,0.0095
3556.0,0.0095
3555.0,0.0095
3554.0,0.0095
3553.0,0.0095
3552.0,0.0095
3551.0,0.0095
3550.0,0.0096
3549.0,0.0096
3548.0,0.0097
3547.0,0.0098
3546.0,0.0099
3545.0,0.0099
3544.0,0.01
3543.0,0.01
3542.0,0.01
3541.0,0.01
3540.0,0.0101
3539.0,0.01
3538.0,0.01
3537.0,0.01
3536.0,0.01
3535.0,0.0099
3534.0,0.0099
3533.0,0.0099
3532.0,0.0099
3531.0,0.01
3530.0,0.01
3529.0,0.0101
3528.0,0.01
3527.0,0.01
3526.0,0.01
3525.0,0.0101
3524.0,0.0101
3523.0,0.0101
3522.0,0.0102
3521.0,0.0102
3520.0,0.0103
3519.0,0.0104
3518.0,0.0105
3517.0,0.0105
3516.0,0.0105
3515.0,0.0105
3514.0,0.0104
3513.0,0.0104
3512.0,0.0103
3511.0,0.0103
3510.0,0.0103
3509.0,0.0102
3508.0,0.0102
3507.0,0.0103
3506.0,0.0104
3505.0,0.0104
3504.0,0.0105
3503.0,0.0105
3502.0,0.0105
3501.0,0.0104
3500.0,0.0104
3499.0,0.0104
3498.0,0.0105
3497.0,0.0105
3496.0,0.0105
3495.0,0.0104
3494.0,0.0104
3493.0,0.0104
3492.0,0.0104
3491.0,0.0104
3490.0,0.0104
3489.0,0.0104
3488.0,0.0104
3487.0,0.0104
3486.0,0.0104
3485.0,0.0104
3484.0,0.0104
3483.0,0.0105
3482.0,0.0106
3481.0,0.0107
3480.0,0.0108
3479.0,0.0108
3478.0,0.0108
3477.0,0.0107
3476.0,0.0106
3475.0,0.0106
3474.0,0.0105
3473.0,0.0105
3472.0,0.0106
3471.0,0.0106
3470.0,0.0107
3469.0,0.0108
3468.0,0.0108
3467.0,0.0108
3466.0,0.0107
3465.0,0.0107
3464.0,0.0107
3463.0,0.0108
3462.0,0.0108
3461.0,0.0109
3460.0,0.0109
3459.0,0.0108
3458.0,0.0108
3457.0,0.0107
3456.0,0.0107
3455.0,0.0107
3454.0,0.0107
3453.0,0.0107
3452.0,0.0108
3451.0,0.0109
3450.0,0.011
3449.0,0.0111
3448.0,0.0111
3447.0,0.0111
3446.0,0.011
3445.0,0.0109
3444.0,0.0109
3443.0,0.0109
3442.0,0.0109
3441.0,0.0109
3440.0,0.0109
3439.0,0.0108
3438.0,0.0108
3437.0,0.0108
3436.0,0.0109
3435.0,0.0109
3434.0,0.0109
3433.0,0.0109
3432.0,0.0109
3431.0,0.0109
3430.0,0.011
3429.0,0.0111
3428.0,0.0111
3427.0,0.0111
3426.0,0.0111
3425.0,0.0111
3424.0,0.0111
3423.0,0.0111
3422.0,0.0112
3421.0,0.0112
3420.0,0.0112
3419.0,0.0112
3418.0,0.0111
3417.0,0.0111
3416.0,0.0111
3415.0,0.0112
3414.0,0.0112
3413.0,0.0111
3412.0,0.0111
3411.0,0.011
3410.0,0.011
3409.0,0.0111
3408.0,0.0112
3407.0,0.0113
3406.0,0.0113
3405.0,0.0113
3404.0,0.0113
3403.0,0.0113
3402.0,0.0112
3401.0,0.0112
3400.0,0.0111
3399.0,0.0111
3398.0,0.0111
3397.0,0.0111
3396.0,0.0111
3395.0,0.0111
3394.0,0.011
3393.0,0.011
3392.0,0.011
3391.0,0.0111
3390.0,0.0111
3389.0,0.0111
3388.0,0.0111
3387.0,0.0111
3386.0,0.0111
3385.0,0.0111
3384.0,0.0112
3383.0,0.0112
3382.0,0.0112
3381.0,0.0112
3380.0,0.0112
3379.0,0.0111
3378.0,0.0111
3377.0,0.011
3376.0,0.0111
3375.0,0.0111
3374.0,0.0112
3373.0,0.0112
3372.0,0.0113
3371.0,0.0113
3370.0,0.0112
3369.0,0.0112
3368.0,0.0111
3367.0,0.0111
3366.0,0.0111
3365.0,0.011
3364.0,0.011
3363.0,0.011
3362.0,0.011
3361.0,0.011
3360.0,0.0111
3359.0,0.0112
3358.0,0.0112
3357.0,0.0112
3356.0,0.0111
3355.0,0.011
3354.0,0.0109
3353.0,0.0109
3352.0,0.011
3351.0,0.0111
3350.0,0.0112
3349.0,0.0112
3348.0,0.0112
3347.0,0.0112
3346.0,0.0112
3345.0,0.0111
3344.0,0.011
3343.0,0.0108
3342.0,0.0108
3341.0,0.0108
3340.0,0.0109
3339.0,0.011
3338.0,0.011
3337.0,0.0109
3336.0,0.0109
3335.0,0.0109
3334.0,0.0109
3333.0,0.0109
3332.0,0.0109
3331.0,0.0109
3330.0,0.0109
3329.0,0.0109
3328.0,0.0108
3327.0,0.0108
3326.0,0.0109
3325.0,0.0109
3324.0,0.0109
3323.0,0.0109
3322.0,0.0108
3321.0,0.0107
3320.0,0.0107
3319.0,0.0107
3318.0,0.0108
3317.0,0.0108
3316.0,0.0108
3315.0,0.0108
3314.0,0.0107
3313.0,0.0107
3312.0,0.0107
3311.0,0.0108
3310.0,0.0108
3309.0,0.0108
3308.0,0.0108
3307.0,0.0109
3306.0,0.0109
3305.0,0.0109
3304.0,0.0109
3303.0,0.0108
3302.0,0.0107
3301.0,0.0107
3300.0,0.0107
3299.0,0.0108
3298.0,0.0108
3297.0,0.0109
3296.0,0.0109
3295.0,0.0108
3294.0,0.0107
3293.0,0.0106
3292.0,0.0106
3291.0,0.0105
3290.0,0.0105
3289.0,0.0106
3288.0,0.0106
3287.0,0.0105
3286.0,0.0105
3285.0,0.0105
3284.0,0.0105
3283.0,0.0105
3282.0,0.0105
3281.0,0.0105
3280.0,0.0104
3279.0,0.0104
3278.0,0.0104
3277.0,0.0103
3276.0,0.0103
3275.0,0.0103
3274.0,0.0103
3273.0,0.0102
3272.0,0.0102
3271.0,0.0102
3270.0,0.0103
3269.0,0.0105
3268.0,0.0106
3267.0,0.0106
3266.0,0.0105
3265.0,0.0104
3264.0,0.0103
3263.0,0.0102
3262.0,0.0101
3261.0,0.01
3260.0,0.01
3259.0,0.01
3258.0,0.01
3257.0,0.01
3256.0,0.01
3255.0,0.01
3254.0,0.0099
3253.0,0.0098
3252.0,0.0098
3251.0,0.0097
3250.0,0.0097
3249.0,0.0098
3248.0,0.0098
3247.0,0.0098
3246.0,0.0098
3245.0,0.0098
3244.0,0.0097
3243.0,0.0097
3242.0,0.0097
3241.0,0.0097
3240.0,0.0097
3239.0,0.0097
3238.0,0.0097
3237.0,0.0097
3236.0,0.0098
3235.0,0.0098
3234.0,0.0099
3233.0,0.0098
3232.0,0.0098
3231.0,0.0098
3230.0,0.0097
3229.0,0.0097
3228.0,0.0097
3227.0,0.0097
3226.0,0.0097
3225.0,0.0096
3224.0,0.0096
3223.0,0.0096
3222.0,0.0096
3221.0,0.0097
3220.0,0.0098
3219.0,0.0098
3218.0,0.0098
3217.0,0.0098
3216.0,0.0097
3215.0,0.0096
3214.0,0.0096
3213.0,0.0097
3212.0,0.0098
3211.0,0.0098
3210.0,0.0098
3209.0,0.0097
3208.0,0.0097
3207.0,0.0097
3206.0,0.0097
3205.0,0.0097
3204.0,0.0098
3203.0,0.0098
3202.0,0.0099
3201.0,0.0099
3200.0,0.01
3199.0,0.01
3198.0,0.01
3197.0,0.0099
3196.0,0.0097
3195.0,0.0096
3194.0,0.0095
3193.0,0.0095
3192.0,0.0095
3191.0,0.0095
3190.0,0.0095
3189.0,0.0095
3188.0,0.0095
3187.0,0.0095
3186.0,0.0095
3185.0,0.0094
3184.0,0.0094
3183.0,0.0094
3182.0,0.0093
3181.0,0.0093
3180.0,0.0092
3179.0,0.0092
3178.0,0.0092
3177.0,0.0093
3176.0,0.0093
3175.0,0.0093
3174.0,0.0093
3173.0,0.0092
3172.0,0.0092
3171.0,0.0091
3170.0,0.009
3169.0,0.009
3168.0,0.009
3167.0,0.0089
3166.0,0.0089
3165.0,0.0088
3164.0,0.0088
3163.0,0.0089
3162.0,0.0089
3161.0,0.0089
3160.0,0.0089
3159.0,0.0089
3158.0,0.0088
3157.0,0.0088
3156.0,0.0088
3155.0,0.0088
3154.0,0.0088
3153.0,0.0088
3152.0,0.0087
3151.0,0.0086
3150.0,0.0086
3149.0,0.0085
3148.0,0.0085
3147.0,0.0085
3146.0,0.0085
3145.0,0.0085
3144.0,0.0085
3143.0,0.0085
3142.0,0.0084
3141.0,0.0084
3140.0,0.0083
3139.0,0.0083
3138.0,0.0083
3137.0,0.0084
3136.0,0.0085
3135.0,0.0086
3134.0,0.0085
3133.0,0.0084
3132.0,0.0083
3131.0,0.0082
3130.0,0.0081
3129.0,0.008
3128.0,0.008
3127.0,0.008
3126.0,0.008
3125.0,0.008
3124.0,0.008
3123.0,0.0079
3122.0,0.0078
3121.0,0.0078
3120.0,0.0077
3119.0,0.0077
3118.0,0.0077
3117.0,0.0076
3116.0,0.0076
3115.0,0.0075
3114.0,0.0074
3113.0,0.0073
3112.0,0.0073
3111.0,0.0073
3110.0,0.0072
3109.0,0.0072
3108.0,0.0072
3107.0,0.0072
3106.0,0.0072
3105.0,0.0072
3104.0,0.0072
3103.0,0.0071
3102.0,0.0071
3101.0,0.0071
3100.0,0.007
3099.0,0.007
3098.0,0.0069
3097.0,0.0069
3096.0,0.0068
3095.0,0.0068
3094.0,0.0067
3093.0,0.0067
3092.0,0.0066
3091.0,0.0065
3090.0,0.0064
3089.0,0.0064
3088.0,0.0064
3087.0,0.0064
3086.0,0.0064
3085.0,0.0063
3084.0,0.0062
3083.0,0.0061
3082.0,0.0061
3081.0,0.0061
3080.0,0.0061
3079.0,0.0061
3078.0,0.0061
3077.0,0.0061
3076.0,0.0061
3075.0,0.0061
3074.0,0.006
3073.0,0.006
3072.0,0.0059
3071.0,0.0059
3070.0,0.0059
3069.0,0.0059
3068.0,0.0059
3067.0,0.0059
3066.0,0.0058
3065.0,0.0057
3064.0,0.0056
3063.0,0.0055
3062.0,0.0055
3061.0,0.0055
3060.0,0.0054
3059.0,0.0054
3058.0,0.0053
3057.0,0.0053
3056.0,0.0053
3055.0,0.0053
3054.0,0.0053
3053.0,0.0053
3052.0,0.0052
3051.0,0.0052
3050.0,0.0052
3049.0,0.0051
3048.0,0.005
3047.0,0.0049
3046.0,0.0048
3045.0,0.0048
3044.0,0.0047
3043.0,0.0047
3042.0,0.0046
3041.0,0.0046
3040.0,0.0045
3039.0,0.0045
3038.0,0.0044
3037.0,0.0043
3036.0,0.0042
3035.0,0.0042
3034.0,0.0042
3033.0,0.0042
3032.0,0.0042
3031.0,0.0041
3030.0,0.004
3029.0,0.0039
3028.0,0.0038
3027.0,0.0038
3026.0,0.0037
3025.0,0.0037
3024.0,0.0037
3023.0,0.0036
3022.0,0.0036
3021.0,0.0036
3020.0,0.0036
3019.0,0.0035
3018.0,0.0036
3017.0,0.0036
3016.0,0.0036
3015.0,0.0036
3014.0,0.0036
3013.0,0.0036
3012.0,0.0035
3011.0,0.0035
3010.0,0.0035
3009.0,0.0035
3008.0,0.0035
3007.0,0.0035
3006.0,0.0035
3005.0,0.0034
3004.0,0.0034
3003.0,0.0034
3002.0,0.0034
3001.0,0.0035
3000.0,0.0035
2999.0,0.0036
2998.0,0.0037
2997.0,0.0039
2996.0,0.004
2995.0,0.0042
2994.0,0.0043
2993.0,0.0044
2992.0,0.0046
2991.0,0.0049
2990.0,0.0053
2989.0,0.0058
2988.0,0.0064
2987.0,0.007
2986.0,0.0076
2985.0,0.0083
2984.0,0.009
2983.0,0.0099
2982.0,0.011
2981.0,0.0121
2980.0,0.0135
2979.0,0.0152
2978.0,0.0171
2977.0,0.0192
2976.0,0.0217
2975.0,0.0246
2974.0,0.0278
2973.0,0.0314
2972.0,0.0355
2971.0,0.04
2970.0,0.0449
2969.0,0.0503
2968.0,0.0561
2967.0,0.0621
2966.0,0.0683
2965.0,0.0744
2964.0,0.0803
2963.0,0.0855
2962.0,0.0898
2961.0,0.0934
2960.0,0.0963
2959.0,0.0989
2958.0,0.1018
2957.0,0.1052
2956.0,0.1095
2955.0,0.1148
2954.0,0.1209
2953.0,0.1274
2952.0,0.1336
2951.0,0.1384
2950.0,0.141
2949.0,0.1408
2948.0,0.1375
2947.0,0.1314
2946.0,0.1233
2945.0,0.1142
2944.0,0.1051
2943.0,0.0968
2942.0,0.0898
2941.0,0.0845
2940.0,0.0809
2939.0,0.0789
2938.0,0.0785
2937.0,0.0795
2936.0,0.0817
2935.0,0.0851
2934.0,0.0895
2933.0,0.0949
2932.0,0.1011
2931.0,0.108
2930.0,0.1153
2929.0,0.1228
2928.0,0.1302
2927.0,0.1375
2926.0,0.1444
2925.0,0.151
2924.0,0.1575
2923.0,0.164
2922.0,0.1706
2921.0,0.1771
2920.0,0.183
2919.0,0.1876
2918.0,0.1901
2917.0,0.1901
2916.0,0.1876
2915.0,0.1831
2914.0,0.1772
2913.0,0.1709
2912.0,0.1647
2911.0,0.1591
2910.0,0.154
2909.0,0.1494
2908.0,0.1451
2907.0,0.1408
2906.0,0.1366
2905.0,0.1324
2904.0,0.1281
2903.0,0.1239
2902.0,0.1196
2901.0,0.1154
2900.0,0.1113
2899.0,0.1075
2898.0,0.1039
2897.0,0.1006
2896.0,0.0976
2895.0,0.0949
2894.0,0.0927
2893.0,0.091
2892.0,0.0897
2891.0,0.0888
2890.0,0.0883
2889.0,0.0881
2888.0,0.0882
2887.0,0.0886
2886.0,0.0892
2885.0,0.09
2884.0,0.0912
2883.0,0.0927
2882.0,0.0946
2881.0,0.0968
2880.0,0.099
2879.0,0.101
2878.0,0.1023
2877.0,0.1029
2876.0,0.1028
2875.0,0.1024
2874.0,0.1021
2873.0,0.1021
2872.0,0.1028
2871.0,0.104
2870.0,0.1057
2869.0,0.1074
2868.0,0.1087
2867.0,0.1089
2866.0,0.1075
2865.0,0.1042
2864.0,0.0993
2863.0,0.0932
2862.0,0.0868
2861.0,0.0807
2860.0,0.0753
2859.0,0.071
2858.0,0.0676
2857.0,0.0651
2856.0,0.0633
2855.0,0.062
2854.0,0.0612
2853.0,0.0609
2852.0,0.061
2851.0,0.0614
2850.0,0.0623
2849.0,0.0636
2848.0,0.0655
2847.0,0.068
2846.0,0.0712
2845.0,0.0752
2844.0,0.0798
2843.0,0.0849
2842.0,0.0901
2841.0,0.095
2840.0,0.0991
2839.0,0.1019
2838.0,0.103
2837.0,0.1019
2836.0,0.0988
2835.0,0.0938
2834.0,0.0877
2833.0,0.0811
2832.0,0.0747
2831.0,0.0688
2830.0,0.0638
2829.0,0.0596
2828.0,0.0561
2827.0,0.0532
2826.0,0.0508
2825.0,0.0488
2824.0,0.047
2823.0,0.0454
2822.0,0.0441
2821.0,0.0429
2820.0,0.0419
2819.0,0.041
2818.0,0.0402
2817.0,0.0394
2816.0,0.0388
2815.0,0.0381
2814.0,0.0375
2813.0,0.0369
2812.0,0.0364
2811.0,0.0359
2810.0,0.0354
2809.0,0.0349
2808.0,0.0343
2807.0,0.0337
2806.0,0.0331
2805.0,0.0325
2804.0,0.0319
2803.0,0.0313
2802.0,0.0308
2801.0,0.0304
2800.0,0.03
2799.0,0.0297
2798.0,0.0294
2797.0,0.0291
2796.0,0.0288
2795.0,0.0285
2794.0,0.0282
2793.0,0.0279
2792.0,0.0276
2791.0,0.0272
2790.0,0.0269
2789.0,0.0266
2788.0,0.0264
2787.0,0.0261
2786.0,0.0258
2785.0,0.0255
2784.0,0.0252
2783.0,0.0249
2782.0,0.0246
2781.0,0.0244
2780.0,0.0241
2779.0,0.024
2778.0,0.0238
2777.0,0.0236
2776.0,0.0234
2775.0,0.0232
2774.0,0.0231
2773.0,0.023
2772.0,0.0229
2771.0,0.0228
2770.0,0.0226
2769.0,0.0225
2768.0,0.0225
2767.0,0.0224
2766.0,0.0224
2765.0,0.0223
2764.0,0.0222
2763.0,0.022
2762.0,0.0218
2761.0,0.0217
2760.0,0.0215
2759.0,0.0214
2758.0,0.0214
2757.0,0.0213
2756.0,0.0212
2755.0,0.0211
2754.0,0.021
2753.0,0.0209
2752.0,0.0209
2751.0,0.0208
2750.0,0.0207
2749.0,0.0207
2748.0,0.0206
2747.0,0.0206
2746.0,0.0207
2745.0,0.0207
2744.0,0.0207
2743.0,0.0208
2742.0,0.0208
2741.0,0.0209
2740.0,0.021
2739.0,0.021
2738.0,0.0211
2737.0,0.0211
2736.0,0.0212
2735.0,0.0213
2734.0,0.0214
2733.0,0.0215
2732.0,0.0216
2731.0,0.0217
2730.0,0.0219
2729.0,0.0221
2728.0,0.0223
2727.0,0.0226
2726.0,0.0228
2725.0,0.023
2724.0,0.0232
2723.0,0.0233
2722.0,0.0233
2721.0,0.0232
2720.0,0.023
2719.0,0.0227
2718.0,0.0223
2717.0,0.0221
2716.0,0.0218
2715.0,0.0216
2714.0,0.0214
2713.0,0.0212
2712.0,0.021
2711.0,0.0208
2710.0,0.0206
2709.0,0.0204
2708.0,0.0203
2707.0,0.0201
2706.0,0.0199
2705.0,0.0197
2704.0,0.0196
2703.0,0.0195
2702.0,0.0194
2701.0,0.0193
2700.0,0.0193
2699.0,0.0193
2698.0,0.0192
2697.0,0.0191
2696.0,0.0191
2695.0,0.019
2694.0,0.0189
2693.0,0.0189
2692.0,0.0189
2691.0,0.019
2690.0,0.0189
2689.0,0.0188
2688.0,0.0187
2687.0,0.0187
2686.0,0.0186
2685.0,0.0187
2684.0,0.0187
2683.0,0.0187
2682.0,0.0186
2681.0,0.0186
2680.0,0.0186
2679.0,0.0187
2678.0,0.0186
2677.0,0.0186
2676.0,0.0185
2675.0,0.0185
2674.0,0.0185
2673.0,0.0185
2672.0,0.0185
2671.0,0.0185
2670.0,0.0184
2669.0,0.0184
2668.0,0.0183
2667.0,0.0183
2666.0,0.0183
2665.0,0.0182
2664.0,0.0181
2663.0,0.0181
2662.0,0.0181
2661.0,0.0181
2660.0,0.0181
2659.0,0.0181
2658.0,0.0181
2657.0,0.0181
2656.0,0.0181
2655.0,0.0181
2654.0,0.018
2653.0,0.0179
2652.0,0.0178
2651.0,0.0177
2650.0,0.0177
2649.0,0.0177
2648.0,0.0177
2647.0,0.0177
2646.0,0.0177
2645.0,0.0176
2644.0,0.0175
2643.0,0.0174
2642.0,0.0173
2641.0,0.0172
2640.0,0.0171
2639.0,0.017
2638.0,0.017
2637.0,0.0171
2636.0,0.0171
2635.0,0.0171
2634.0,0.0171
2633.0,0.0171
2632.0,0.0171
2631.0,0.0171
2630.0,0.0172
2629.0,0.0172
2628.0,0.0172
2627.0,0.0171
2626.0,0.0171
2625.0,0.0171
2624.0,0.0171
2623.0,0.017
2622.0,0.017
2621.0,0.0171
2620.0,0.0171
2619.0,0.0171
2618.0,0.0171
2617.0,0.0171
2616.0,0.0171
2615.0,0.0171
2614.0,0.0171
2613.0,0.0171
2612.0,0.017
2611.0,0.0169
2610.0,0.0168
2609.0,0.0167
2608.0,0.0166
2607.0,0.0166
2606.0,0.0166
2605.0,0.0166
2604.0,0.0166
2603.0,0.0165
2602.0,0.0165
2601.0,0.0164
2600.0,0.0163
2599.0,0.0163
2598.0,0.0162
2597.0,0.0162
2596.0,0.0162
2595.0,0.0162
2594.0,0.0163
2593.0,0.0164
2592.0,0.0164
2591.0,0.0165
2590.0,0.0165
2589.0,0.0166
2588.0,0.0167
2587.0,0.0168
2586.0,0.0169
2585.0,0.017
2584.0,0.0171
2583.0,0.0172
2582.0,0.0173
2581.0,0.0173
2580.0,0.0173
2579.0,0.0172
2578.0,0.0171
2577.0,0.0169
2576.0,0.0168
2575.0,0.0167
2574.0,0.0166
2573.0,0.0165
2572.0,0.0165
2571.0,0.0164
2570.0,0.0162
2569.0,0.0161
2568.0,0.0161
2567.0,0.016
2566.0,0.0159
2565.0,0.0159
2564.0,0.0158
2563.0,0.0158
2562.0,0.0158
2561.0,0.0158
2560.0,0.0158
2559.0,0.0158
2558.0,0.0158
2557.0,0.0158
2556.0,0.0157
2555.0,0.0157
2554.0,0.0157
2553.0,0.0157
2552.0,0.0156
2551.0,0.0155
2550.0,0.0154
2549.0,0.0153
2548.0,0.0152
2547.0,0.0152
2546.0,0.0151
2545.0,0.0151
2544.0,0.0151
2543.0,0.0151
2542.0,0.0151
2541.0,0.0151
2540.0,0.015
2539.0,0.015
2538.0,0.0149
2537.0,0.0148
2536.0,0.0148
2535.0,0.0148
2534.0,0.0148
2533.0,0.0149
2532.0,0.0149
2531.0,0.0148
2530.0,0.0148
2529.0,0.0148
2528.0,0.0147
2527.0,0.0147
2526.0,0.0147
2525.0,0.0147
2524.0,0.0147
2523.0,0.0146
2522.0,0.0146
2521.0,0.0145
2520.0,0.0145
2519.0,0.0144
2518.0,0.0144
2517.0,0.0144
2516.0,0.0144
2515.0,0.0144
2514.0,0.0145
2513.0,0.0145
2512.0,0.0144
2511.0,0.0144
2510.0,0.0143
2509.0,0.0144
2508.0,0.0143
2507.0,0.0143
2506.0,0.0143
2505.0,0.0142
2504.0,0.0142
2503.0,0.0142
2502.0,0.0142
2501.0,0.0141
2500.0,0.0141
2499.0,0.0141
2498.0,0.0141
2497.0,0.0141
2496.0,0.0142
2495.0,0.0142
2494.0,0.0142
2493.0,0.0143
2492.0,0.0143
2491.0,0.0143
2490.0,0.0142
2489.0,0.0141
2488.0,0.0141
2487.0,0.0141
2486.0,0.0141
2485.0,0.0141
2484.0,0.0141
2483.0,0.0141
2482.0,0.0141
2481.0,0.014
2480.0,0.014
2479.0,0.014
2478.0,0.0139
2477.0,0.0139
2476.0,0.0138
2475.0,0.0138
2474.0,0.0138
2473.0,0.0138
2472.0,0.0138
2471.0,0.0138
2470.0,0.0139
2469.0,0.0139
2468.0,0.0139
2467.0,0.0138
2466.0,0.0138
2465.0,0.0138
2464.0,0.0137
2463.0,0.0137
2462.0,0.0137
2461.0,0.0137
2460.0,0.0137
2459.0,0.0137
2458.0,0.0137
2457.0,0.0137
2456.0,0.0138
2455.0,0.0138
2454.0,0.0138
2453.0,0.0138
2452.0,0.0137
2451.0,0.0137
2450.0,0.0137
2449.0,0.0137
2448.0,0.0137
2447.0,0.0137
2446.0,0.0136
2445.0,0.0136
2444.0,0.0136
2443.0,0.0136
2442.0,0.0136
2441.0,0.0136
2440.0,0.0136
2439.0,0.0136
2438.0,0.0136
2437.0,0.0137
2436.0,0.0137
2435.0,0.0137
2434.0,0.0137
2433.0,0.0137
2432.0,0.0137
2431.0,0.0137
2430.0,0.0138
2429.0,0.0138
2428.0,0.0139
2427.0,0.0138
2426.0,0.0138
2425.0,0.0137
2424.0,0.0137
2423.0,0.0137
2422.0,0.0137
2421.0,0.0137
2420.0,0.0137
2419.0,0.0137
2418.0,0.0137
2417.0,0.0136
2416.0,0.0136
2415.0,0.0136
2414.0,0.0136
2413.0,0.0135
2412.0,0.0135
2411.0,0.0136
2410.0,0.0136
2409.0,0.0135
2408.0,0.0135
2407.0,0.0135
2406.0,0.0135
2405.0,0.0135
2404.0,0.0135
2403.0,0.0136
2402.0,0.0136
2401.0,0.0136
2400.0,0.0136
2399.0,0.0136
2398.0,0.0136
2397.0,0.0136
2396.0,0.0136
2395.0,0.0136
2394.0,0.0136
2393.0,0.0136
2392.0,0.0136
2391.0,0.0136
2390.0,0.0136
2389.0,0.0137
2388.0,0.0138
2387.0,0.0138
2386.0,0.0139
2385.0,0.0139
2384.0,0.0139
2383.0,0.0138
2382.0,0.0137
2381.0,0.0136
2380.0,0.0136
2379.0,0.0136
2378.0,0.0135
2377.0,0.0134
2376.0,0.0132
2375.0,0.013
2374.0,0.0128
2373.0,0.0129
2372.0,0.0135
2371.0,0.0143
2370.0,0.015
2369.0,0.0154
2368.0,0.0159
2367.0,0.0167
2366.0,0.0173
2365.0,0.0171
2364.0,0.0158
2363.0,0.0136
2362.0,0.0106
2361.0,0.0079
2360.0,0.0069
2359.0,0.0084
2358.0,0.0115
2357.0,0.0138
2356.0,0.0142
2355.0,0.0132
2354.0,0.0118
2353.0,0.0109
2352.0,0.0108
2351.0,0.0114
2350.0,0.0122
2349.0,0.0126
2348.0,0.0123
2347.0,0.0117
2346.0,0.0114
2345.0,0.0117
2344.0,0.0124
2343.0,0.0129
2342.0,0.0128
2341.0,0.0122
2340.0,0.012
2339.0,0.0122
2338.0,0.0124
2337.0,0.0124
2336.0,0.0123
2335.0,0.0125
2334.0,0.0125
2333.0,0.0122
2332.0,0.0116
2331.0,0.0113
2330.0,0.0116
2329.0,0.0122
2328.0,0.0126
2327.0,0.0128
2326.0,0.0126
2325.0,0.0122
2324.0,0.0121
2323.0,0.0123
2322.0,0.0128
2321.0,0.0134
2320.0,0.014
2319.0,0.0145
2318.0,0.0147
2317.0,0.0147
2316.0,0.0144
2315.0,0.014
2314.0,0.0138
2313.0,0.0138
2312.0,0.014
2311.0,0.014
2310.0,0.014
2309.0,0.0139
2308.0,0.0138
2307.0,0.0137
2306.0,0.0137
2305.0,0.0137
2304.0,0.0137
2303.0,0.0137
2302.0,0.0138
2301.0,0.0138
2300.0,0.0137
2299.0,0.0137
2298.0,0.0136
2297.0,0.0135
2296.0,0.0134
2295.0,0.0133
2294.0,0.0132
2293.0,0.0131
2292.0,0.0131
2291.0,0.013
2290.0,0.013
2289.0,0.013
2288.0,0.013
2287.0,0.0129
2286.0,0.0129
2285.0,0.0129
2284.0,0.0129
2283.0,0.0128
2282.0,0.0128
2281.0,0.0127
2280.0,0.0127
2279.0,0.0127
2278.0,0.0127
2277.0,0.0127
2276.0,0.0127
2275.0,0.0127
2274.0,0.0127
2273.0,0.0126
2272.0,0.0126
2271.0,0.0126
2270.0,0.0126
2269.0,0.0126
2268.0,0.0126
2267.0,0.0126
2266.0,0.0126
2265.0,0.0127
2264.0,0.0127
2263.0,0.0127
2262.0,0.0127
2261.0,0.0127
2260.0,0.0127
2259.0,0.0128
2258.0,0.0128
2257.0,0.0128
2256.0,0.0128
2255.0,0.0128
2254.0,0.0128
2253.0,0.0128
2252.0,0.0127
2251.0,0.0127
2250.0,0.0127
2249.0,0.0126
2248.0,0.0126
2247.0,0.0125
2246.0,0.0125
2245.0,0.0125
2244.0,0.0126
2243.0,0.0126
2242.0,0.0127
2241.0,0.0127
2240.0,0.0127
2239.0,0.0126
2238.0,0.0126
2237.0,0.0126
2236.0,0.0126
2235.0,0.0126
2234.0,0.0126
2233.0,0.0126
2232.0,0.0126
2231.0,0.0125
2230.0,0.0125
2229.0,0.0125
2228.0,0.0125
2227.0,0.0125
2226.0,0.0125
2225.0,0.0125
2224.0,0.0125
2223.0,0.0125
2222.0,0.0124
2221.0,0.0124
2220.0,0.0124
2219.0,0.0124
2218.0,0.0124
2217.0,0.0124
2216.0,0.0125
2215.0,0.0125
2214.0,0.0124
2213.0,0.0124
2212.0,0.0124
2211.0,0.0124
2210.0,0.0124
2209.0,0.0124
2208.0,0.0125
2207.0,0.0125
2206.0,0.0125
2205.0,0.0125
2204.0,0.0125
2203.0,0.0125
2202.0,0.0126
2201.0,0.0126
2200.0,0.0126
2199.0,0.0126
2198.0,0.0126
2197.0,0.0126
2196.0,0.0125
2195.0,0.0125
2194.0,0.0125
2193.0,0.0125
2192.0,0.0125
2191.0,0.0125
2190.0,0.0126
2189.0,0.0126
2188.0,0.0125
2187.0,0.0125
2186.0,0.0125
2185.0,0.0125
2184.0,0.0125
2183.0,0.0125
2182.0,0.0125
2181.0,0.0125
2180.0,0.0125
2179.0,0.0126
2178.0,0.0126
2177.0,0.0127
2176.0,0.0127
2175.0,0.0127
2174.0,0.0127
2173.0,0.0127
2172.0,0.0127
2171.0,0.0126
2170.0,0.0126
2169.0,0.0125
2168.0,0.0125
2167.0,0.0125
2166.0,0.0125
2165.0,0.0125
2164.0,0.0125
2163.0,0.0126
2162.0,0.0126
2161.0,0.0126
2160.0,0.0126
2159.0,0.0125
2158.0,0.0125
2157.0,0.0124
2156.0,0.0124
2155.0,0.0124
2154.0,0.0124
2153.0,0.0125
2152.0,0.0125
2151.0,0.0124
2150.0,0.0123
2149.0,0.0123
2148.0,0.0123
2147.0,0.0123
2146.0,0.0123
2145.0,0.0124
2144.0,0.0124
2143.0,0.0124
2142.0,0.0124
2141.0,0.0124
2140.0,0.0124
2139.0,0.0124
2138.0,0.0124
2137.0,0.0124
2136.0,0.0124
2135.0,0.0124
2134.0,0.0124
2133.0,0.0124
2132.0,0.0124
2131.0,0.0124
2130.0,0.0124
2129.0,0.0124
2128.0,0.0124
2127.0,0.0124
2126.0,0.0124
2125.0,0.0124
2124.0,0.0124
2123.0,0.0124
2122.0,0.0123
2121.0,0.0123
2120.0,0.0123
2119.0,0.0122
2118.0,0.0122
2117.0,0.0122
2116.0,0.0122
2115.0,0.0123
2114.0,0.0123
2113.0,0.0122
2112.0,0.0122
2111.0,0.0122
2110.0,0.0121
2109.0,0.0121
2108.0,0.0121
2107.0,0.0121
2106.0,0.0121
2105.0,0.0122
2104.0,0.0122
2103.0,0.0122
2102.0,0.0122
2101.0,0.0122
2100.0,0.0121
2099.0,0.0121
2098.0,0.0121
2097.0,0.0121
2096.0,0.0121
2095.0,0.0121
2094.0,0.0122
2093.0,0.0122
2092.0,0.0122
2091.0,0.0122
2090.0,0.0122
2089.0,0.0122
2088.0,0.0122
2087.0,0.0122
2086.0,0.0122
2085.0,0.0122
2084.0,0.0122
2083.0,0.0122
2082.0,0.0122
2081.0,0.0121
2080.0,0.0121
2079.0,0.012
2078.0,0.012
2077.0,0.012
2076.0,0.012
2075.0,0.0121
2074.0,0.0121
2073.0,0.0121
2072.0,0.012
2071.0,0.012
2070.0,0.012
2069.0,0.012
2068.0,0.012
2067.0,0.012
2066.0,0.012
2065.0,0.012
2064.0,0.012
2063.0,0.012
2062.0,0.0119
2061.0,0.012
2060.0,0.012
2059.0,0.012
2058.0,0.012
2057.0,0.012
2056.0,0.0121
2055.0,0.0121
2054.0,0.0121
2053.0,0.012
2052.0,0.012
2051.0,0.012
2050.0,0.012
2049.0,0.0121
2048.0,0.0121
2047.0,0.0121
2046.0,0.0122
2045.0,0.0122
2044.0,0.0122
2043.0,0.0121
2042.0,0.0121
2041.0,0.0121
2040.0,0.0121
2039.0,0.0121
2038.0,0.0122
2037.0,0.0121
2036.0,0.0121
2035.0,0.0121
2034.0,0.0121
2033.0,0.012
2032.0,0.012
2031.0,0.012
2030.0,0.0121
2029.0,0.0121
2028.0,0.0121
2027.0,0.0122
2026.0,0.0122
2025.0,0.0122
2024.0,0.0122
2023.0,0.0121
2022.0,0.0121
2021.0,0.0121
2020.0,0.0121
2019.0,0.0121
2018.0,0.0121
2017.0,0.0121
2016.0,0.0122
2015.0,0.0122
2014.0,0.0122
2013.0,0.0121
2012.0,0.0121
2011.0,0.0122
2010.0,0.0122
2009.0,0.0122
2008.0,0.0122
2007.0,0.0121
2006.0,0.0122
2005.0,0.0122
2004.0,0.0122
2003.0,0.0122
2002.0,0.0122
2001.0,0.0122
2000.0,0.0121
1999.0,0.0121
1998.0,0.0121
1997.0,0.0121
1996.0,0.0121
1995.0,0.0121
1994.0,0.0121
1993.0,0.0121
1992.0,0.0121
1991.0,0.0121
1990.0,0.0121
1989.0,0.0121
1988.0,0.0121
1987.0,0.0121
1986.0,0.0122
1985.0,0.0122
1984.0,0.0122
1983.0,0.0122
1982.0,0.0122
1981.0,0.0121
1980.0,0.0121
1979.0,0.0121
1978.0,0.0121
1977.0,0.0121
1976.0,0.0121
1975.0,0.0121
1974.0,0.0121
1973.0,0.0121
1972.0,0.0121
1971.0,0.0121
1970.0,0.0121
1969.0,0.0121
1968.0,0.0121
1967.0,0.0122
1966.0,0.0122
1965.0,0.0122
1964.0,0.0122
1963.0,0.0122
1962.0,0.0122
1961.0,0.0122
1960.0,0.0121
1959.0,0.0121
1958.0,0.0121
1957.0,0.0121
1956.0,0.0122
1955.0,0.0122
1954.0,0.0121
1953.0,0.0121
1952.0,0.0121
1951.0,0.0121
1950.0,0.0121
1949.0,0.0121
1948.0,0.0121
1947.0,0.0122
1946.0,0.0122
1945.0,0.0122
1944.0,0.0122
1943.0,0.0122
1942.0,0.0122
1941.0,0.0123
1940.0,0.0123
1939.0,0.0123
1938.0,0.0123
1937.0,0.0123
1936.0,0.0123
1935.0,0.0122
1934.0,0.0122
1933.0,0.0122
1932.0,0.0122
1931.0,0.0122
1930.0,0.0122
1929.0,0.0122
1928.0,0.0122
1927.0,0.0122
1926.0,0.0122
1925.0,0.0122
1924.0,0.0123
1923.0,0.0123
1922.0,0.0123
1921.0,0.0124
1920.0,0.0124
1919.0,0.0124
1918.0,0.0124
1917.0,0.0124
1916.0,0.0124
1915.0,0.0123
1914.0,0.0123
1913.0,0.0123
1912.0,0.0123
1911.0,0.0123
1910.0,0.0123
1909.0,0.0123
1908.0,0.0123
1907.0,0.0123
1906.0,0.0123
1905.0,0.0123
1904.0,0.0123
1903.0,0.0123
1902.0,0.0123
1901.0,0.0123
1900.0,0.0123
1899.0,0.0123
1898.0,0.0123
1897.0,0.0123
1896.0,0.0123
1895.0,0.0123
1894.0,0.0124
1893.0,0.0124
1892.0,0.0124
1891.0,0.0124
1890.0,0.0124
1889.0,0.0124
1888.0,0.0124
1887.0,0.0124
1886.0,0.0124
1885.0,0.0124
1884.0,0.0123
1883.0,0.0123
1882.0,0.0123
1881.0,0.0124
1880.0,0.0124
1879.0,0.0124
1878.0,0.0124
1877.0,0.0124
1876.0,0.0123
1875.0,0.0123
1874.0,0.0123
1873.0,0.0123
1872.0,0.0123
1871.0,0.0122
1870.0,0.0122
1869.0,0.0122
1868.0,0.0122
1867.0,0.0123
1866.0,0.0124
1865.0,0.0124
1864.0,0.0125
1863.0,0.0125
1862.0,0.0125
1861.0,0.0125
1860.0,0.0125
1859.0,0.0125
1858.0,0.0125
1857.0,0.0125
1856.0,0.0125
1855.0,0.0125
1854.0,0.0125
1853.0,0.0126
1852.0,0.0126
1851.0,0.0125
1850.0,0.0125
1849.0,0.0125
1848.0,0.0126
1847.0,0.0126
1846.0,0.0126
1845.0,0.0126
1844.0,0.0126
1843.0,0.0126
1842.0,0.0125
1841.0,0.0125
1840.0,0.0125
1839.0,0.0125
1838.0,0.0125
1837.0,0.0125
1836.0,0.0125
1835.0,0.0126
1834.0,0.0126
1833.0,0.0127
1832.0,0.0127
1831.0,0.0127
1830.0,0.0126
1829.0,0.0126
1828.0,0.0125
1827.0,0.0125
1826.0,0.0125
1825.0,0.0125
1824.0,0.0126
1823.0,0.0126
1822.0,0.0126
1821.0,0.0125
1820.0,0.0125
1819.0,0.0125
1818.0,0.0124
1817.0,0.0124
1816.0,0.0124
1815.0,0.0124
1814.0,0.0125
1813.0,0.0125
1812.0,0.0125
1811.0,0.0125
1810.0,0.0125
1809.0,0.0125
1808.0,0.0125
1807.0,0.0125
1806.0,0.0125
1805.0,0.0125
1804.0,0.0125
1803.0,0.0124
1802.0,0.0124
1801.0,0.0124
1800.0,0.0124
1799.0,0.0125
1798.0,0.0126
1797.0,0.0127
1796.0,0.0127
1795.0,0.0127
1794.0,0.0127
1793.0,0.0127
1792.0,0.0127
1791.0,0.0127
1790.0,0.0127
1789.0,0.0127
1788.0,0.0128
1787.0,0.0128
1786.0,0.0128
1785.0,0.0129
1784.0,0.0129
1783.0,0.0128
1782.0,0.0128
1781.0,0.0127
1780.0,0.0128
1779.0,0.0128
1778.0,0.0129
1777.0,0.013
1776.0,0.0131
1775.0,0.0131
1774.0,0.0131
1773.0,0.0131
1772.0,0.0131
1771.0,0.0131
1770.0,0.0131
1769.0,0.0132
1768.0,0.0133
1767.0,0.0133
1766.0,0.0134
1765.0,0.0134
1764.0,0.0135
1763.0,0.0137
1762.0,0.0138
1761.0,0.0139
1760.0,0.0141
1759.0,0.0142
1758.0,0.0145
1757.0,0.0147
1756.0,0.0151
1755.0,0.0153
1754.0,0.0155
1753.0,0.0158
1752.0,0.0161
1751.0,0.0165
1750.0,0.0169
1749.0,0.0171
1748.0,0.0172
1747.0,0.0174
1746.0,0.0175
1745.0,0.0176
1744.0,0.0177
1743.0,0.0178
1742.0,0.0178
1741.0,0.0177
1740.0,0.0176
1739.0,0.0174
1738.0,0.0173
1737.0,0.0172
1736.0,0.017
1735.0,0.0168
1734.0,0.0164
1733.0,0.0161
1732.0,0.0159
1731.0,0.0158
1730.0,0.0157
1729.0,0.0157
1728.0,0.0157
1727.0,0.0156
1726.0,0.0156
1725.0,0.0155
1724.0,0.0155
1723.0,0.0154
1722.0,0.0154
1721.0,0.0153
1720.0,0.0152
1719.0,0.0151
1718.0,0.0152
1717.0,0.0153
1716.0,0.0153
1715.0,0.0152
1714.0,0.0151
1713.0,0.0151
1712.0,0.0151
1711.0,0.0151
1710.0,0.0151
1709.0,0.0151
1708.0,0.0151
1707.0,0.015
1706.0,0.0149
1705.0,0.015
1704.0,0.0151
1703.0,0.0152
1702.0,0.0152
1701.0,0.0152
1700.0,0.0152
1699.0,0.0152
1698.0,0.0152
1697.0,0.0152
1696.0,0.0152
1695.0,0.0153
1694.0,0.0154
1693.0,0.0154
1692.0,0.0155
1691.0,0.0155
1690.0,0.0155
1689.0,0.0157
1688.0,0.0158
1687.0,0.0159
1686.0,0.0158
1685.0,0.0158
1684.0,0.0158
1683.0,0.0158
1682.0,0.016
1681.0,0.0161
1680.0,0.0162
1679.0,0.0164
1678.0,0.0165
1677.0,0.0165
1676.0,0.0166
1675.0,0.0167
1674.0,0.0167
1673.0,0.0167
1672.0,0.0167
1671.0,0.0167
1670.0,0.0168
1669.0,0.0167
1668.0,0.0168
1667.0,0.0168
1666.0,0.0169
1665.0,0.017
1664.0,0.0171
1663.0,0.0172
1662.0,0.0172
1661.0,0.0172
1660.0,0.0173
1659.0,0.0173
1658.0,0.0174
1657.0,0.0174
1656.0,0.0174
1655.0,0.0172
1654.0,0.0173
1653.0,0.0174
1652.0,0.0174
1651.0,0.0174
1650.0,0.0174
1649.0,0.0174
1648.0,0.0174
1647.0,0.0174
1646.0,0.0173
1645.0,0.0173
1644.0,0.0173
1643.0,0.0173
1642.0,0.0173
1641.0,0.0173
1640.0,0.0172
1639.0,0.0172
1638.0,0.0171
1637.0,0.0171
1636.0,0.0172
1635.0,0.0171
1634.0,0.0171
1633.0,0.0171
1632.0,0.0171
1631.0,0.017
1630.0,0.0169
1629.0,0.0168
1628.0,0.0168
1627.0,0.0168
1626.0,0.0168
1625.0,0.0168
1624.0,0.0167
1623.0,0.0167
1622.0,0.0166
1621.0,0.0166
1620.0,0.0166
1619.0,0.0166
1618.0,0.0166
1617.0,0.0166
1616.0,0.0165
1615.0,0.0165
1614.0,0.0165
1613.0,0.0165
1612.0,0.0165
1611.0,0.0164
1610.0,0.0164
1609.0,0.0164
1608.0,0.0165
1607.0,0.0165
1606.0,0.0165
1605.0,0.0164
1604.0,0.0163
1603.0,0.0162
1602.0,0.0161
1601.0,0.0161
1600.0,0.0161
1599.0,0.0161
1598.0,0.0161
1597.0,0.016
1596.0,0.016
1595.0,0.0159
1594.0,0.0159
1593.0,0.0158
1592.0,0.0158
1591.0,0.0158
1590.0,0.0158
1589.0,0.0158
1588.0,0.0158
1587.0,0.0158
1586.0,0.0158
1585.0,0.0158
1584.0,0.0158
1583.0,0.0157
1582.0,0.0157
1581.0,0.0157
1580.0,0.0156
1579.0,0.0156
1578.0,0.0155
1577.0,0.0154
1576.0,0.0154
1575.0,0.0153
1574.0,0.0153
1573.0,0.0153
1572.0,0.0153
1571.0,0.0152
1570.0,0.0151
1569.0,0.015
1568.0,0.015
1567.0,0.015
1566.0,0.015
1565.0,0.015
1564.0,0.0151
1563.0,0.0152
1562.0,0.0151
1561.0,0.0149
1560.0,0.0149
1559.0,0.0152
1558.0,0.0151
1557.0,0.0152
1556.0,0.0154
1555.0,0.0154
1554.0,0.0154
1553.0,0.0153
1552.0,0.0152
1551.0,0.0151
1550.0,0.0151
1549.0,0.0151
1548.0,0.0151
1547.0,0.0151
1546.0,0.0151
1545.0,0.0152
1544.0,0.0154
1543.0,0.0155
1542.0,0.0155
1541.0,0.0155
1540.0,0.015
1539.0,0.0145
1538.0,0.0144
1537.0,0.0145
1536.0,0.0145
1535.0,0.0145
1534.0,0.0144
1533.0,0.0144
1532.0,0.0143
1531.0,0.0142
1530.0,0.0141
1529.0,0.0141
1528.0,0.0141
1527.0,0.0141
1526.0,0.0142
1525.0,0.0142
1524.0,0.0142
1523.0,0.0141
1522.0,0.014
1521.0,0.0139
1520.0,0.0138
1519.0,0.0137
1518.0,0.0136
1517.0,0.0136
1516.0,0.0136
1515.0,0.0136
1514.0,0.0136
1513.0,0.0136
1512.0,0.0136
1511.0,0.0136
1510.0,0.0135
1509.0,0.0135
1508.0,0.0137
1507.0,0.0134
1506.0,0.013
1505.0,0.0131
1504.0,0.0133
1503.0,0.0133
1502.0,0.0133
1501.0,0.0134
1500.0,0.0135
1499.0,0.0136
1498.0,0.0135
1497.0,0.0135
1496.0,0.0135
1495.0,0.0134
1494.0,0.0134
1493.0,0.0134
1492.0,0.0135
1491.0,0.0136
1490.0,0.0136
1489.0,0.0137
1488.0,0.0138
1487.0,0.0138
1486.0,0.014
1485.0,0.0143
1484.0,0.0147
1483.0,0.015
1482.0,0.0155
1481.0,0.0161
1480.0,0.0168
1479.0,0.0174
1478.0,0.0182
1477.0,0.0194
1476.0,0.0209
1475.0,0.0227
1474.0,0.0254
1473.0,0.03
1472.0,0.0356
1471.0,0.0404
1470.0,0.045
1469.0,0.0497
1468.0,0.055
1467.0,0.0608
1466.0,0.0681
1465.0,0.0765
1464.0,0.0838
1463.0,0.0885
1462.0,0.0914
1461.0,0.0935
1460.0,0.0951
1459.0,0.0964
1458.0,0.0981
1457.0,0.1002
1456.0,0.1009
1455.0,0.1006
1454.0,0.1001
1453.0,0.0994
1452.0,0.098
1451.0,0.0959
1450.0,0.0928
1449.0,0.0882
1448.0,0.0819
1447.0,0.0753
1446.0,0.0695
1445.0,0.0645
1444.0,0.06
1443.0,0.0561
1442.0,0.0532
1441.0,0.0511
1440.0,0.0498
1439.0,0.0492
1438.0,0.0494
1437.0,0.0502
1436.0,0.0502
1435.0,0.0487
1434.0,0.0461
1433.0,0.0428
1432.0,0.0391
1431.0,0.0357
1430.0,0.033
1429.0,0.031
1428.0,0.0296
1427.0,0.0287
1426.0,0.0279
1425.0,0.0271
1424.0,0.0264
1423.0,0.026
1422.0,0.0257
1421.0,0.0253
1420.0,0.0248
1419.0,0.0245
1418.0,0.0242
1417.0,0.0239
1416.0,0.0235
1415.0,0.0233
1414.0,0.0231
1413.0,0.0228
1412.0,0.0225
1411.0,0.0223
1410.0,0.0221
1409.0,0.0218
1408.0,0.0215
1407.0,0.0213
1406.0,0.0211
1405.0,0.0208
1404.0,0.0206
1403.0,0.0205
1402.0,0.0204
1401.0,0.0202
1400.0,0.02
1399.0,0.0199
1398.0,0.0198
1397.0,0.0196
1396.0,0.0194
1395.0,0.0193
1394.0,0.0194
1393.0,0.0194
1392.0,0.0194
1391.0,0.0196
1390.0,0.0199
1389.0,0.0204
1388.0,0.0215
1387.0,0.0235
1386.0,0.0265
1385.0,0.0307
1384.0,0.0366
1383.0,0.0453
1382.0,0.0571
1381.0,0.0723
1380.0,0.0912
1379.0,0.1128
1378.0,0.1338
1377.0,0.1497
1376.0,0.1568
1375.0,0.1524
1374.0,0.1377
1373.0,0.1195
1372.0,0.1029
1371.0,0.0887
1370.0,0.0765
1369.0,0.0664
1368.0,0.0591
1367.0,0.0544
1366.0,0.0516
1365.0,0.0501
1364.0,0.0499
1363.0,0.0508
1362.0,0.0525
1361.0,0.0544
1360.0,0.0558
1359.0,0.0564
1358.0,0.0557
1357.0,0.0539
1356.0,0.0512
1355.0,0.048
1354.0,0.0448
1353.0,0.0421
1352.0,0.0397
1351.0,0.0378
1350.0,0.0361
1349.0,0.0347
1348.0,0.0335
1347.0,0.0324
1346.0,0.0315
1345.0,0.0307
1344.0,0.03
1343.0,0.0294
1342.0,0.0289
1341.0,0.0286
1340.0,0.0282
1339.0,0.0279
1338.0,0.0277
1337.0,0.0276
1336.0,0.0275
1335.0,0.0276
1334.0,0.0278
1333.0,0.0281
1332.0,0.0284
1331.0,0.0288
1330.0,0.0289
1329.0,0.0289
1328.0,0.0286
1327.0,0.0282
1326.0,0.0276
1325.0,0.0271
1324.0,0.0266
1323.0,0.0262
1322.0,0.0259
1321.0,0.0256
1320.0,0.0254
1319.0,0.0251
1318.0,0.0249
1317.0,0.0247
1316.0,0.0246
1315.0,0.0244
1314.0,0.0243
1313.0,0.0242
1312.0,0.0241
1311.0,0.0241
1310.0,0.0243
1309.0,0.0246
1308.0,0.0251
1307.0,0.0257
1306.0,0.0264
1305.0,0.0269
1304.0,0.0271
1303.0,0.027
1302.0,0.0268
1301.0,0.0267
1300.0,0.0267
1299.0,0.0268
1298.0,0.027
1297.0,0.0271
1296.0,0.0272
1295.0,0.0271
1294.0,0.0269
1293.0,0.0266
1292.0,0.0262
1291.0,0.0258
1290.0,0.0254
1289.0,0.0251
1288.0,0.0248
1287.0,0.0246
1286.0,0.0245
1285.0,0.0244
1284.0,0.0242
1283.0,0.0242
1282.0,0.0241
1281.0,0.024
1280.0,0.0239
1279.0,0.0238
1278.0,0.0238
1277.0,0.0237
1276.0,0.0237
1275.0,0.0237
1274.0,0.0237
1273.0,0.0238
1272.0,0.0238
1271.0,0.0239
1270.0,0.0239
1269.0,0.0239
1268.0,0.0239
1267.0,0.0239
1266.0,0.0239
1265.0,0.0241
1264.0,0.0242
1263.0,0.0244
1262.0,0.0247
1261.0,0.025
1260.0,0.0253
1259.0,0.0258
1258.0,0.0263
1257.0,0.0267
1256.0,0.0269
1255.0,0.0268
1254.0,0.0264
1253.0,0.0259
1252.0,0.0254
1251.0,0.025
1250.0,0.0246
1249.0,0.0244
1248.0,0.0242
1247.0,0.024
1246.0,0.0238
1245.0,0.0236
1244.0,0.0235
1243.0,0.0234
1242.0,0.0233
1241.0,0.0232
1240.0,0.0232
1239.0,0.0231
1238.0,0.0231
1237.0,0.023
1236.0,0.023
1235.0,0.0229
1234.0,0.0229
1233.0,0.0229
1232.0,0.023
1231.0,0.023
1230.0,0.0231
1229.0,0.0231
1228.0,0.0232
1227.0,0.0233
1226.0,0.0235
1225.0,0.0237
1224.0,0.0239
1223.0,0.0242
1222.0,0.0245
1221.0,0.0247
1220.0,0.0249
1219.0,0.025
1218.0,0.0249
1217.0,0.0248
1216.0,0.0246
1215.0,0.0244
1214.0,0.0241
1213.0,0.024
1212.0,0.0239
1211.0,0.0239
1210.0,0.0238
1209.0,0.0236
1208.0,0.0235
1207.0,0.0234
1206.0,0.0234
1205.0,0.0234
1204.0,0.0235
1203.0,0.0235
1202.0,0.0236
1201.0,0.0236
1200.0,0.0237
1199.0,0.0237
1198.0,0.0238
1197.0,0.0239
1196.0,0.024
1195.0,0.024
1194.0,0.0241
1193.0,0.0241
1192.0,0.024
1191.0,0.024
1190.0,0.024
1189.0,0.0241
1188.0,0.0242
1187.0,0.0242
1186.0,0.0244
1185.0,0.0245
1184.0,0.0246
1183.0,0.0248
1182.0,0.025
1181.0,0.0252
1180.0,0.0255
1179.0,0.0259
1178.0,0.0264
1177.0,0.0269
1176.0,0.0277
1175.0,0.0288
1174.0,0.0301
1173.0,0.0318
1172.0,0.0338
1171.0,0.0359
1170.0,0.0379
1169.0,0.0396
1168.0,0.0406
1167.0,0.0409
1166.0,0.0407
1165.0,0.0401
1164.0,0.0394
1163.0,0.0387
1162.0,0.038
1161.0,0.0374
1160.0,0.0369
1159.0,0.0366
1158.0,0.0364
1157.0,0.0363
1156.0,0.0363
1155.0,0.0363
1154.0,0.0364
1153.0,0.0364
1152.0,0.0362
1151.0,0.0358
1150.0,0.0351
1149.0,0.0344
1148.0,0.0336
1147.0,0.0328
1146.0,0.0321
1145.0,0.0314
1144.0,0.0307
1143.0,0.0301
1142.0,0.0295
1141.0,0.029
1140.0,0.0285
1139.0,0.0281
1138.0,0.0277
1137.0,0.0274
1136.0,0.0271
1135.0,0.0269
1134.0,0.0267
1133.0,0.0266
1132.0,0.0265
1131.0,0.0264
1130.0,0.0264
1129.0,0.0264
1128.0,0.0263
1127.0,0.0263
1126.0,0.0263
1125.0,0.0263
1124.0,0.0263
1123.0,0.0264
1122.0,0.0264
1121.0,0.0265
1120.0,0.0265
1119.0,0.0266
1118.0,0.0266
1117.0,0.0266
1116.0,0.0267
1115.0,0.0268
1114.0,0.0269
1113.0,0.0271
1112.0,0.0272
1111.0,0.0274
1110.0,0.0277
1109.0,0.028
1108.0,0.0285
1107.0,0.029
1106.0,0.0296
1105.0,0.0301
1104.0,0.0306
1103.0,0.0309
1102.0,0.031
1101.0,0.0308
1100.0,0.0304
1099.0,0.0299
1098.0,0.0294
1097.0,0.0289
1096.0,0.0284
1095.0,0.028
1094.0,0.0277
1093.0,0.0275
1092.0,0.0274
1091.0,0.0272
1090.0,0.027
1089.0,0.0268
1088.0,0.0266
1087.0,0.0265
1086.0,0.0264
1085.0,0.0263
1084.0,0.0263
1083.0,0.0262
1082.0,0.0261
1081.0,0.026
1080.0,0.0259
1079.0,0.0258
1078.0,0.0258
1077.0,0.0257
1076.0,0.0256
1075.0,0.0255
1074.0,0.0254
1073.0,0.0255
1072.0,0.0255
1071.0,0.0255
1070.0,0.0255
1069.0,0.0254
1068.0,0.0252
1067.0,0.0252
1066.0,0.0252
1065.0,0.0252
1064.0,0.0252
1063.0,0.0253
1062.0,0.0252
1061.0,0.0251
1060.0,0.0251
1059.0,0.0251
1058.0,0.0252
1057.0,0.0253
1056.0,0.0253
1055.0,0.0253
1054.0,0.0253
1053.0,0.0254
1052.0,0.0255
1051.0,0.0256
1050.0,0.0257
1049.0,0.0258
1048.0,0.026
1047.0,0.0261
1046.0,0.0261
1045.0,0.0261
1044.0,0.026
1043.0,0.0258
1042.0,0.0255
1041.0,0.0253
1040.0,0.025
1039.0,0.0249
1038.0,0.0247
1037.0,0.0247
1036.0,0.0246
1035.0,0.0246
1034.0,0.0245
1033.0,0.0244
1032.0,0.0242
1031.0,0.024
1030.0,0.0238
1029.0,0.0237
1028.0,0.0236
1027.0,0.0234
1026.0,0.0233
1025.0,0.0233
1024.0,0.0232
1023.0,0.0232
1022.0,0.0232
1021.0,0.0232
1020.0,0.0232
1019.0,0.0232
1018.0,0.0232
1017.0,0.0232
1016.0,0.0231
1015.0,0.0232
1014.0,0.0233
1013.0,0.0234
1012.0,0.0235
1011.0,0.0237
1010.0,0.0238
1009.0,0.0241
1008.0,0.0243
1007.0,0.0247
1006.0,0.0252
1005.0,0.0259
1004.0,0.0269
1003.0,0.0284
1002.0,0.0304
1001.0,0.033
1000.0,0.0358
999.0,0.0382
998.0,0.0395
997.0,0.0393
996.0,0.0377
995.0,0.0353
994.0,0.0328
993.0,0.0305
992.0,0.0287
991.0,0.0274
990.0,0.0263
989.0,0.0255
988.0,0.025
987.0,0.0246
986.0,0.0245
985.0,0.0245
984.0,0.0247
983.0,0.0252
982.0,0.0259
981.0,0.0271
980.0,0.0288
979.0,0.0312
978.0,0.0342
977.0,0.0376
976.0,0.0412
975.0,0.0445
974.0,0.0467
973.0,0.0475
972.0,0.0464
971.0,0.0438
970.0,0.0405
969.0,0.0371
968.0,0.0343
967.0,0.0321
966.0,0.0305
965.0,0.0293
964.0,0.0284
963.0,0.0275
962.0,0.0269
961.0,0.0264
960.0,0.026
959.0,0.0256
958.0,0.0253
957.0,0.025
956.0,0.0247
955.0,0.0244
954.0,0.0242
953.0,0.0241
952.0,0.024
951.0,0.0238
950.0,0.0237
949.0,0.0235
948.0,0.0235
947.0,0.0235
946.0,0.0236
945.0,0.0237
944.0,0.024
943.0,0.0244
942.0,0.0248
941.0,0.0251
940.0,0.0253
939.0,0.0252
938.0,0.0249
937.0,0.0244
936.0,0.0238
935.0,0.0234
934.0,0.023
933.0,0.0228
932.0,0.0226
931.0,0.0224
930.0,0.0222
929.0,0.0221
928.0,0.022
927.0,0.022
926.0,0.0219
925.0,0.0218
924.0,0.0218
923.0,0.0218
922.0,0.0219
921.0,0.0219
920.0,0.0218
919.0,0.0218
918.0,0.0217
917.0,0.0216
916.0,0.0216
915.0,0.0216
914.0,0.0218
913.0,0.0219
912.0,0.0219
911.0,0.022
910.0,0.0221
909.0,0.0223
908.0,0.0226
907.0,0.023
906.0,0.0236
905.0,0.0244
904.0,0.0257
903.0,0.0273
902.0,0.0292
901.0,0.0311
900.0,0.0325
899.0,0.0333
898.0,0.0331
897.0,0.032
896.0,0.0305
895.0,0.0289
894.0,0.0274
893.0,0.0263
892.0,0.0254
891.0,0.0248
890.0,0.0245
889.0,0.0243
888.0,0.0242
887.0,0.0241
886.0,0.0239
885.0,0.0238
884.0,0.0236
883.0,0.0234
882.0,0.0233
881.0,0.0232
880.0,0.0232
879.0,0.0232
878.0,0.0233
877.0,0.0234
876.0,0.0235
875.0,0.0235
874.0,0.0234
873.0,0.0233
872.0,0.0233
871.0,0.0233
870.0,0.0234
869.0,0.0234
868.0,0.0234
867.0,0.0235
866.0,0.0235
865.0,0.0236
864.0,0.0236
863.0,0.0236
862.0,0.0236
861.0,0.0238
860.0,0.0238
859.0,0.0239
858.0,0.0239
857.0,0.0239
856.0,0.024
855.0,0.0242
854.0,0.0243
853.0,0.0245
852.0,0.0246
851.0,0.0248
850.0,0.025
849.0,0.0254
848.0,0.0259
847.0,0.0268
846.0,0.0282
845.0,0.0303
844.0,0.0333
843.0,0.0366
842.0,0.0392
841.0,0.04
840.0,0.0386
839.0,0.0358
838.0,0.0328
837.0,0.0304
836.0,0.0288
835.0,0.0278
834.0,0.0271
833.0,0.0266
832.0,0.0262
831.0,0.0258
830.0,0.0256
829.0,0.0254
828.0,0.0252
827.0,0.025
826.0,0.0249
825.0,0.0249
824.0,0.0248
823.0,0.0248
822.0,0.0247
821.0,0.0247
820.0,0.0248
819.0,0.0251
818.0,0.0254
817.0,0.0258
816.0,0.0265
815.0,0.0275
814.0,0.0289
813.0,0.0307
812.0,0.0326
811.0,0.0344
810.0,0.0359
809.0,0.0367
808.0,0.0367
807.0,0.036
806.0,0.0347
805.0,0.0332
804.0,0.0317
803.0,0.0305
802.0,0.0296
801.0,0.0288
800.0,0.0282
799.0,0.0277
798.0,0.0272
797.0,0.0269
796.0,0.0267
795.0,0.0265
794.0,0.0263
793.0,0.026
792.0,0.0258
791.0,0.0256
790.0,0.0254
789.0,0.0252
788.0,0.0249
787.0,0.0247
786.0,0.0244
785.0,0.0241
784.0,0.0239
783.0,0.0238
782.0,0.0236
781.0,0.0234
780.0,0.0233
779.0,0.0232
778.0,0.0231
777.0,0.0232
776.0,0.0233
775.0,0.0234
774.0,0.0233
773.0,0.0232
772.0,0.023
771.0,0.0229
770.0,0.0228
769.0,0.0228
768.0,0.0228
767.0,0.0228
766.0,0.0228
765.0,0.0228
764.0,0.0228
763.0,0.0227
762.0,0.0228
761.0,0.0228
760.0,0.0228
759.0,0.0227
758.0,0.0228
757.0,0.0228
756.0,0.0229
755.0,0.0229
754.0,0.023
753.0,0.0229
752.0,0.0228
751.0,0.0226
750.0,0.0223
749.0,0.0223
748.0,0.0223
747.0,0.0225
746.0,0.0227
745.0,0.0227
744.0,0.0227
743.0,0.0226
742.0,0.0227
741.0,0.0228
740.0,0.0229
739.0,0.0229
738.0,0.0227
737.0,0.0226
736.0,0.0227
735.0,0.0229
734.0,0.023
733.0,0.0231
732.0,0.0232
731.0,0.0232
730.0,0.0232
729.0,0.0231
728.0,0.0229
727.0,0.0227
726.0,0.0226
725.0,0.0227
724.0,0.0228
723.0,0.0227
722.0,0.0227
721.0,0.0229
720.0,0.0231
719.0,0.0232
718.0,0.0232
717.0,0.0232
716.0,0.0231
715.0,0.0231
714.0,0.0231
713.0,0.023
712.0,0.023
711.0,0.023
710.0,0.0231
709.0,0.0232
708.0,0.0233
707.0,0.0234
706.0,0.0234
705.0,0.0232
704.0,0.0227
703.0,0.0222
702.0,0.0219
701.0,0.0221
700.0,0.0226
699.0,0.0231
698.0,0.0235
697.0,0.0237
696.0,0.0238
695.0,0.0238
694.0,0.0237
693.0,0.0234
692.0,0.0232
691.0,0.0231
690.0,0.0228
689.0,0.0224
688.0,0.0218
687.0,0.0213
686.0,0.0209
685.0,0.0206
684.0,0.0207
683.0,0.0212
682.0,0.0217
681.0,0.0217
680.0,0.0214
679.0,0.0213
678.0,0.0213
677.0,0.0211
676.0,0.0208
675.0,0.0207
674.0,0.021
673.0,0.0212
672.0,0.021
671.0,0.0201
670.0,0.0189
669.0,0.0183
668.0,0.0197
667.0,0.0223
666.0,0.0239
665.0,0.0243
664.0,0.024
663.0,0.0235
662.0,0.023
661.0,0.0226
660.0,0.0221
659.0,0.0218
658.0,0.0216
657.0,0.0213
656.0,0.0209
655.0,0.0207
654.0,0.0209
653.0,0.0214
652.0,0.0218
651.0,0.0219
650.0,0.0219
649.0,0.0219
648.0,0.0217
647.0,0.0217
646.0,0.0218
645.0,0.0222
644.0,0.0225
643.0,0.0226
642.0,0.0225
641.0,0.0224
640.0,0.0229
639.0,0.0239
638.0,0.0251
637.0,0.026
636.0,0.0268
635.0,0.0276
634.0,0.0282
633.0,0.0282
632.0,0.0273
631.0,0.0262
630.0,0.0254
629.0,0.0251
628.0,0.0251
627.0,0.0252
626.0,0.0253
625.0,0.0252
624.0,0.0251
623.0,0.0252
622.0,0.0255
621.0,0.0259
620.0,0.0263
619.0,0.0265
618.0,0.0265
617.0,0.0262
616.0,0.0258
615.0,0.0256
614.0,0.0257
613.0,0.0257
612.0,0.0252
611.0,0.0245
610.0,0.0241
609.0,0.0242
608.0,0.0245
607.0,0.0247
606.0,0.025
605.0,0.0254
604.0,0.0259
603.0,0.0261
602.0,0.0259
601.0,0.0252
600.0,0.0246
