cm-1,A
4000.0,0.0067
3999.0,0.0067
3998.0,0.0068
3997.0,0.0068
3996.0,0.0068
3995.0,0.0067
3994.0,0.0067
3993.0,0.0066
3992.0,0.0066
3991.0,0.0067
3990.0,0.0067
3989.0,0.0066
3988.0,0.0066
3987.0,0.0067
3986.0,0.0067
3985.0,0.0067
3984.0,0.0067
3983.0,0.0067
3982.0,0.0066
3981.0,0.0066
3980.0,0.0066
3979.0,0.0066
3978.0,0.0066
3977.0,0.0066
3976.0,0.0066
3975.0,0.0066
3974.0,0.0066
3973.0,0.0066
3972.0,0.0065
3971.0,0.0066
3970.0,0.0066
3969.0,0.0067
3968.0,0.0068
3967.0,0.0069
3966.0,0.0069
3965.0,0.0069
3964.0,0.0069
3963.0,0.0069
3962.0,0.0068
3961.0,0.0068
3960.0,0.0068
3959.0,0.0067
3958.0,0.0067
3957.0,0.0067
3956.0,0.0067
3955.0,0.0068
3954.0,0.0068
3953.0,0.0068
3952.0,0.0067
3951.0,0.0067
3950.0,0.0066
3949.0,0.0066
3948.0,0.0066
3947.0,0.0067
3946.0,0.0068
3945.0,0.0069
3944.0,0.007
3943.0,0.007
3942.0,0.007
3941.0,0.0069
3940.0,0.0068
3939.0,0.0067
3938.0,0.0067
3937.0,0.0066
3936.0,0.0067
3935.0,0.0067
3934.0,0.0068
3933.0,0.0068
3932.0,0.0068
3931.0,0.0068
3930.0,0.0068
3929.0,0.0069
3928.0,0.0069
3927.0,0.0069
3926.0,0.0069
3925.0,0.0069
3924.0,0.0069
3923.0,0.0069
3922.0,0.0069
3921.0,0.0069
3920.0,0.0069
3919.0,0.0069
3918.0,0.0068
3917.0,0.0068
3916.0,0.0068
3915.0,0.0068
3914.0,0.0069
3913.0,0.0069
3912.0,0.0069
3911.0,0.0069
3910.0,0.0069
3909.0,0.007
3908.0,0.007
3907.0,0.007
3906.0,0.0071
3905.0,0.007
3904.0,0.007
3903.0,0.007
3902.0,0.0069
3901.0,0.0069
3900.0,0.0068
3899.0,0.0069
3898.0,0.0069
3897.0,0.0069
3896.0,0.0069
3895.0,0.0068
3894.0,0.0068
3893.0,0.0067
3892.0,0.0066
3891.0,0.0066
3890.0,0.0067
3889.0,0.0068
3888.0,0.0069
3887.0,0.007
3886.0,0.0071
3885.0,0.0072
3884.0,0.0073
3883.0,0.0073
3882.0,0.0072
3881.0,0.0071
3880.0,0.0071
3879.0,0.0071
3878.0,0.0072
3877.0,0.0073
3876.0,0.0073
3875.0,0.0073
3874.0,0.0072
3873.0,0.0072
3872.0,0.0071
3871.0,0.007
3870.0,0.0069
3869.0,0.0069
3868.0,0.007
3867.0,0.0071
3866.0,0.0071
3865.0,0.0071
3864.0,0.0072
3863.0,0.0072
3862.0,0.0072
3861.0,0.0072
3860.0,0.0071
3859.0,0.0071
3858.0,0.0071
3857.0,0.0071
3856.0,0.0071
3855.0,0.0071
3854.0,0.0071
3853.0,0.0071
3852.0,0.0071
3851.0,0.0072
3850.0,0.0071
3849.0,0.0071
3848.0,0.0071
3847.0,0.0071
3846.0,0.0071
3845.0,0.007
3844.0,0.007
3843.0,0.007
3842.0,0.0069
3841.0,0.007
3840.0,0.007
3839.0,0.0072
3838.0,0.0073
3837.0,0.0073
3836.0,0.0073
3835.0,0.0072
3834.0,0.0073
3833.0,0.0073
3832.0,0.0074
3831.0,0.0074
3830.0,0.0074
3829.0,0.0074
3828.0,0.0074
3827.0,0.0074
3826.0,0.0073
3825.0,0.0074
3824.0,0.0074
3823.0,0.0073
3822.0,0.0072
3821.0,0.0071
3820.0,0.0071
3819.0,0.0072
3818.0,0.0071
3817.0,0.007
3816.0,0.0071
3815.0,0.0072
3814.0,0.0073
3813.0,0.0074
3812.0,0.0074
3811.0,0.0074
3810.0,0.0074
3809.0,0.0074
3808.0,0.0073
3807.0,0.0072
3806.0,0.0072
3805.0,0.0073
3804.0,0.0074
3803.0,0.0074
3802.0,0.0074
3801.0,0.0075
3800.0,0.0075
3799.0,0.0075
3798.0,0.0075
3797.0,0.0074
3796.0,0.0074
3795.0,0.0074
3794.0,0.0074
3793.0,0.0074
3792.0,0.0075
3791.0,0.0075
3790.0,0.0076
3789.0,0.0076
3788.0,0.0076
3787.0,0.0077
3786.0,0.0076
3785.0,0.0076
3784.0,0.0076
3783.0,0.0076
3782.0,0.0076
3781.0,0.0075
3780.0,0.0074
3779.0,0.0074
3778.0,0.0075
3777.0,0.0075
3776.0,0.0075
3775.0,0.0075
3774.0,0.0075
3773.0,0.0075
3772.0,0.0074
3771.0,0.0074
3770.0,0.0075
3769.0,0.0076
3768.0,0.0077
3767.0,0.0077
3766.0,0.0077
3765.0,0.0078
3764.0,0.0078
3763.0,0.0078
3762.0,0.0077
3761.0,0.0075
3760.0,0.0074
3759.0,0.0075
3758.0,0.0076
3757.0,0.0076
3756.0,0.0076
3755.0,0.0076
3754.0,0.0075
3753.0,0.0073
3752.0,0.0072
3751.0,0.0073
3750.0,0.0074
3749.0,0.0074
3748.0,0.0074
3747.0,0.0075
3746.0,0.0074
3745.0,0.0073
3744.0,0.0073
3743.0,0.0074
3742.0,0.0073
3741.0,0.0073
3740.0,0.0072
3739.0,0.0072
3738.0,0.0073
3737.0,0.0073
3736.0,0.0074
3735.0,0.0075
3734.0,0.0074
3733.0,0.0072
3732.0,0.007
3731.0,0.007
3730.0,0.007
3729.0,0.0071
3728.0,0.0071
3727.0,0.0071
3726.0,0.0072
3725.0,0.0074
3724.0,0.0075
3723.0,0.0076
3722.0,0.0076
3721.0,0.0077
3720.0,0.0078
3719.0,0.0078
3718.0,0.0079
3717.0,0.0079
3716.0,0.0079
3715.0,0.0078
3714.0,0.0077
3713.0,0.0075
3712.0,0.0076
3711.0,0.0077
3710.0,0.0078
3709.0,0.0079
3708.0,0.0078
3707.0,0.0078
3706.0,0.0077
3705.0,0.0076
3704.0,0.0075
3703.0,0.0075
3702.0,0.0075
3701.0,0.0076
3700.0,0.0076
3699.0,0.0076
3698.0,0.0075
3697.0,0.0075
3696.0,0.0074
3695.0,0.0073
3694.0,0.0073
3693.0,0.0072
3692.0,0.0072
3691.0,0.0071
3690.0,0.0071
3689.0,0.0071
3688.0,0.0072
3687.0,0.0073
3686.0,0.0075
3685.0,0.0076
3684.0,0.0076
3683.0,0.0076
3682.0,0.0076
3681.0,0.0075
3680.0,0.0075
3679.0,0.0075
3678.0,0.0076
3677.0,0.0075
3676.0,0.0075
3675.0,0.0075
3674.0,0.0075
3673.0,0.0076
3672.0,0.0075
3671.0,0.0074
3670.0,0.0074
3669.0,0.0074
3668.0,0.0074
3667.0,0.0073
3666.0,0.0072
3665.0,0.0073
3664.0,0.0073
3663.0,0.0074
3662.0,0.0074
3661.0,0.0075
3660.0,0.0075
3659.0,0.0075
3658.0,0.0076
3657.0,0.0076
3656.0,0.0076
3655.0,0.0076
3654.0,0.0076
3653.0,0.0076
3652.0,0.0076
3651.0,0.0077
3650.0,0.008
3649.0,0.0083
3648.0,0.0084
3647.0,0.0084
3646.0,0.0083
3645.0,0.0083
3644.0,0.0082
3643.0,0.0082
3642.0,0.0082
3641.0,0.0082
3640.0,0.0083
3639.0,0.0082
3638.0,0.0082
3637.0,0.0082
3636.0,0.0081
3635.0,0.0081
3634.0,0.008
3633.0,0.0079
3632.0,0.0079
3631.0,0.0078
3630.0,0.0078
3629.0,0.008
3628.0,0.0083
3627.0,0.0084
3626.0,0.0084
3625.0,0.0084
3624.0,0.0084
3623.0,0.0084
3622.0,0.0084
3621.0,0.0083
3620.0,0.0082
3619.0,0.0083
3618.0,0.0086
3617.0,0.0088
3616.0,0.0089
3615.0,0.0089
3614.0,0.0088
3613.0,0.0087
3612.0,0.0087
3611.0,0.0087
3610.0,0.0088
3609.0,0.0088
3608.0,0.0089
3607.0,0.009
3606.0,0.009
3605.0,0.009
3604.0,0.009
3603.0,0.0089
3602.0,0.0089
3601.0,0.009
3600.0,0.0091
3599.0,0.0091
3598.0,0.0091
3597.0,0.0091
3596.0,0.009
3595.0,0.009
3594.0,0.009
3593.0,0.009
3592.0,0.009
3591.0,0.009
3590.0,0.009
3589.0,0.009
3588.0,0.009
3587.0,0.009
3586.0,0.0091
3585.0,0.0091
3584.0,0.0092
3583.0,0.0092
3582.0,0.0093
3581.0,0.0093
3580.0,0.0092
3579.0,0.0092
3578.0,0.0093
3577.0,0.0093
3576.0,0.0094
3575.0,0.0095
3574.0,0.0095
3573.0,0.0095
3572.0,0.0094
3571.0,0.0093
3570.0,0.0093
3569.0,0.0093
3568.0,0.0094
3567.0,0.0095
3566.0,0.0095
3565.0,0.0095
3564.0,0.0094
3563.0,0.0093
3562.0,0.0094
3561.0,0.0095
3560.0,0.0096
3559.0,0.0096
3558.0,0.0096
3557.0,0.0096
3556.0,0.0096
3555.0,0.0096
3554.0,0.0096
3553.0,0.0097
3552.0,0.0097
3551.0,0.0097
3550.0,0.0097
3549.0,0.0097
3548.0,0.0096
3547.0,0.0096
3546.0,0.0097
3545.0,0.0098
3544.0,0.0098
3543.0,0.0099
3542.0,0.0098
3541.0,0.0098
3540.0,0.0098
3539.0,0.0097
3538.0,0.0097
3537.0,0.0096
3536.0,0.0096
3535.0,0.0096
3534.0,0.0096
3533.0,0.0097
3532.0,0.0098
3531.0,0.0098
3530.0,0.0099
3529.0,0.0099
3528.0,0.0099
3527.0,0.0099
3526.0,0.0098
3525.0,0.0098
3524.0,0.0098
3523.0,0.0098
3522.0,0.0098
3521.0,0.0098
3520.0,0.0098
3519.0,0.0098
3518.0,0.0097
3517.0,0.0097
3516.0,0.0097
3515.0,0.0097
3514.0,0.0097
3513.0,0.0098
3512.0,0.0098
3511.0,0.0098
3510.0,0.0098
3509.0,0.0097
3508.0,0.0097
3507.0,0.0097
3506.0,0.0097
3505.0,0.0098
3504.0,0.0098
3503.0,0.0099
3502.0,0.0099
3501.0,0.0099
3500.0,0.0099
3499.0,0.0098
3498.0,0.0098
3497.0,0.0099
3496.0,0.0099
3495.0,0.0099
3494.0,0.0099
3493.0,0.0099
3492.0,0.0099
3491.0,0.0099
3490.0,0.0098
3489.0,0.0098
3488.0,0.0098
3487.0,0.0098
3486.0,0.0099
3485.0,0.0099
3484.0,0.0099
3483.0,0.01
3482.0,0.0099
3481.0,0.0099
3480.0,0.0099
3479.0,0.0099
3478.0,0.0099
3477.0,0.0099
3476.0,0.0099
3475.0,0.0099
3474.0,0.0099
3473.0,0.0099
3472.0,0.0099
3471.0,0.01
3470.0,0.01
3469.0,0.0099
3468.0,0.0099
3467.0,0.0099
3466.0,0.0099
3465.0,0.01
3464.0,0.01
3463.0,0.0101
3462.0,0.0101
3461.0,0.0101
3460.0,0.0101
3459.0,0.0101
3458.0,0.0101
3457.0,0.0101
3456.0,0.0101
3455.0,0.01
3454.0,0.01
3453.0,0.0101
3452.0,0.0101
3451.0,0.0101
3450.0,0.0102
3449.0,0.0101
3448.0,0.0101
3447.0,0.0101
3446.0,0.0101
3445.0,0.0101
3444.0,0.01
3443.0,0.01
3442.0,0.01
3441.0,0.0101
3440.0,0.0101
3439.0,0.0102
3438.0,0.0102
3437.0,0.0102
3436.0,0.0102
3435.0,0.0102
3434.0,0.0102
3433.0,0.0102
3432.0,0.0101
3431.0,0.0101
3430.0,0.0101
3429.0,0.0101
3428.0,0.0101
3427.0,0.0101
3426.0,0.0101
3425.0,0.0101
3424.0,0.0101
3423.0,0.0102
3422.0,0.0102
3421.0,0.0103
3420.0,0.0103
3419.0,0.0103
3418.0,0.0103
3417.0,0.0102
3416.0,0.0102
3415.0,0.0101
3414.0,0.0101
3413.0,0.0102
3412.0,0.0102
3411.0,0.0103
3410.0,0.0102
3409.0,0.0102
3408.0,0.0103
3407.0,0.0103
3406.0,0.0103
3405.0,0.0102
3404.0,0.0102
3403.0,0.0102
3402.0,0.0102
3401.0,0.0103
3400.0,0.0104
3399.0,0.0104
3398.0,0.0104
3397.0,0.0104
3396.0,0.0103
3395.0,0.0102
3394.0,0.0101
3393.0,0.0101
3392.0,0.0101
3391.0,0.0101
3390.0,0.01
3389.0,0.01
3388.0,0.0099
3387.0,0.0099
3386.0,0.0099
3385.0,0.01
3384.0,0.0101
3383.0,0.0101
3382.0,0.0101
3381.0,0.01
3380.0,0.0099
3379.0,0.0099
3378.0,0.0099
3377.0,0.0099
3376.0,0.0098
3375.0,0.0098
3374.0,0.0098
3373.0,0.0099
3372.0,0.01
3371.0,0.0101
3370.0,0.0102
3369.0,0.0103
3368.0,0.0102
3367.0,0.0101
3366.0,0.0101
3365.0,0.01
3364.0,0.0101
3363.0,0.0101
3362.0,0.0102
3361.0,0.0102
3360.0,0.0101
3359.0,0.01
3358.0,0.01
3357.0,0.01
3356.0,0.01
3355.0,0.0101
3354.0,0.0102
3353.0,0.0102
3352.0,0.0101
3351.0,0.0099
3350.0,0.0098
3349.0,0.0097
3348.0,0.0097
3347.0,0.0098
3346.0,0.0099
3345.0,0.01
3344.0,0.01
3343.0,0.0099
3342.0,0.0098
3341.0,0.0098
3340.0,0.0097
3339.0,0.0097
3338.0,0.0098
3337.0,0.0098
3336.0,0.0098
3335.0,0.0098
3334.0,0.0099
3333.0,0.0099
3332.0,0.0099
3331.0,0.0098
3330.0,0.0098
3329.0,0.0098
3328.0,0.0097
3327.0,0.0097
3326.0,0.0096
3325.0,0.0096
3324.0,0.0096
3323.0,0.0096
3322.0,0.0096
3321.0,0.0096
3320.0,0.0096
3319.0,0.0096
3318.0,0.0096
3317.0,0.0096
3316.0,0.0096
3315.0,0.0096
3314.0,0.0096
3313.0,0.0096
3312.0,0.0095
3311.0,0.0095
3310.0,0.0094
3309.0,0.0094
3308.0,0.0094
3307.0,0.0095
3306.0,0.0096
3305.0,0.0096
3304.0,0.0096
3303.0,0.0095
3302.0,0.0095
3301.0,0.0094
3300.0,0.0094
3299.0,0.0094
3298.0,0.0094
3297.0,0.0095
3296.0,0.0095
3295.0,0.0095
3294.0,0.0095
3293.0,0.0095
3292.0,0.0095
3291.0,0.0094
3290.0,0.0094
3289.0,0.0093
3288.0,0.0093
3287.0,0.0092
3286.0,0.0092
3285.0,0.0092
3284.0,0.0093
3283.0,0.0093
3282.0,0.0094
3281.0,0.0093
3280.0,0.0093
3279.0,0.0093
3278.0,0.0093
3277.0,0.0093
3276.0,0.0094
3275.0,0.0094
3274.0,0.0094
3273.0,0.0093
3272.0,0.0092
3271.0,0.0092
3270.0,0.0092
3269.0,0.0092
3268.0,0.0092
3267.0,0.0092
3266.0,0.0092
3265.0,0.0091
3264.0,0.0091
3263.0,0.0091
3262.0,0.0091
3261.0,0.0091
3260.0,0.0091
3259.0,0.0091
3258.0,0.0091
3257.0,0.009
3256.0,0.0089
3255.0,0.0089
3254.0,0.0089
3253.0,0.0088
3252.0,0.0088
3251.0,0.0088
3250.0,0.0089
3249.0,0.009
3248.0,0.009
3247.0,0.0091
3246.0,0.0091
3245.0,0.009
3244.0,0.009
3243.0,0.0089
3242.0,0.0089
3241.0,0.0089
3240.0,0.0089
3239.0,0.0089
3238.0,0.0089
3237.0,0.0089
3236.0,0.0089
3235.0,0.0089
3234.0,0.0088
3233.0,0.0087
3232.0,0.0086
3231.0,0.0086
3230.0,0.0086
3229.0,0.0086
3228.0,0.0086
3227.0,0.0086
3226.0,0.0086
3225.0,0.0087
3224.0,0.0087
3223.0,0.0087
3222.0,0.0087
3221.0,0.0087
3220.0,0.0088
3219.0,0.0088
3218.0,0.0088
3217.0,0.0088
3216.0,0.0088
3215.0,0.0088
3214.0,0.0088
3213.0,0.0089
3212.0,0.0089
3211.0,0.0089
3210.0,0.0089
3209.0,0.0089
3208.0,0.0089
3207.0,0.0089
3206.0,0.009
3205.0,0.009
3204.0,0.009
3203.0,0.009
3202.0,0.009
3201.0,0.009
3200.0,0.0089
3199.0,0.0089
3198.0,0.0088
3197.0,0.0088
3196.0,0.0088
3195.0,0.0088
3194.0,0.0088
3193.0,0.0088
3192.0,0.0087
3191.0,0.0087
3190.0,0.0086
3189.0,0.0086
3188.0,0.0086
3187.0,0.0086
3186.0,0.0085
3185.0,0.0084
3184.0,0.0083
3183.0,0.0083
3182.0,0.0084
3181.0,0.0084
3180.0,0.0085
3179.0,0.0084
3178.0,0.0084
3177.0,0.0083
3176.0,0.0083
3175.0,0.0083
3174.0,0.0084
3173.0,0.0084
3172.0,0.0085
3171.0,0.0085
3170.0,0.0084
3169.0,0.0083
3168.0,0.0082
3167.0,0.0082
3166.0,0.0081
3165.0,0.0081
3164.0,0.0081
3163.0,0.0081
3162.0,0.008
3161.0,0.008
3160.0,0.0079
3159.0,0.0079
3158.0,0.0079
3157.0,0.0079
3156.0,0.008
3155.0,0.008
3154.0,0.008
3153.0,0.008
3152.0,0.0079
3151.0,0.0079
3150.0,0.0078
3149.0,0.0078
3148.0,0.0078
3147.0,0.0078
3146.0,0.0078
3145.0,0.0078
3144.0,0.0078
3143.0,0.0078
3142.0,0.0078
3141.0,0.0078
3140.0,0.0077
3139.0,0.0077
3138.0,0.0076
3137.0,0.0076
3136.0,0.0075
3135.0,0.0074
3134.0,0.0074
3133.0,0.0074
3132.0,0.0073
3131.0,0.0074
3130.0,0.0074
3129.0,0.0074
3128.0,0.0073
3127.0,0.0073
3126.0,0.0072
3125.0,0.0072
3124.0,0.0072
3123.0,0.0071
3122.0,0.007
3121.0,0.0069
3120.0,0.0069
3119.0,0.0068
3118.0,0.0068
3117.0,0.0068
3116.0,0.0068
3115.0,0.0068
3114.0,0.0068
3113.0,0.0067
3112.0,0.0066
3111.0,0.0066
3110.0,0.0065
3109.0,0.0065
3108.0,0.0065
3107.0,0.0065
3106.0,0.0065
3105.0,0.0065
3104.0,0.0065
3103.0,0.0065
3102.0,0.0065
3101.0,0.0065
3100.0,0.0064
3099.0,0.0064
3098.0,0.0063
3097.0,0.0063
3096.0,0.0062
3095.0,0.0061
3094.0,0.0061
3093.0,0.0061
3092.0,0.0061
3091.0,0.0061
3090.0,0.0061
3089.0,0.0061
3088.0,0.0062
3087.0,0.0063
3086.0,0.0062
3085.0,0.0061
3084.0,0.0059
3083.0,0.0058
3082.0,0.0058
3081.0,0.0058
3080.0,0.0058
3079.0,0.0058
3078.0,0.0057
3077.0,0.0056
3076.0,0.0056
3075.0,0.0056
3074.0,0.0056
3073.0,0.0056
3072.0,0.0056
3071.0,0.0056
3070.0,0.0056
3069.0,0.0055
3068.0,0.0055
3067.0,0.0054
3066.0,0.0054
3065.0,0.0054
3064.0,0.0053
3063.0,0.0053
3062.0,0.0053
3061.0,0.0053
3060.0,0.0052
3059.0,0.0052
3058.0,0.0052
3057.0,0.0051
3056.0,0.0051
3055.0,0.005
3054.0,0.0049
3053.0,0.0048
3052.0,0.0047
3051.0,0.0046
3050.0,0.0046
3049.0,0.0045
3048.0,0.0044
3047.0,0.0044
3046.0,0.0043
3045.0,0.0042
3044.0,0.0042
3043.0,0.0041
3042.0,0.004
3041.0,0.0039
3040.0,0.0038
3039.0,0.0038
3038.0,0.0038
3037.0,0.0038
3036.0,0.0038
3035.0,0.0038
3034.0,0.0038
3033.0,0.0038
3032.0,0.0038
3031.0,0.0038
3030.0,0.0037
3029.0,0.0036
3028.0,0.0036
3027.0,0.0035
3026.0,0.0034
3025.0,0.0033
3024.0,0.0032
3023.0,0.003
3022.0,0.0029
3021.0,0.0027
3020.0,0.0026
3019.0,0.0024
3018.0,0.0023
3017.0,0.0022
3016.0,0.0021
3015.0,0.0021
3014.0,0.002
3013.0,0.0018
3012.0,0.0017
3011.0,0.0016
3010.0,0.0015
3009.0,0.0014
3008.0,0.0013
3007.0,0.0012
3006.0,0.0012
3005.0,0.0011
3004.0,0.0011
3003.0,0.0011
3002.0,0.0011
3001.0,0.001
3000.0,0.001
2999.0,0.001
2998.0,0.0009
2997.0,0.0009
2996.0,0.001
2995.0,0.0011
2994.0,0.0012
2993.0,0.0014
2992.0,0.0014
2991.0,0.0015
2990.0,0.0016
2989.0,0.0019
2988.0,0.0024
2987.0,0.003
2986.0,0.0036
2985.0,0.0043
2984.0,0.0051
2983.0,0.006
2982.0,0.007
2981.0,0.0081
2980.0,0.0095
2979.0,0.011
2978.0,0.0127
2977.0,0.0148
2976.0,0.0172
2975.0,0.0199
2974.0,0.023
2973.0,0.0265
2972.0,0.0305
2971.0,0.0349
2970.0,0.0398
2969.0,0.045
2968.0,0.0505
2967.0,0.0564
2966.0,0.0623
2965.0,0.0683
2964.0,0.0739
2963.0,0.0789
2962.0,0.083
2961.0,0.0861
2960.0,0.0885
2959.0,0.0907
2958.0,0.0931
2957.0,0.0963
2956.0,0.1005
2955.0,0.1059
2954.0,0.1121
2953.0,0.1187
2952.0,0.1246
2951.0,0.1288
2950.0,0.1306
2949.0,0.1292
2948.0,0.1249
2947.0,0.1182
2946.0,0.1099
2945.0,0.101
2944.0,0.0925
2943.0,0.0851
2942.0,0.0791
2941.0,0.0747
2940.0,0.0719
2939.0,0.0706
2938.0,0.0707
2937.0,0.0721
2936.0,0.0748
2935.0,0.0785
2934.0,0.0832
2933.0,0.0889
2932.0,0.0953
2931.0,0.1023
2930.0,0.1099
2929.0,0.1178
2928.0,0.1257
2927.0,0.1336
2926.0,0.1414
2925.0,0.1492
2924.0,0.157
2923.0,0.1651
2922.0,0.1733
2921.0,0.1815
2920.0,0.189
2919.0,0.195
2918.0,0.1985
2917.0,0.1991
2916.0,0.1965
2915.0,0.1914
2914.0,0.1847
2913.0,0.1774
2912.0,0.1702
2911.0,0.1637
2910.0,0.1579
2909.0,0.1528
2908.0,0.1481
2907.0,0.1436
2906.0,0.1393
2905.0,0.1349
2904.0,0.1305
2903.0,0.1261
2902.0,0.1218
2901.0,0.1177
2900.0,0.1138
2899.0,0.1102
2898.0,0.1068
2897.0,0.1036
2896.0,0.1006
2895.0,0.098
2894.0,0.0957
2893.0,0.0938
2892.0,0.0924
2891.0,0.0914
2890.0,0.0906
2889.0,0.0901
2888.0,0.0898
2887.0,0.0897
2886.0,0.0898
2885.0,0.0901
2884.0,0.0908
2883.0,0.0917
2882.0,0.093
2881.0,0.0944
2880.0,0.0958
2879.0,0.0968
2878.0,0.0973
2877.0,0.0972
2876.0,0.0967
2875.0,0.0961
2874.0,0.0956
2873.0,0.0956
2872.0,0.0962
2871.0,0.0972
2870.0,0.0987
2869.0,0.1001
2868.0,0.1011
2867.0,0.101
2866.0,0.0994
2865.0,0.0962
2864.0,0.0917
2863.0,0.0865
2862.0,0.0814
2861.0,0.0768
2860.0,0.0732
2859.0,0.0708
2858.0,0.0695
2857.0,0.0694
2856.0,0.0703
2855.0,0.0721
2854.0,0.0749
2853.0,0.0782
2852.0,0.0817
2851.0,0.0849
2850.0,0.087
2849.0,0.0878
2848.0,0.0878
2847.0,0.0875
2846.0,0.0878
2845.0,0.089
2844.0,0.0912
2843.0,0.0942
2842.0,0.0974
2841.0,0.1005
2840.0,0.103
2839.0,0.1043
2838.0,0.104
2837.0,0.1018
2836.0,0.0979
2835.0,0.0925
2834.0,0.0863
2833.0,0.0798
2832.0,0.0737
2831.0,0.0683
2830.0,0.0636
2829.0,0.0597
2828.0,0.0564
2827.0,0.0537
2826.0,0.0514
2825.0,0.0494
2824.0,0.0478
2823.0,0.0463
2822.0,0.0449
2821.0,0.0437
2820.0,0.0427
2819.0,0.0418
2818.0,0.041
2817.0,0.0402
2816.0,0.0396
2815.0,0.039
2814.0,0.0384
2813.0,0.0378
2812.0,0.0373
2811.0,0.0368
2810.0,0.0363
2809.0,0.0358
2808.0,0.0353
2807.0,0.0347
2806.0,0.0341
2805.0,0.0334
2804.0,0.0327
2803.0,0.0322
2802.0,0.0317
2801.0,0.0312
2800.0,0.0308
2799.0,0.0304
2798.0,0.03
2797.0,0.0297
2796.0,0.0294
2795.0,0.0292
2794.0,0.029
2793.0,0.0287
2792.0,0.0284
2791.0,0.0281
2790.0,0.0278
2789.0,0.0274
2788.0,0.0271
2787.0,0.0268
2786.0,0.0264
2785.0,0.0261
2784.0,0.0259
2783.0,0.0256
2782.0,0.0255
2781.0,0.0253
2780.0,0.0251
2779.0,0.0249
2778.0,0.0246
2777.0,0.0244
2776.0,0.0242
2775.0,0.024
2774.0,0.0238
2773.0,0.0237
2772.0,0.0235
2771.0,0.0234
2770.0,0.0233
2769.0,0.0231
2768.0,0.023
2767.0,0.023
2766.0,0.0229
2765.0,0.0228
2764.0,0.0227
2763.0,0.0226
2762.0,0.0224
2761.0,0.0223
2760.0,0.0222
2759.0,0.0221
2758.0,0.022
2757.0,0.0219
2756.0,0.0218
2755.0,0.0217
2754.0,0.0217
2753.0,0.0216
2752.0,0.0216
2751.0,0.0216
2750.0,0.0216
2749.0,0.0216
2748.0,0.0215
2747.0,0.0215
2746.0,0.0214
2745.0,0.0214
2744.0,0.0215
2743.0,0.0215
2742.0,0.0215
2741.0,0.0215
2740.0,0.0216
2739.0,0.0217
2738.0,0.0219
2737.0,0.022
2736.0,0.022
2735.0,0.0219
2734.0,0.0218
2733.0,0.0218
2732.0,0.0219
2731.0,0.0221
2730.0,0.0223
2729.0,0.0225
2728.0,0.0227
2727.0,0.023
2726.0,0.0232
2725.0,0.0234
2724.0,0.0235
2723.0,0.0236
2722.0,0.0235
2721.0,0.0233
2720.0,0.0231
2719.0,0.0228
2718.0,0.0226
2717.0,0.0223
2716.0,0.0221
2715.0,0.0219
2714.0,0.0217
2713.0,0.0215
2712.0,0.0213
2711.0,0.0211
2710.0,0.0209
2709.0,0.0207
2708.0,0.0206
2707.0,0.0205
2706.0,0.0205
2705.0,0.0204
2704.0,0.0204
2703.0,0.0203
2702.0,0.0202
2701.0,0.0201
2700.0,0.02
2699.0,0.0198
2698.0,0.0197
2697.0,0.0196
2696.0,0.0196
2695.0,0.0196
2694.0,0.0196
2693.0,0.0196
2692.0,0.0196
2691.0,0.0196
2690.0,0.0195
2689.0,0.0195
2688.0,0.0194
2687.0,0.0194
2686.0,0.0194
2685.0,0.0193
2684.0,0.0193
2683.0,0.0192
2682.0,0.0192
2681.0,0.0192
2680.0,0.0192
2679.0,0.0192
2678.0,0.0192
2677.0,0.0192
2676.0,0.0192
2675.0,0.0192
2674.0,0.0191
2673.0,0.0191
2672.0,0.019
2671.0,0.019
2670.0,0.019
2669.0,0.019
2668.0,0.019
2667.0,0.019
2666.0,0.019
2665.0,0.0191
2664.0,0.0191
2663.0,0.0191
2662.0,0.0191
2661.0,0.0191
2660.0,0.019
2659.0,0.019
2658.0,0.0189
2657.0,0.0188
2656.0,0.0187
2655.0,0.0187
2654.0,0.0186
2653.0,0.0185
2652.0,0.0184
2651.0,0.0183
2650.0,0.0183
2649.0,0.0182
2648.0,0.0182
2647.0,0.0181
2646.0,0.018
2645.0,0.018
2644.0,0.0179
2643.0,0.0179
2642.0,0.0179
2641.0,0.0179
2640.0,0.0178
2639.0,0.0177
2638.0,0.0177
2637.0,0.0177
2636.0,0.0178
2635.0,0.0178
2634.0,0.0178
2633.0,0.0178
2632.0,0.0178
2631.0,0.0178
2630.0,0.0178
2629.0,0.0178
2628.0,0.0179
2627.0,0.0179
2626.0,0.0178
2625.0,0.0178
2624.0,0.0177
2623.0,0.0177
2622.0,0.0177
2621.0,0.0177
2620.0,0.0177
2619.0,0.0177
2618.0,0.0177
2617.0,0.0177
2616.0,0.0177
2615.0,0.0176
2614.0,0.0176
2613.0,0.0176
2612.0,0.0176
2611.0,0.0177
2610.0,0.0176
2609.0,0.0176
2608.0,0.0175
2607.0,0.0174
2606.0,0.0173
2605.0,0.0172
2604.0,0.0171
2603.0,0.0171
2602.0,0.0171
2601.0,0.0171
2600.0,0.017
2599.0,0.0169
2598.0,0.0169
2597.0,0.017
2596.0,0.017
2595.0,0.0171
2594.0,0.0171
2593.0,0.0171
2592.0,0.0171
2591.0,0.0171
2590.0,0.0172
2589.0,0.0172
2588.0,0.0173
2587.0,0.0174
2586.0,0.0174
2585.0,0.0175
2584.0,0.0175
2583.0,0.0175
2582.0,0.0175
2581.0,0.0175
2580.0,0.0175
2579.0,0.0175
2578.0,0.0175
2577.0,0.0174
2576.0,0.0173
2575.0,0.0172
2574.0,0.0171
2573.0,0.017
2572.0,0.0169
2571.0,0.0168
2570.0,0.0167
2569.0,0.0167
2568.0,0.0166
2567.0,0.0165
2566.0,0.0165
2565.0,0.0164
2564.0,0.0164
2563.0,0.0164
2562.0,0.0163
2561.0,0.0163
2560.0,0.0162
2559.0,0.0162
2558.0,0.0162
2557.0,0.0162
2556.0,0.0162
2555.0,0.0162
2554.0,0.0161
2553.0,0.0161
2552.0,0.0161
2551.0,0.0161
2550.0,0.016
2549.0,0.016
2548.0,0.0159
2547.0,0.0158
2546.0,0.0157
2545.0,0.0157
2544.0,0.0156
2543.0,0.0155
2542.0,0.0155
2541.0,0.0155
2540.0,0.0155
2539.0,0.0154
2538.0,0.0154
2537.0,0.0154
2536.0,0.0154
2535.0,0.0154
2534.0,0.0154
2533.0,0.0154
2532.0,0.0153
2531.0,0.0153
2530.0,0.0153
2529.0,0.0153
2528.0,0.0153
2527.0,0.0153
2526.0,0.0153
2525.0,0.0153
2524.0,0.0152
2523.0,0.0152
2522.0,0.0152
2521.0,0.0151
2520.0,0.0151
2519.0,0.0151
2518.0,0.0151
2517.0,0.0151
2516.0,0.0151
2515.0,0.0151
2514.0,0.0151
2513.0,0.015
2512.0,0.015
2511.0,0.0149
2510.0,0.0149
2509.0,0.0148
2508.0,0.0148
2507.0,0.0147
2506.0,0.0147
2505.0,0.0147
2504.0,0.0147
2503.0,0.0148
2502.0,0.0148
2501.0,0.0148
2500.0,0.0148
2499.0,0.0148
2498.0,0.0148
2497.0,0.0148
2496.0,0.0147
2495.0,0.0147
2494.0,0.0147
2493.0,0.0147
2492.0,0.0148
2491.0,0.0148
2490.0,0.0147
2489.0,0.0146
2488.0,0.0146
2487.0,0.0146
2486.0,0.0146
2485.0,0.0146
2484.0,0.0146
2483.0,0.0146
2482.0,0.0146
2481.0,0.0146
2480.0,0.0145
2479.0,0.0145
2478.0,0.0145
2477.0,0.0145
2476.0,0.0145
2475.0,0.0144
2474.0,0.0144
2473.0,0.0144
2472.0,0.0144
2471.0,0.0144
2470.0,0.0144
2469.0,0.0145
2468.0,0.0145
2467.0,0.0145
2466.0,0.0144
2465.0,0.0144
2464.0,0.0144
2463.0,0.0143
2462.0,0.0143
2461.0,0.0143
2460.0,0.0143
2459.0,0.0143
2458.0,0.0143
2457.0,0.0142
2456.0,0.0142
2455.0,0.0142
2454.0,0.0142
2453.0,0.0143
2452.0,0.0143
2451.0,0.0143
2450.0,0.0143
2449.0,0.0143
2448.0,0.0143
2447.0,0.0143
2446.0,0.0143
2445.0,0.0143
2444.0,0.0143
2443.0,0.0143
2442.0,0.0143
2441.0,0.0143
2440.0,0.0142
2439.0,0.0142
2438.0,0.0143
2437.0,0.0143
2436.0,0.0143
2435.0,0.0143
2434.0,0.0144
2433.0,0.0144
2432.0,0.0144
2431.0,0.0144
2430.0,0.0144
2429.0,0.0144
2428.0,0.0144
2427.0,0.0144
2426.0,0.0143
2425.0,0.0142
2424.0,0.0142
2423.0,0.0142
2422.0,0.0142
2421.0,0.0143
2420.0,0.0143
2419.0,0.0143
2418.0,0.0143
2417.0,0.0143
2416.0,0.0142
2415.0,0.0142
2414.0,0.0142
2413.0,0.0142
2412.0,0.0142
2411.0,0.0142
2410.0,0.0142
2409.0,0.0142
2408.0,0.0142
2407.0,0.0142
2406.0,0.0142
2405.0,0.0142
2404.0,0.0142
2403.0,0.0141
2402.0,0.0141
2401.0,0.0141
2400.0,0.0141
2399.0,0.0141
2398.0,0.0141
2397.0,0.0141
2396.0,0.0141
2395.0,0.014
2394.0,0.0141
2393.0,0.0141
2392.0,0.014
2391.0,0.014
2390.0,0.014
2389.0,0.014
2388.0,0.0139
2387.0,0.0138
2386.0,0.0137
2385.0,0.0135
2384.0,0.0133
2383.0,0.0131
2382.0,0.013
2381.0,0.0128
2380.0,0.0128
2379.0,0.013
2378.0,0.0134
2377.0,0.0139
2376.0,0.0143
2375.0,0.0143
2374.0,0.0138
2373.0,0.0132
2372.0,0.0125
2371.0,0.0122
2370.0,0.012
2369.0,0.0118
2368.0,0.0117
2367.0,0.0119
2366.0,0.0123
2365.0,0.0128
2364.0,0.0132
2363.0,0.0137
2362.0,0.0139
2361.0,0.0136
2360.0,0.0136
2359.0,0.0147
2358.0,0.0154
2357.0,0.0145
2356.0,0.0131
2355.0,0.0131
2354.0,0.0144
2353.0,0.0157
2352.0,0.0161
2351.0,0.0159
2350.0,0.0155
2349.0,0.0146
2348.0,0.0133
2347.0,0.0121
2346.0,0.0117
2345.0,0.0124
2344.0,0.0135
2343.0,0.014
2342.0,0.014
2341.0,0.0139
2340.0,0.0138
2339.0,0.0139
2338.0,0.0144
2337.0,0.0149
2336.0,0.015
2335.0,0.0147
2334.0,0.0142
2333.0,0.0137
2332.0,0.0132
2331.0,0.0131
2330.0,0.0135
2329.0,0.0142
2328.0,0.0146
2327.0,0.0146
2326.0,0.0145
2325.0,0.0145
2324.0,0.0144
2323.0,0.0143
2322.0,0.0143
2321.0,0.0143
2320.0,0.0144
2319.0,0.0144
2318.0,0.0143
2317.0,0.0142
2316.0,0.0139
2315.0,0.0135
2314.0,0.0131
2313.0,0.0129
2312.0,0.0127
2311.0,0.0126
2310.0,0.0124
2309.0,0.0124
2308.0,0.0124
2307.0,0.0125
2306.0,0.0126
2305.0,0.0126
2304.0,0.0126
2303.0,0.0126
2302.0,0.0126
2301.0,0.0126
2300.0,0.0125
2299.0,0.0125
2298.0,0.0125
2297.0,0.0126
2296.0,0.0127
2295.0,0.0127
2294.0,0.0128
2293.0,0.0129
2292.0,0.0129
2291.0,0.013
2290.0,0.013
2289.0,0.0131
2288.0,0.0131
2287.0,0.0131
2286.0,0.0131
2285.0,0.0132
2284.0,0.0132
2283.0,0.0131
2282.0,0.0131
2281.0,0.0131
2280.0,0.0131
2279.0,0.0131
2278.0,0.013
2277.0,0.0131
2276.0,0.0131
2275.0,0.0131
2274.0,0.0131
2273.0,0.0131
2272.0,0.0131
2271.0,0.013
2270.0,0.013
2269.0,0.013
2268.0,0.013
2267.0,0.013
2266.0,0.0131
2265.0,0.0131
2264.0,0.0131
2263.0,0.0131
2262.0,0.0131
2261.0,0.0131
2260.0,0.0132
2259.0,0.0132
2258.0,0.0132
2257.0,0.0131
2256.0,0.0131
2255.0,0.0131
2254.0,0.0131
2253.0,0.0131
2252.0,0.0131
2251.0,0.0131
2250.0,0.013
2249.0,0.013
2248.0,0.013
2247.0,0.013
2246.0,0.013
2245.0,0.013
2244.0,0.0131
2243.0,0.0131
2242.0,0.013
2241.0,0.013
2240.0,0.0129
2239.0,0.0129
2238.0,0.013
2237.0,0.013
2236.0,0.0131
2235.0,0.0131
2234.0,0.013
2233.0,0.013
2232.0,0.013
2231.0,0.013
2230.0,0.013
2229.0,0.013
2228.0,0.0131
2227.0,0.0131
2226.0,0.0131
2225.0,0.0131
2224.0,0.013
2223.0,0.0129
2222.0,0.0128
2221.0,0.0128
2220.0,0.0128
2219.0,0.0129
2218.0,0.0129
2217.0,0.0128
2216.0,0.0128
2215.0,0.0128
2214.0,0.0128
2213.0,0.0128
2212.0,0.0129
2211.0,0.0129
2210.0,0.0129
2209.0,0.013
2208.0,0.013
2207.0,0.013
2206.0,0.013
2205.0,0.013
2204.0,0.0131
2203.0,0.0131
2202.0,0.013
2201.0,0.013
2200.0,0.013
2199.0,0.013
2198.0,0.013
2197.0,0.013
2196.0,0.013
2195.0,0.013
2194.0,0.013
2193.0,0.0129
2192.0,0.013
2191.0,0.013
2190.0,0.013
2189.0,0.0131
2188.0,0.0131
2187.0,0.0131
2186.0,0.0131
2185.0,0.0131
2184.0,0.0131
2183.0,0.0131
2182.0,0.0131
2181.0,0.0131
2180.0,0.0131
2179.0,0.0131
2178.0,0.0131
2177.0,0.0131
2176.0,0.0131
2175.0,0.0131
2174.0,0.0131
2173.0,0.013
2172.0,0.013
2171.0,0.013
2170.0,0.013
2169.0,0.013
2168.0,0.013
2167.0,0.013
2166.0,0.013
2165.0,0.0129
2164.0,0.0129
2163.0,0.0128
2162.0,0.0128
2161.0,0.0129
2160.0,0.0129
2159.0,0.0129
2158.0,0.0129
2157.0,0.0129
2156.0,0.0129
2155.0,0.0129
2154.0,0.0129
2153.0,0.0129
2152.0,0.0129
2151.0,0.0128
2150.0,0.0128
2149.0,0.0128
2148.0,0.0128
2147.0,0.0128
2146.0,0.0128
2145.0,0.0128
2144.0,0.0127
2143.0,0.0127
2142.0,0.0128
2141.0,0.0128
2140.0,0.0128
2139.0,0.0128
2138.0,0.0128
2137.0,0.0128
2136.0,0.0129
2135.0,0.0128
2134.0,0.0128
2133.0,0.0128
2132.0,0.0128
2131.0,0.0128
2130.0,0.0128
2129.0,0.0128
2128.0,0.0128
2127.0,0.0128
2126.0,0.0128
2125.0,0.0128
2124.0,0.0128
2123.0,0.0127
2122.0,0.0127
2121.0,0.0126
2120.0,0.0126
2119.0,0.0126
2118.0,0.0126
2117.0,0.0126
2116.0,0.0126
2115.0,0.0126
2114.0,0.0125
2113.0,0.0125
2112.0,0.0125
2111.0,0.0124
2110.0,0.0124
2109.0,0.0125
2108.0,0.0125
2107.0,0.0126
2106.0,0.0126
2105.0,0.0126
2104.0,0.0127
2103.0,0.0127
2102.0,0.0127
2101.0,0.0127
2100.0,0.0127
2099.0,0.0127
2098.0,0.0127
2097.0,0.0127
2096.0,0.0126
2095.0,0.0126
2094.0,0.0126
2093.0,0.0126
2092.0,0.0126
2091.0,0.0126
2090.0,0.0126
2089.0,0.0126
2088.0,0.0127
2087.0,0.0127
2086.0,0.0127
2085.0,0.0126
2084.0,0.0126
2083.0,0.0126
2082.0,0.0126
2081.0,0.0126
2080.0,0.0126
2079.0,0.0125
2078.0,0.0125
2077.0,0.0125
2076.0,0.0125
2075.0,0.0125
2074.0,0.0125
2073.0,0.0125
2072.0,0.0125
2071.0,0.0125
2070.0,0.0125
2069.0,0.0125
2068.0,0.0125
2067.0,0.0125
2066.0,0.0124
2065.0,0.0124
2064.0,0.0124
2063.0,0.0125
2062.0,0.0125
2061.0,0.0125
2060.0,0.0125
2059.0,0.0124
2058.0,0.0124
2057.0,0.0124
2056.0,0.0124
2055.0,0.0124
2054.0,0.0125
2053.0,0.0125
2052.0,0.0125
2051.0,0.0125
2050.0,0.0125
2049.0,0.0125
2048.0,0.0125
2047.0,0.0125
2046.0,0.0125
2045.0,0.0125
2044.0,0.0125
2043.0,0.0125
2042.0,0.0125
2041.0,0.0125
2040.0,0.0126
2039.0,0.0126
2038.0,0.0126
2037.0,0.0125
2036.0,0.0125
2035.0,0.0125
2034.0,0.0125
2033.0,0.0126
2032.0,0.0126
2031.0,0.0126
2030.0,0.0126
2029.0,0.0125
2028.0,0.0125
2027.0,0.0125
2026.0,0.0126
2025.0,0.0126
2024.0,0.0126
2023.0,0.0126
2022.0,0.0126
2021.0,0.0126
2020.0,0.0126
2019.0,0.0125
2018.0,0.0125
2017.0,0.0124
2016.0,0.0124
2015.0,0.0124
2014.0,0.0124
2013.0,0.0124
2012.0,0.0125
2011.0,0.0125
2010.0,0.0125
2009.0,0.0125
2008.0,0.0125
2007.0,0.0124
2006.0,0.0124
2005.0,0.0124
2004.0,0.0125
2003.0,0.0125
2002.0,0.0125
2001.0,0.0126
2000.0,0.0126
1999.0,0.0126
1998.0,0.0126
1997.0,0.0125
1996.0,0.0125
1995.0,0.0125
1994.0,0.0125
1993.0,0.0125
1992.0,0.0125
1991.0,0.0125
1990.0,0.0125
1989.0,0.0125
1988.0,0.0125
1987.0,0.0125
1986.0,0.0126
1985.0,0.0126
1984.0,0.0126
1983.0,0.0126
1982.0,0.0126
1981.0,0.0126
1980.0,0.0126
1979.0,0.0125
1978.0,0.0125
1977.0,0.0124
1976.0,0.0124
1975.0,0.0124
1974.0,0.0125
1973.0,0.0125
1972.0,0.0125
1971.0,0.0125
1970.0,0.0125
1969.0,0.0124
1968.0,0.0124
1967.0,0.0125
1966.0,0.0125
1965.0,0.0125
1964.0,0.0125
1963.0,0.0125
1962.0,0.0125
1961.0,0.0125
1960.0,0.0125
1959.0,0.0125
1958.0,0.0125
1957.0,0.0126
1956.0,0.0126
1955.0,0.0125
1954.0,0.0125
1953.0,0.0125
1952.0,0.0125
1951.0,0.0125
1950.0,0.0125
1949.0,0.0125
1948.0,0.0125
1947.0,0.0125
1946.0,0.0124
1945.0,0.0124
1944.0,0.0124
1943.0,0.0124
1942.0,0.0125
1941.0,0.0126
1940.0,0.0126
1939.0,0.0126
1938.0,0.0126
1937.0,0.0125
1936.0,0.0125
1935.0,0.0125
1934.0,0.0125
1933.0,0.0125
1932.0,0.0125
1931.0,0.0126
1930.0,0.0126
1929.0,0.0125
1928.0,0.0125
1927.0,0.0124
1926.0,0.0124
1925.0,0.0123
1924.0,0.0123
1923.0,0.0124
1922.0,0.0125
1921.0,0.0125
1920.0,0.0125
1919.0,0.0125
1918.0,0.0125
1917.0,0.0126
1916.0,0.0126
1915.0,0.0126
1914.0,0.0126
1913.0,0.0126
1912.0,0.0126
1911.0,0.0126
1910.0,0.0126
1909.0,0.0126
1908.0,0.0126
1907.0,0.0126
1906.0,0.0126
1905.0,0.0126
1904.0,0.0126
1903.0,0.0126
1902.0,0.0126
1901.0,0.0126
1900.0,0.0126
1899.0,0.0127
1898.0,0.0127
1897.0,0.0127
1896.0,0.0127
1895.0,0.0127
1894.0,0.0126
1893.0,0.0127
1892.0,0.0127
1891.0,0.0127
1890.0,0.0127
1889.0,0.0127
1888.0,0.0127
1887.0,0.0126
1886.0,0.0126
1885.0,0.0126
1884.0,0.0126
1883.0,0.0126
1882.0,0.0126
1881.0,0.0125
1880.0,0.0125
1879.0,0.0125
1878.0,0.0125
1877.0,0.0125
1876.0,0.0126
1875.0,0.0125
1874.0,0.0125
1873.0,0.0125
1872.0,0.0125
1871.0,0.0125
1870.0,0.0125
1869.0,0.0125
1868.0,0.0126
1867.0,0.0126
1866.0,0.0126
1865.0,0.0125
1864.0,0.0125
1863.0,0.0124
1862.0,0.0124
1861.0,0.0125
1860.0,0.0125
1859.0,0.0125
1858.0,0.0125
1857.0,0.0125
1856.0,0.0125
1855.0,0.0125
1854.0,0.0125
1853.0,0.0125
1852.0,0.0125
1851.0,0.0125
1850.0,0.0125
1849.0,0.0126
1848.0,0.0126
1847.0,0.0126
1846.0,0.0126
1845.0,0.0125
1844.0,0.0125
1843.0,0.0125
1842.0,0.0125
1841.0,0.0126
1840.0,0.0126
1839.0,0.0126
1838.0,0.0126
1837.0,0.0127
1836.0,0.0127
1835.0,0.0127
1834.0,0.0126
1833.0,0.0126
1832.0,0.0126
1831.0,0.0126
1830.0,0.0126
1829.0,0.0126
1828.0,0.0126
1827.0,0.0126
1826.0,0.0126
1825.0,0.0126
1824.0,0.0125
1823.0,0.0125
1822.0,0.0124
1821.0,0.0124
1820.0,0.0125
1819.0,0.0125
1818.0,0.0125
1817.0,0.0125
1816.0,0.0125
1815.0,0.0125
1814.0,0.0126
1813.0,0.0126
1812.0,0.0126
1811.0,0.0126
1810.0,0.0125
1809.0,0.0125
1808.0,0.0125
1807.0,0.0125
1806.0,0.0126
1805.0,0.0126
1804.0,0.0126
1803.0,0.0126
1802.0,0.0125
1801.0,0.0125
1800.0,0.0125
1799.0,0.0125
1798.0,0.0125
1797.0,0.0125
1796.0,0.0125
1795.0,0.0125
1794.0,0.0125
1793.0,0.0125
1792.0,0.0125
1791.0,0.0125
1790.0,0.0125
1789.0,0.0125
1788.0,0.0125
1787.0,0.0125
1786.0,0.0125
1785.0,0.0125
1784.0,0.0125
1783.0,0.0125
1782.0,0.0125
1781.0,0.0126
1780.0,0.0126
1779.0,0.0126
1778.0,0.0127
1777.0,0.0127
1776.0,0.0127
1775.0,0.0127
1774.0,0.0126
1773.0,0.0125
1772.0,0.0125
1771.0,0.0126
1770.0,0.0126
1769.0,0.0126
1768.0,0.0126
1767.0,0.0126
1766.0,0.0126
1765.0,0.0126
1764.0,0.0126
1763.0,0.0127
1762.0,0.0127
1761.0,0.0127
1760.0,0.0128
1759.0,0.0128
1758.0,0.0129
1757.0,0.013
1756.0,0.0131
1755.0,0.0131
1754.0,0.0132
1753.0,0.0133
1752.0,0.0134
1751.0,0.0135
1750.0,0.0135
1749.0,0.0137
1748.0,0.0138
1747.0,0.014
1746.0,0.0141
1745.0,0.0141
1744.0,0.0142
1743.0,0.0142
1742.0,0.0143
1741.0,0.0142
1740.0,0.0142
1739.0,0.0142
1738.0,0.0141
1737.0,0.0141
1736.0,0.0141
1735.0,0.014
1734.0,0.0139
1733.0,0.0138
1732.0,0.0138
1731.0,0.0139
1730.0,0.0139
1729.0,0.014
1728.0,0.014
1727.0,0.014
1726.0,0.014
1725.0,0.014
1724.0,0.014
1723.0,0.014
1722.0,0.014
1721.0,0.014
1720.0,0.0139
1719.0,0.0138
1718.0,0.0138
1717.0,0.0138
1716.0,0.0139
1715.0,0.014
1714.0,0.0141
1713.0,0.0141
1712.0,0.0141
1711.0,0.0141
1710.0,0.0141
1709.0,0.0141
1708.0,0.0141
1707.0,0.0141
1706.0,0.0141
1705.0,0.0141
1704.0,0.0141
1703.0,0.0141
1702.0,0.0141
1701.0,0.0141
1700.0,0.0142
1699.0,0.0141
1698.0,0.0141
1697.0,0.0142
1696.0,0.0142
1695.0,0.0142
1694.0,0.0141
1693.0,0.0142
1692.0,0.0143
1691.0,0.0143
1690.0,0.0143
1689.0,0.0144
1688.0,0.0145
1687.0,0.0145
1686.0,0.0146
1685.0,0.0146
1684.0,0.0147
1683.0,0.0147
1682.0,0.0147
1681.0,0.0147
1680.0,0.0147
1679.0,0.0148
1678.0,0.0148
1677.0,0.0148
1676.0,0.0148
1675.0,0.0148
1674.0,0.0148
1673.0,0.0149
1672.0,0.015
1671.0,0.015
1670.0,0.015
1669.0,0.0151
1668.0,0.015
1667.0,0.0151
1666.0,0.0151
1665.0,0.0152
1664.0,0.0152
1663.0,0.0153
1662.0,0.0153
1661.0,0.0153
1660.0,0.0153
1659.0,0.0153
1658.0,0.0154
1657.0,0.0153
1656.0,0.0153
1655.0,0.0153
1654.0,0.0152
1653.0,0.0153
1652.0,0.0153
1651.0,0.0153
1650.0,0.0154
1649.0,0.0155
1648.0,0.0156
1647.0,0.0156
1646.0,0.0157
1645.0,0.0157
1644.0,0.0157
1643.0,0.0157
1642.0,0.0158
1641.0,0.0158
1640.0,0.0158
1639.0,0.0158
1638.0,0.0158
1637.0,0.0158
1636.0,0.0159
1635.0,0.0159
1634.0,0.0158
1633.0,0.0157
1632.0,0.0157
1631.0,0.0156
1630.0,0.0155
1629.0,0.0155
1628.0,0.0155
1627.0,0.0154
1626.0,0.0154
1625.0,0.0153
1624.0,0.0152
1623.0,0.0152
1622.0,0.0152
1621.0,0.0151
1620.0,0.0151
1619.0,0.015
1618.0,0.015
1617.0,0.0149
1616.0,0.0148
1615.0,0.0148
1614.0,0.0147
1613.0,0.0147
1612.0,0.0147
1611.0,0.0146
1610.0,0.0145
1609.0,0.0145
1608.0,0.0145
1607.0,0.0145
1606.0,0.0146
1605.0,0.0147
1604.0,0.0147
1603.0,0.0148
1602.0,0.0148
1601.0,0.0147
1600.0,0.0146
1599.0,0.0145
1598.0,0.0144
1597.0,0.0143
1596.0,0.0142
1595.0,0.0142
1594.0,0.0141
1593.0,0.014
1592.0,0.014
1591.0,0.014
1590.0,0.0139
1589.0,0.0139
1588.0,0.0139
1587.0,0.0139
1586.0,0.0139
1585.0,0.0139
1584.0,0.0139
1583.0,0.0139
1582.0,0.0139
1581.0,0.0139
1580.0,0.0138
1579.0,0.0138
1578.0,0.0137
1577.0,0.0137
1576.0,0.0136
1575.0,0.0136
1574.0,0.0135
1573.0,0.0135
1572.0,0.0135
1571.0,0.0135
1570.0,0.0136
1569.0,0.0137
1568.0,0.0137
1567.0,0.0137
1566.0,0.0137
1565.0,0.0137
1564.0,0.0137
1563.0,0.0137
1562.0,0.0137
1561.0,0.0136
1560.0,0.0134
1559.0,0.0134
1558.0,0.0134
1557.0,0.0134
1556.0,0.0134
1555.0,0.0135
1554.0,0.0136
1553.0,0.0136
1552.0,0.0137
1551.0,0.0136
1550.0,0.0136
1549.0,0.0136
1548.0,0.0135
1547.0,0.0135
1546.0,0.0135
1545.0,0.0136
1544.0,0.0137
1543.0,0.0137
1542.0,0.0137
1541.0,0.0137
1540.0,0.0137
1539.0,0.0136
1538.0,0.0134
1537.0,0.0133
1536.0,0.0134
1535.0,0.0133
1534.0,0.0132
1533.0,0.0132
1532.0,0.0131
1531.0,0.0131
1530.0,0.013
1529.0,0.013
1528.0,0.013
1527.0,0.0129
1526.0,0.0128
1525.0,0.0128
1524.0,0.0129
1523.0,0.0128
1522.0,0.0127
1521.0,0.0127
1520.0,0.0128
1519.0,0.0128
1518.0,0.0128
1517.0,0.0129
1516.0,0.0128
1515.0,0.0126
1514.0,0.0124
1513.0,0.0123
1512.0,0.0123
1511.0,0.0123
1510.0,0.0123
1509.0,0.0124
1508.0,0.0126
1507.0,0.0127
1506.0,0.0125
1505.0,0.0122
1504.0,0.0122
1503.0,0.0122
1502.0,0.0122
1501.0,0.0122
1500.0,0.0123
1499.0,0.0124
1498.0,0.0125
1497.0,0.0129
1496.0,0.0133
1495.0,0.0136
1494.0,0.0138
1493.0,0.0139
1492.0,0.014
1491.0,0.0138
1490.0,0.0134
1489.0,0.0133
1488.0,0.0134
1487.0,0.0134
1486.0,0.0135
1485.0,0.0137
1484.0,0.014
1483.0,0.0143
1482.0,0.0146
1481.0,0.0151
1480.0,0.0157
1479.0,0.0163
1478.0,0.0173
1477.0,0.0191
1476.0,0.0216
1475.0,0.0246
1474.0,0.0285
1473.0,0.0336
1472.0,0.0386
1471.0,0.0425
1470.0,0.0461
1469.0,0.0503
1468.0,0.055
1467.0,0.0605
1466.0,0.0676
1465.0,0.0762
1464.0,0.0837
1463.0,0.0883
1462.0,0.0907
1461.0,0.092
1460.0,0.0926
1459.0,0.0928
1458.0,0.0934
1457.0,0.0947
1456.0,0.0955
1455.0,0.0954
1454.0,0.095
1453.0,0.0943
1452.0,0.0928
1451.0,0.0906
1450.0,0.0875
1449.0,0.0832
1448.0,0.0774
1447.0,0.0713
1446.0,0.066
1445.0,0.0614
1444.0,0.0572
1443.0,0.0535
1442.0,0.0507
1441.0,0.0487
1440.0,0.0474
1439.0,0.0468
1438.0,0.0469
1437.0,0.0474
1436.0,0.0472
1435.0,0.0458
1434.0,0.0434
1433.0,0.0404
1432.0,0.037
1431.0,0.0339
1430.0,0.0314
1429.0,0.0295
1428.0,0.0281
1427.0,0.027
1426.0,0.0263
1425.0,0.0255
1424.0,0.0248
1423.0,0.0243
1422.0,0.0239
1421.0,0.0233
1420.0,0.0227
1419.0,0.0223
1418.0,0.0221
1417.0,0.0218
1416.0,0.0215
1415.0,0.0212
1414.0,0.0209
1413.0,0.0205
1412.0,0.0201
1411.0,0.0199
1410.0,0.0197
1409.0,0.0195
1408.0,0.0192
1407.0,0.019
1406.0,0.0188
1405.0,0.0186
1404.0,0.0184
1403.0,0.0184
1402.0,0.0183
1401.0,0.0181
1400.0,0.0179
1399.0,0.0178
1398.0,0.0178
1397.0,0.0177
1396.0,0.0174
1395.0,0.0172
1394.0,0.0171
1393.0,0.0171
1392.0,0.0172
1391.0,0.0174
1390.0,0.0178
1389.0,0.0182
1388.0,0.019
1387.0,0.0208
1386.0,0.0234
1385.0,0.0269
1384.0,0.0321
1383.0,0.0398
1382.0,0.0503
1381.0,0.0641
1380.0,0.0815
1379.0,0.1015
1378.0,0.121
1377.0,0.1358
1376.0,0.1422
1375.0,0.1379
1374.0,0.1243
1373.0,0.1076
1372.0,0.0925
1371.0,0.0797
1370.0,0.0687
1369.0,0.0598
1368.0,0.0534
1367.0,0.0492
1366.0,0.0467
1365.0,0.0454
1364.0,0.0452
1363.0,0.046
1362.0,0.0476
1361.0,0.0494
1360.0,0.0507
1359.0,0.0512
1358.0,0.0506
1357.0,0.0489
1356.0,0.0464
1355.0,0.0436
1354.0,0.0408
1353.0,0.0384
1352.0,0.0364
1351.0,0.0347
1350.0,0.0333
1349.0,0.0321
1348.0,0.0311
1347.0,0.0302
1346.0,0.0294
1345.0,0.0287
1344.0,0.0281
1343.0,0.0276
1342.0,0.0271
1341.0,0.0267
1340.0,0.0264
1339.0,0.0262
1338.0,0.0261
1337.0,0.026
1336.0,0.026
1335.0,0.026
1334.0,0.0261
1333.0,0.0264
1332.0,0.0267
1331.0,0.0269
1330.0,0.027
1329.0,0.0269
1328.0,0.0267
1327.0,0.0263
1326.0,0.0259
1325.0,0.0254
1324.0,0.0249
1323.0,0.0245
1322.0,0.0242
1321.0,0.0239
1320.0,0.0237
1319.0,0.0235
1318.0,0.0233
1317.0,0.0231
1316.0,0.023
1315.0,0.0228
1314.0,0.0227
1313.0,0.0227
1312.0,0.0227
1311.0,0.0228
1310.0,0.0229
1309.0,0.0232
1308.0,0.0237
1307.0,0.0243
1306.0,0.0249
1305.0,0.0254
1304.0,0.0256
1303.0,0.0255
1302.0,0.0253
1301.0,0.0251
1300.0,0.025
1299.0,0.025
1298.0,0.0252
1297.0,0.0253
1296.0,0.0253
1295.0,0.0252
1294.0,0.0249
1293.0,0.0246
1292.0,0.0242
1291.0,0.0239
1290.0,0.0235
1289.0,0.0232
1288.0,0.023
1287.0,0.0228
1286.0,0.0226
1285.0,0.0225
1284.0,0.0223
1283.0,0.0221
1282.0,0.0219
1281.0,0.0218
1280.0,0.0217
1279.0,0.0217
1278.0,0.0216
1277.0,0.0215
1276.0,0.0215
1275.0,0.0214
1274.0,0.0214
1273.0,0.0213
1272.0,0.0213
1271.0,0.0213
1270.0,0.0213
1269.0,0.0213
1268.0,0.0213
1267.0,0.0213
1266.0,0.0213
1265.0,0.0213
1264.0,0.0215
1263.0,0.0217
1262.0,0.0219
1261.0,0.0221
1260.0,0.0224
1259.0,0.0228
1258.0,0.0233
1257.0,0.0236
1256.0,0.0238
1255.0,0.0238
1254.0,0.0236
1253.0,0.0232
1252.0,0.0227
1251.0,0.0223
1250.0,0.0219
1249.0,0.0217
1248.0,0.0215
1247.0,0.0214
1246.0,0.0213
1245.0,0.0213
1244.0,0.0211
1243.0,0.021
1242.0,0.0209
1241.0,0.0208
1240.0,0.0209
1239.0,0.0209
1238.0,0.021
1237.0,0.0209
1236.0,0.0208
1235.0,0.0208
1234.0,0.0207
1233.0,0.0207
1232.0,0.0206
1231.0,0.0206
1230.0,0.0206
1229.0,0.0207
1228.0,0.0207
1227.0,0.0208
1226.0,0.021
1225.0,0.0212
1224.0,0.0214
1223.0,0.0218
1222.0,0.0221
1221.0,0.0224
1220.0,0.0226
1219.0,0.0227
1218.0,0.0228
1217.0,0.0227
1216.0,0.0226
1215.0,0.0225
1214.0,0.0223
1213.0,0.0222
1212.0,0.0221
1211.0,0.0221
1210.0,0.022
1209.0,0.022
1208.0,0.022
1207.0,0.022
1206.0,0.022
1205.0,0.022
1204.0,0.0221
1203.0,0.0222
1202.0,0.0223
1201.0,0.0223
1200.0,0.0223
1199.0,0.0224
1198.0,0.0224
1197.0,0.0225
1196.0,0.0225
1195.0,0.0226
1194.0,0.0226
1193.0,0.0227
1192.0,0.0228
1191.0,0.0228
1190.0,0.0229
1189.0,0.0229
1188.0,0.0229
1187.0,0.023
1186.0,0.0232
1185.0,0.0233
1184.0,0.0234
1183.0,0.0235
1182.0,0.0237
1181.0,0.0238
1180.0,0.0241
1179.0,0.0244
1178.0,0.0247
1177.0,0.0252
1176.0,0.0259
1175.0,0.0268
1174.0,0.028
1173.0,0.0296
1172.0,0.0316
1171.0,0.0337
1170.0,0.0358
1169.0,0.0376
1168.0,0.0388
1167.0,0.0392
1166.0,0.0389
1165.0,0.0383
1164.0,0.0375
1163.0,0.0368
1162.0,0.0361
1161.0,0.0355
1160.0,0.035
1159.0,0.0347
1158.0,0.0344
1157.0,0.0343
1156.0,0.0343
1155.0,0.0343
1154.0,0.0343
1153.0,0.0342
1152.0,0.034
1151.0,0.0337
1150.0,0.0332
1149.0,0.0326
1148.0,0.0319
1147.0,0.0312
1146.0,0.0306
1145.0,0.03
1144.0,0.0295
1143.0,0.029
1142.0,0.0285
1141.0,0.028
1140.0,0.0276
1139.0,0.0272
1138.0,0.0269
1137.0,0.0266
1136.0,0.0263
1135.0,0.0261
1134.0,0.0259
1133.0,0.0257
1132.0,0.0255
1131.0,0.0253
1130.0,0.0252
1129.0,0.0251
1128.0,0.0251
1127.0,0.0251
1126.0,0.0251
1125.0,0.0251
1124.0,0.025
1123.0,0.025
1122.0,0.025
1121.0,0.0249
1120.0,0.0249
1119.0,0.0248
1118.0,0.0249
1117.0,0.025
1116.0,0.0251
1115.0,0.0251
1114.0,0.0251
1113.0,0.0252
1112.0,0.0253
1111.0,0.0254
1110.0,0.0256
1109.0,0.0259
1108.0,0.0262
1107.0,0.0266
1106.0,0.0271
1105.0,0.0276
1104.0,0.0281
1103.0,0.0284
1102.0,0.0285
1101.0,0.0284
1100.0,0.0281
1099.0,0.0276
1098.0,0.0271
1097.0,0.0267
1096.0,0.0263
1095.0,0.0259
1094.0,0.0255
1093.0,0.0251
1092.0,0.0248
1091.0,0.0244
1090.0,0.0241
1089.0,0.0238
1088.0,0.0236
1087.0,0.0234
1086.0,0.0232
1085.0,0.0231
1084.0,0.0229
1083.0,0.0227
1082.0,0.0225
1081.0,0.0223
1080.0,0.0221
1079.0,0.022
1078.0,0.0218
1077.0,0.0217
1076.0,0.0216
1075.0,0.0215
1074.0,0.0214
1073.0,0.0214
1072.0,0.0214
1071.0,0.0214
1070.0,0.0213
1069.0,0.0211
1068.0,0.0208
1067.0,0.0207
1066.0,0.0207
1065.0,0.0209
1064.0,0.0211
1063.0,0.0213
1062.0,0.0214
1061.0,0.0213
1060.0,0.0211
1059.0,0.021
1058.0,0.0209
1057.0,0.021
1056.0,0.0211
1055.0,0.0211
1054.0,0.0211
1053.0,0.0211
1052.0,0.0211
1051.0,0.0213
1050.0,0.0214
1049.0,0.0216
1048.0,0.0217
1047.0,0.0219
1046.0,0.0221
1045.0,0.0223
1044.0,0.0224
1043.0,0.0224
1042.0,0.0223
1041.0,0.0221
1040.0,0.0218
1039.0,0.0216
1038.0,0.0215
1037.0,0.0215
1036.0,0.0215
1035.0,0.0217
1034.0,0.0218
1033.0,0.0219
1032.0,0.022
1031.0,0.0219
1030.0,0.0219
1029.0,0.0218
1028.0,0.0217
1027.0,0.0218
1026.0,0.0219
1025.0,0.022
1024.0,0.0221
1023.0,0.0221
1022.0,0.0221
1021.0,0.0222
1020.0,0.0222
1019.0,0.0222
1018.0,0.0223
1017.0,0.0223
1016.0,0.0222
1015.0,0.0222
1014.0,0.0222
1013.0,0.0222
1012.0,0.0223
1011.0,0.0224
1010.0,0.0225
1009.0,0.0227
1008.0,0.0229
1007.0,0.0232
1006.0,0.0237
1005.0,0.0245
1004.0,0.0255
1003.0,0.0269
1002.0,0.0289
1001.0,0.0313
1000.0,0.034
999.0,0.0364
998.0,0.0378
997.0,0.0377
996.0,0.0363
995.0,0.034
994.0,0.0316
993.0,0.0294
992.0,0.0276
991.0,0.0262
990.0,0.0253
989.0,0.0246
988.0,0.0242
987.0,0.0239
986.0,0.0237
985.0,0.0236
984.0,0.0237
983.0,0.0241
982.0,0.0247
981.0,0.0258
980.0,0.0274
979.0,0.0294
978.0,0.032
977.0,0.0351
976.0,0.0383
975.0,0.0414
974.0,0.0437
973.0,0.0446
972.0,0.0438
971.0,0.0416
970.0,0.0385
969.0,0.0353
968.0,0.0326
967.0,0.0306
966.0,0.029
965.0,0.0279
964.0,0.027
963.0,0.0263
962.0,0.0256
961.0,0.0251
960.0,0.0247
959.0,0.0244
958.0,0.0241
957.0,0.0239
956.0,0.0237
955.0,0.0235
954.0,0.0233
953.0,0.0232
952.0,0.023
951.0,0.0229
950.0,0.0228
949.0,0.0227
948.0,0.0227
947.0,0.0227
946.0,0.0228
945.0,0.023
944.0,0.0233
943.0,0.0236
942.0,0.0239
941.0,0.0241
940.0,0.0242
939.0,0.0241
938.0,0.0239
937.0,0.0235
936.0,0.0231
935.0,0.0227
934.0,0.0224
933.0,0.0222
932.0,0.022
931.0,0.0218
930.0,0.0216
929.0,0.0215
928.0,0.0215
927.0,0.0214
926.0,0.0213
925.0,0.0212
924.0,0.0211
923.0,0.021
922.0,0.021
921.0,0.0211
920.0,0.0211
919.0,0.0211
918.0,0.0211
917.0,0.0211
916.0,0.0211
915.0,0.0211
914.0,0.0212
913.0,0.0212
912.0,0.0213
911.0,0.0214
910.0,0.0215
909.0,0.0216
908.0,0.0218
907.0,0.022
906.0,0.0224
905.0,0.0232
904.0,0.0243
903.0,0.0258
902.0,0.0275
901.0,0.0291
900.0,0.0303
899.0,0.0308
898.0,0.0305
897.0,0.0296
896.0,0.0283
895.0,0.0269
894.0,0.0257
893.0,0.0248
892.0,0.0241
891.0,0.0237
890.0,0.0233
889.0,0.0231
888.0,0.0229
887.0,0.0227
886.0,0.0225
885.0,0.0224
884.0,0.0223
883.0,0.0222
882.0,0.0221
881.0,0.0221
880.0,0.022
879.0,0.0221
878.0,0.0222
877.0,0.0223
876.0,0.0224
875.0,0.0224
874.0,0.0223
873.0,0.0223
872.0,0.0223
871.0,0.0223
870.0,0.0223
869.0,0.0223
868.0,0.0223
867.0,0.0223
866.0,0.0223
865.0,0.0223
864.0,0.0223
863.0,0.0224
862.0,0.0226
861.0,0.0228
860.0,0.0229
859.0,0.0229
858.0,0.0228
857.0,0.0228
856.0,0.0229
855.0,0.023
854.0,0.0232
853.0,0.0235
852.0,0.0237
851.0,0.0239
850.0,0.0241
849.0,0.0244
848.0,0.0249
847.0,0.0257
846.0,0.0269
845.0,0.0287
844.0,0.0314
843.0,0.0347
842.0,0.0374
841.0,0.0384
840.0,0.0373
839.0,0.0347
838.0,0.0318
837.0,0.0295
836.0,0.0279
835.0,0.0269
834.0,0.0263
833.0,0.0259
832.0,0.0256
831.0,0.0252
830.0,0.0249
829.0,0.0246
828.0,0.0245
827.0,0.0243
826.0,0.0242
825.0,0.0242
824.0,0.0242
823.0,0.0243
822.0,0.0244
821.0,0.0244
820.0,0.0243
819.0,0.0242
818.0,0.0243
817.0,0.0247
816.0,0.0253
815.0,0.0262
814.0,0.0274
813.0,0.0289
812.0,0.0305
811.0,0.032
810.0,0.0332
809.0,0.0339
808.0,0.034
807.0,0.0333
806.0,0.0322
805.0,0.031
804.0,0.0299
803.0,0.029
802.0,0.0283
801.0,0.0277
800.0,0.0271
799.0,0.0266
798.0,0.0262
797.0,0.0258
796.0,0.0256
795.0,0.0254
794.0,0.0253
793.0,0.0252
792.0,0.025
791.0,0.0247
790.0,0.0245
789.0,0.0244
788.0,0.0243
787.0,0.0242
786.0,0.024
785.0,0.0239
784.0,0.0239
783.0,0.0239
782.0,0.0239
781.0,0.0239
780.0,0.0239
779.0,0.0237
778.0,0.0236
777.0,0.0236
776.0,0.0236
775.0,0.0237
774.0,0.0238
773.0,0.0239
772.0,0.0241
771.0,0.0243
770.0,0.0245
769.0,0.0247
768.0,0.0249
767.0,0.025
766.0,0.0251
765.0,0.0252
764.0,0.0254
763.0,0.0256
762.0,0.0258
761.0,0.0261
760.0,0.0262
759.0,0.0263
758.0,0.0264
757.0,0.0265
756.0,0.0265
755.0,0.0265
754.0,0.0264
753.0,0.0264
752.0,0.0265
751.0,0.0266
750.0,0.0267
749.0,0.0268
748.0,0.0269
747.0,0.027
746.0,0.027
745.0,0.0271
744.0,0.0271
743.0,0.0271
742.0,0.0272
741.0,0.0274
740.0,0.0276
739.0,0.0277
738.0,0.0277
737.0,0.0279
736.0,0.0281
735.0,0.0285
734.0,0.0295
733.0,0.0311
732.0,0.0331
731.0,0.0347
730.0,0.0352
729.0,0.0347
728.0,0.0336
727.0,0.0324
726.0,0.0318
725.0,0.0318
724.0,0.0324
723.0,0.0335
722.0,0.0351
721.0,0.0368
720.0,0.0379
719.0,0.0377
718.0,0.0363
717.0,0.0345
716.0,0.0328
715.0,0.0314
714.0,0.0306
713.0,0.0303
712.0,0.0302
711.0,0.0303
710.0,0.0305
709.0,0.0308
708.0,0.0312
707.0,0.0317
706.0,0.0325
705.0,0.0337
704.0,0.0351
703.0,0.0368
702.0,0.0387
701.0,0.0406
700.0,0.042
699.0,0.0424
698.0,0.0421
697.0,0.0412
696.0,0.0399
695.0,0.0383
694.0,0.0365
693.0,0.0348
692.0,0.0336
691.0,0.0331
690.0,0.0328
689.0,0.0325
688.0,0.032
687.0,0.0313
686.0,0.0307
685.0,0.0304
684.0,0.0304
683.0,0.0307
682.0,0.0311
681.0,0.0312
680.0,0.0307
679.0,0.0301
678.0,0.0298
677.0,0.03
676.0,0.0304
675.0,0.0304
674.0,0.0303
673.0,0.0304
672.0,0.0312
671.0,0.033
670.0,0.0362
669.0,0.0395
668.0,0.0405
667.0,0.039
666.0,0.0359
665.0,0.033
664.0,0.0313
663.0,0.0304
662.0,0.0301
661.0,0.0303
660.0,0.0305
659.0,0.0306
658.0,0.0306
657.0,0.0305
656.0,0.0303
655.0,0.0301
654.0,0.0301
653.0,0.0303
652.0,0.0305
651.0,0.0303
650.0,0.0299
649.0,0.0296
648.0,0.0295
647.0,0.0296
646.0,0.0299
645.0,0.0303
644.0,0.0306
643.0,0.0308
642.0,0.0309
641.0,0.0311
640.0,0.0314
639.0,0.0318
638.0,0.0325
637.0,0.0335
636.0,0.0344
635.0,0.0348
634.0,0.0348
633.0,0.0343
632.0,0.0334
631.0,0.0324
630.0,0.0319
629.0,0.032
628.0,0.0323
627.0,0.0323
626.0,0.0321
625.0,0.032
624.0,0.0322
623.0,0.0325
622.0,0.0329
621.0,0.0332
620.0,0.0329
619.0,0.0322
618.0,0.0318
617.0,0.0321
616.0,0.0328
615.0,0.0332
614.0,0.0331
613.0,0.0327
612.0,0.032
611.0,0.031
610.0,0.0302
609.0,0.0302
608.0,0.0307
607.0,0.0314
606.0,0.0325
605.0,0.0339
604.0,0.0348
603.0,0.0345
602.0,0.0333
601.0,0.0325
600.0,0.0324
