cm-1,A
4000.0,0.0042
3999.0,0.0043
3998.0,0.0044
3997.0,0.0044
3996.0,0.0043
3995.0,0.0042
3994.0,0.0042
3993.0,0.0042
3992.0,0.0043
3991.0,0.0043
3990.0,0.0043
3989.0,0.0043
3988.0,0.0043
3987.0,0.0043
3986.0,0.0042
3985.0,0.0042
3984.0,0.0042
3983.0,0.0042
3982.0,0.0042
3981.0,0.0041
3980.0,0.0041
3979.0,0.0041
3978.0,0.004
3977.0,0.004
3976.0,0.0041
3975.0,0.0042
3974.0,0.0043
3973.0,0.0044
3972.0,0.0044
3971.0,0.0044
3970.0,0.0044
3969.0,0.0044
3968.0,0.0044
3967.0,0.0044
3966.0,0.0043
3965.0,0.0043
3964.0,0.0042
3963.0,0.0042
3962.0,0.0042
3961.0,0.0043
3960.0,0.0043
3959.0,0.0044
3958.0,0.0044
3957.0,0.0044
3956.0,0.0044
3955.0,0.0043
3954.0,0.0042
3953.0,0.0042
3952.0,0.0041
3951.0,0.0041
3950.0,0.0041
3949.0,0.0041
3948.0,0.0042
3947.0,0.0043
3946.0,0.0043
3945.0,0.0043
3944.0,0.0043
3943.0,0.0043
3942.0,0.0043
3941.0,0.0044
3940.0,0.0044
3939.0,0.0044
3938.0,0.0044
3937.0,0.0044
3936.0,0.0043
3935.0,0.0043
3934.0,0.0043
3933.0,0.0043
3932.0,0.0044
3931.0,0.0044
3930.0,0.0045
3929.0,0.0046
3928.0,0.0046
3927.0,0.0045
3926.0,0.0045
3925.0,0.0044
3924.0,0.0043
3923.0,0.0043
3922.0,0.0043
3921.0,0.0043
3920.0,0.0044
3919.0,0.0045
3918.0,0.0045
3917.0,0.0045
3916.0,0.0045
3915.0,0.0044
3914.0,0.0043
3913.0,0.0042
3912.0,0.0042
3911.0,0.0042
3910.0,0.0043
3909.0,0.0044
3908.0,0.0045
3907.0,0.0045
3906.0,0.0045
3905.0,0.0044
3904.0,0.0043
3903.0,0.0044
3902.0,0.0045
3901.0,0.0046
3900.0,0.0046
3899.0,0.0046
3898.0,0.0046
3897.0,0.0045
3896.0,0.0045
3895.0,0.0045
3894.0,0.0046
3893.0,0.0045
3892.0,0.0044
3891.0,0.0044
3890.0,0.0045
3889.0,0.0047
3888.0,0.0047
3887.0,0.0046
3886.0,0.0045
3885.0,0.0047
3884.0,0.0049
3883.0,0.0049
3882.0,0.0048
3881.0,0.0046
3880.0,0.0045
3879.0,0.0046
3878.0,0.0047
3877.0,0.0047
3876.0,0.0046
3875.0,0.0045
3874.0,0.0046
3873.0,0.0048
3872.0,0.0049
3871.0,0.0048
3870.0,0.0048
3869.0,0.0048
3868.0,0.0049
3867.0,0.0048
3866.0,0.0046
3865.0,0.0045
3864.0,0.0045
3863.0,0.0046
3862.0,0.0046
3861.0,0.0045
3860.0,0.0044
3859.0,0.0044
3858.0,0.0046
3857.0,0.0048
3856.0,0.005
3855.0,0.0049
3854.0,0.0049
3853.0,0.0049
3852.0,0.0049
3851.0,0.0048
3850.0,0.0048
3849.0,0.0047
3848.0,0.0047
3847.0,0.0047
3846.0,0.0046
3845.0,0.0045
3844.0,0.0045
3843.0,0.0046
3842.0,0.0046
3841.0,0.0047
3840.0,0.0046
3839.0,0.0046
3838.0,0.0046
3837.0,0.0047
3836.0,0.0047
3835.0,0.0047
3834.0,0.0047
3833.0,0.0046
3832.0,0.0046
3831.0,0.0046
3830.0,0.0046
3829.0,0.0046
3828.0,0.0045
3827.0,0.0044
3826.0,0.0045
3825.0,0.0047
3824.0,0.0047
3823.0,0.0046
3822.0,0.0044
3821.0,0.0045
3820.0,0.0047
3819.0,0.0049
3818.0,0.0049
3817.0,0.0048
3816.0,0.0047
3815.0,0.0047
3814.0,0.0047
3813.0,0.0047
3812.0,0.0046
3811.0,0.0046
3810.0,0.0047
3809.0,0.0046
3808.0,0.0044
3807.0,0.0044
3806.0,0.0045
3805.0,0.0047
3804.0,0.0048
3803.0,0.0048
3802.0,0.0048
3801.0,0.005
3800.0,0.0051
3799.0,0.0051
3798.0,0.0049
3797.0,0.0048
3796.0,0.0047
3795.0,0.0048
3794.0,0.0048
3793.0,0.0048
3792.0,0.0048
3791.0,0.0047
3790.0,0.0046
3789.0,0.0045
3788.0,0.0045
3787.0,0.0045
3786.0,0.0046
3785.0,0.0048
3784.0,0.0049
3783.0,0.005
3782.0,0.005
3781.0,0.0049
3780.0,0.0048
3779.0,0.0048
3778.0,0.0048
3777.0,0.0047
3776.0,0.0047
3775.0,0.0047
3774.0,0.0047
3773.0,0.0048
3772.0,0.0048
3771.0,0.0048
3770.0,0.0049
3769.0,0.0051
3768.0,0.0052
3767.0,0.0052
3766.0,0.0051
3765.0,0.005
3764.0,0.005
3763.0,0.0051
3762.0,0.0051
3761.0,0.0051
3760.0,0.0052
3759.0,0.0052
3758.0,0.0052
3757.0,0.0052
3756.0,0.0052
3755.0,0.0052
3754.0,0.0052
3753.0,0.0052
3752.0,0.0053
3751.0,0.0053
3750.0,0.0051
3749.0,0.005
3748.0,0.0051
3747.0,0.0052
3746.0,0.005
3745.0,0.0048
3744.0,0.0048
3743.0,0.0049
3742.0,0.0049
3741.0,0.0049
3740.0,0.0049
3739.0,0.005
3738.0,0.0048
3737.0,0.0045
3736.0,0.0045
3735.0,0.0047
3734.0,0.005
3733.0,0.0051
3732.0,0.0051
3731.0,0.0051
3730.0,0.0052
3729.0,0.0054
3728.0,0.0054
3727.0,0.0054
3726.0,0.0054
3725.0,0.0053
3724.0,0.0052
3723.0,0.0052
3722.0,0.0052
3721.0,0.0052
3720.0,0.0052
3719.0,0.0052
3718.0,0.0053
3717.0,0.0054
3716.0,0.0056
3715.0,0.0056
3714.0,0.0056
3713.0,0.0056
3712.0,0.0056
3711.0,0.0057
3710.0,0.0057
3709.0,0.0056
3708.0,0.0055
3707.0,0.0055
3706.0,0.0054
3705.0,0.0054
3704.0,0.0054
3703.0,0.0053
3702.0,0.0053
3701.0,0.0053
3700.0,0.0053
3699.0,0.0052
3698.0,0.0052
3697.0,0.0052
3696.0,0.0053
3695.0,0.0053
3694.0,0.0054
3693.0,0.0055
3692.0,0.0057
3691.0,0.0058
3690.0,0.0059
3689.0,0.0059
3688.0,0.006
3687.0,0.006
3686.0,0.0061
3685.0,0.0061
3684.0,0.0061
3683.0,0.0061
3682.0,0.0061
3681.0,0.0062
3680.0,0.0063
3679.0,0.0066
3678.0,0.0069
3677.0,0.0069
3676.0,0.007
3675.0,0.0071
3674.0,0.0072
3673.0,0.0073
3672.0,0.007
3671.0,0.0067
3670.0,0.0066
3669.0,0.0066
3668.0,0.0066
3667.0,0.0065
3666.0,0.0065
3665.0,0.0066
3664.0,0.0066
3663.0,0.0067
3662.0,0.0066
3661.0,0.0066
3660.0,0.0067
3659.0,0.0067
3658.0,0.0067
3657.0,0.0067
3656.0,0.0067
3655.0,0.0068
3654.0,0.007
3653.0,0.0072
3652.0,0.0072
3651.0,0.0072
3650.0,0.0073
3649.0,0.0075
3648.0,0.0076
3647.0,0.0076
3646.0,0.0076
3645.0,0.0076
3644.0,0.0076
3643.0,0.0076
3642.0,0.0077
3641.0,0.0077
3640.0,0.0077
3639.0,0.0078
3638.0,0.0078
3637.0,0.0079
3636.0,0.0079
3635.0,0.0078
3634.0,0.0079
3633.0,0.0081
3632.0,0.0084
3631.0,0.0084
3630.0,0.0083
3629.0,0.0084
3628.0,0.0086
3627.0,0.0087
3626.0,0.0088
3625.0,0.0088
3624.0,0.0089
3623.0,0.0091
3622.0,0.0093
3621.0,0.0095
3620.0,0.0096
3619.0,0.0097
3618.0,0.0098
3617.0,0.01
3616.0,0.01
3615.0,0.01
3614.0,0.01
3613.0,0.01
3612.0,0.01
3611.0,0.0101
3610.0,0.0101
3609.0,0.0102
3608.0,0.0103
3607.0,0.0104
3606.0,0.0105
3605.0,0.0106
3604.0,0.0107
3603.0,0.0108
3602.0,0.0109
3601.0,0.011
3600.0,0.0112
3599.0,0.0113
3598.0,0.0114
3597.0,0.0114
3596.0,0.0114
3595.0,0.0115
3594.0,0.0116
3593.0,0.0117
3592.0,0.012
3591.0,0.0122
3590.0,0.0124
3589.0,0.0125
3588.0,0.0126
3587.0,0.0128
3586.0,0.0129
3585.0,0.013
3584.0,0.0131
3583.0,0.0132
3582.0,0.0134
3581.0,0.0135
3580.0,0.0137
3579.0,0.0139
3578.0,0.0141
3577.0,0.0142
3576.0,0.0143
3575.0,0.0144
3574.0,0.0145
3573.0,0.0147
3572.0,0.0149
3571.0,0.0151
3570.0,0.0153
3569.0,0.0156
3568.0,0.0158
3567.0,0.0162
3566.0,0.0164
3565.0,0.0166
3564.0,0.0167
3563.0,0.0168
3562.0,0.0169
3561.0,0.017
3560.0,0.0172
3559.0,0.0174
3558.0,0.0177
3557.0,0.018
3556.0,0.0183
3555.0,0.0185
3554.0,0.0188
3553.0,0.019
3552.0,0.0192
3551.0,0.0195
3550.0,0.0197
3549.0,0.0199
3548.0,0.0201
3547.0,0.0202
3546.0,0.0204
3545.0,0.0206
3544.0,0.0208
3543.0,0.021
3542.0,0.0212
3541.0,0.0213
3540.0,0.0215
3539.0,0.0217
3538.0,0.0218
3537.0,0.0219
3536.0,0.0221
3535.0,0.0223
3534.0,0.0225
3533.0,0.0227
3532.0,0.0228
3531.0,0.0229
3530.0,0.0229
3529.0,0.0229
3528.0,0.0229
3527.0,0.023
3526.0,0.0231
3525.0,0.0232
3524.0,0.0233
3523.0,0.0234
3522.0,0.0235
3521.0,0.0235
3520.0,0.0236
3519.0,0.0236
3518.0,0.0237
3517.0,0.0237
3516.0,0.0237
3515.0,0.0237
3514.0,0.0237
3513.0,0.0238
3512.0,0.0239
3511.0,0.0239
3510.0,0.0239
3509.0,0.0239
3508.0,0.024
3507.0,0.0241
3506.0,0.0243
3505.0,0.0244
3504.0,0.0244
3503.0,0.0244
3502.0,0.0244
3501.0,0.0244
3500.0,0.0244
3499.0,0.0245
3498.0,0.0245
3497.0,0.0246
3496.0,0.0246
3495.0,0.0246
3494.0,0.0246
3493.0,0.0247
3492.0,0.0247
3491.0,0.0247
3490.0,0.0247
3489.0,0.0246
3488.0,0.0245
3487.0,0.0244
3486.0,0.0243
3485.0,0.0242
3484.0,0.0241
3483.0,0.024
3482.0,0.024
3481.0,0.024
3480.0,0.024
3479.0,0.0239
3478.0,0.0238
3477.0,0.0236
3476.0,0.0235
3475.0,0.0234
3474.0,0.0233
3473.0,0.0232
3472.0,0.0231
3471.0,0.0231
3470.0,0.023
3469.0,0.023
3468.0,0.023
3467.0,0.023
3466.0,0.0229
3465.0,0.0228
3464.0,0.0228
3463.0,0.0227
3462.0,0.0226
3461.0,0.0225
3460.0,0.0225
3459.0,0.0224
3458.0,0.0223
3457.0,0.0223
3456.0,0.0223
3455.0,0.0223
3454.0,0.0222
3453.0,0.0222
3452.0,0.0222
3451.0,0.0223
3450.0,0.0223
3449.0,0.0224
3448.0,0.0224
3447.0,0.0224
3446.0,0.0225
3445.0,0.0226
3444.0,0.0226
3443.0,0.0227
3442.0,0.0228
3441.0,0.0229
3440.0,0.023
3439.0,0.023
3438.0,0.0231
3437.0,0.0232
3436.0,0.0232
3435.0,0.0233
3434.0,0.0234
3433.0,0.0235
3432.0,0.0236
3431.0,0.0237
3430.0,0.0238
3429.0,0.024
3428.0,0.0241
3427.0,0.0243
3426.0,0.0245
3425.0,0.0247
3424.0,0.0249
3423.0,0.025
3422.0,0.0252
3421.0,0.0254
3420.0,0.0257
3419.0,0.0259
3418.0,0.0261
3417.0,0.0263
3416.0,0.0264
3415.0,0.0266
3414.0,0.0269
3413.0,0.0271
3412.0,0.0273
3411.0,0.0275
3410.0,0.0278
3409.0,0.028
3408.0,0.0282
3407.0,0.0283
3406.0,0.0283
3405.0,0.0283
3404.0,0.0284
3403.0,0.0284
3402.0,0.0285
3401.0,0.0286
3400.0,0.0286
3399.0,0.0286
3398.0,0.0286
3397.0,0.0286
3396.0,0.0286
3395.0,0.0285
3394.0,0.0284
3393.0,0.0283
3392.0,0.0282
3391.0,0.0281
3390.0,0.0281
3389.0,0.0279
3388.0,0.0277
3387.0,0.0275
3386.0,0.0273
3385.0,0.0272
3384.0,0.0271
3383.0,0.027
3382.0,0.0269
3381.0,0.0268
3380.0,0.0266
3379.0,0.0264
3378.0,0.0261
3377.0,0.0258
3376.0,0.0256
3375.0,0.0254
3374.0,0.0253
3373.0,0.0251
3372.0,0.0249
3371.0,0.0246
3370.0,0.0243
3369.0,0.024
3368.0,0.0238
3367.0,0.0236
3366.0,0.0236
3365.0,0.0234
3364.0,0.0233
3363.0,0.0231
3362.0,0.0229
3361.0,0.0228
3360.0,0.0226
3359.0,0.0225
3358.0,0.0224
3357.0,0.0224
3356.0,0.0223
3355.0,0.0223
3354.0,0.0222
3353.0,0.0221
3352.0,0.022
3351.0,0.0219
3350.0,0.0218
3349.0,0.0217
3348.0,0.0216
3347.0,0.0215
3346.0,0.0214
3345.0,0.0213
3344.0,0.0213
3343.0,0.0212
3342.0,0.0211
3341.0,0.021
3340.0,0.0209
3339.0,0.0208
3338.0,0.0207
3337.0,0.0206
3336.0,0.0205
3335.0,0.0204
3334.0,0.0205
3333.0,0.0205
3332.0,0.0205
3331.0,0.0205
3330.0,0.0204
3329.0,0.0202
3328.0,0.0201
3327.0,0.0201
3326.0,0.02
3325.0,0.0198
3324.0,0.0197
3323.0,0.0196
3322.0,0.0195
3321.0,0.0195
3320.0,0.0195
3319.0,0.0195
3318.0,0.0195
3317.0,0.0194
3316.0,0.0194
3315.0,0.0193
3314.0,0.0192
3313.0,0.0191
3312.0,0.0191
3311.0,0.019
3310.0,0.0189
3309.0,0.0187
3308.0,0.0186
3307.0,0.0186
3306.0,0.0186
3305.0,0.0186
3304.0,0.0186
3303.0,0.0185
3302.0,0.0184
3301.0,0.0182
3300.0,0.0181
3299.0,0.018
3298.0,0.0179
3297.0,0.0179
3296.0,0.0179
3295.0,0.0179
3294.0,0.0178
3293.0,0.0178
3292.0,0.0178
3291.0,0.0177
3290.0,0.0177
3289.0,0.0177
3288.0,0.0176
3287.0,0.0176
3286.0,0.0175
3285.0,0.0174
3284.0,0.0174
3283.0,0.0173
3282.0,0.0172
3281.0,0.017
3280.0,0.0168
3279.0,0.0167
3278.0,0.0167
3277.0,0.0168
3276.0,0.0168
3275.0,0.0168
3274.0,0.0169
3273.0,0.0169
3272.0,0.0169
3271.0,0.0167
3270.0,0.0166
3269.0,0.0164
3268.0,0.0163
3267.0,0.0162
3266.0,0.0162
3265.0,0.0162
3264.0,0.0163
3263.0,0.0163
3262.0,0.0162
3261.0,0.0161
3260.0,0.0159
3259.0,0.0158
3258.0,0.0158
3257.0,0.0158
3256.0,0.0158
3255.0,0.0158
3254.0,0.0158
3253.0,0.0158
3252.0,0.0158
3251.0,0.0157
3250.0,0.0157
3249.0,0.0158
3248.0,0.0159
3247.0,0.016
3246.0,0.016
3245.0,0.0159
3244.0,0.0159
3243.0,0.0158
3242.0,0.0157
3241.0,0.0156
3240.0,0.0155
3239.0,0.0154
3238.0,0.0154
3237.0,0.0154
3236.0,0.0154
3235.0,0.0154
3234.0,0.0153
3233.0,0.0152
3232.0,0.0151
3231.0,0.015
3230.0,0.0149
3229.0,0.0148
3228.0,0.0147
3227.0,0.0147
3226.0,0.0147
3225.0,0.0147
3224.0,0.0146
3223.0,0.0145
3222.0,0.0144
3221.0,0.0143
3220.0,0.0142
3219.0,0.0142
3218.0,0.0142
3217.0,0.0143
3216.0,0.0143
3215.0,0.0142
3214.0,0.0142
3213.0,0.0142
3212.0,0.0141
3211.0,0.0139
3210.0,0.0138
3209.0,0.0137
3208.0,0.0136
3207.0,0.0136
3206.0,0.0136
3205.0,0.0137
3204.0,0.0136
3203.0,0.0136
3202.0,0.0135
3201.0,0.0135
3200.0,0.0135
3199.0,0.0135
3198.0,0.0134
3197.0,0.0134
3196.0,0.0133
3195.0,0.0132
3194.0,0.0132
3193.0,0.0131
3192.0,0.0131
3191.0,0.0132
3190.0,0.0132
3189.0,0.0131
3188.0,0.0131
3187.0,0.013
3186.0,0.0129
3185.0,0.0128
3184.0,0.0127
3183.0,0.0127
3182.0,0.0126
3181.0,0.0126
3180.0,0.0125
3179.0,0.0125
3178.0,0.0124
3177.0,0.0123
3176.0,0.0122
3175.0,0.012
3174.0,0.012
3173.0,0.0119
3172.0,0.0119
3171.0,0.0119
3170.0,0.0118
3169.0,0.0117
3168.0,0.0117
3167.0,0.0116
3166.0,0.0116
3165.0,0.0116
3164.0,0.0116
3163.0,0.0114
3162.0,0.0113
3161.0,0.0112
3160.0,0.0111
3159.0,0.0111
3158.0,0.0112
3157.0,0.0112
3156.0,0.0111
3155.0,0.0111
3154.0,0.011
3153.0,0.011
3152.0,0.0109
3151.0,0.0109
3150.0,0.0109
3149.0,0.0109
3148.0,0.0109
3147.0,0.0108
3146.0,0.0107
3145.0,0.0105
3144.0,0.0104
3143.0,0.0104
3142.0,0.0104
3141.0,0.0104
3140.0,0.0104
3139.0,0.0104
3138.0,0.0104
3137.0,0.0104
3136.0,0.0103
3135.0,0.0102
3134.0,0.0101
3133.0,0.01
3132.0,0.01
3131.0,0.0099
3130.0,0.0099
3129.0,0.0098
3128.0,0.0097
3127.0,0.0096
3126.0,0.0096
3125.0,0.0096
3124.0,0.0096
3123.0,0.0096
3122.0,0.0095
3121.0,0.0093
3120.0,0.0092
3119.0,0.0092
3118.0,0.0092
3117.0,0.0092
3116.0,0.0092
3115.0,0.0092
3114.0,0.0091
3113.0,0.0091
3112.0,0.0091
3111.0,0.0091
3110.0,0.009
3109.0,0.009
3108.0,0.0089
3107.0,0.0088
3106.0,0.0087
3105.0,0.0086
3104.0,0.0086
3103.0,0.0086
3102.0,0.0087
3101.0,0.0087
3100.0,0.0087
3099.0,0.0087
3098.0,0.0086
3097.0,0.0085
3096.0,0.0084
3095.0,0.0084
3094.0,0.0083
3093.0,0.0082
3092.0,0.0081
3091.0,0.008
3090.0,0.008
3089.0,0.008
3088.0,0.008
3087.0,0.008
3086.0,0.0081
3085.0,0.0081
3084.0,0.008
3083.0,0.008
3082.0,0.0079
3081.0,0.0078
3080.0,0.0078
3079.0,0.0077
3078.0,0.0077
3077.0,0.0077
3076.0,0.0076
3075.0,0.0076
3074.0,0.0075
3073.0,0.0074
3072.0,0.0074
3071.0,0.0074
3070.0,0.0074
3069.0,0.0074
3068.0,0.0073
3067.0,0.0073
3066.0,0.0073
3065.0,0.0073
3064.0,0.0073
3063.0,0.0073
3062.0,0.0072
3061.0,0.0071
3060.0,0.0071
3059.0,0.007
3058.0,0.007
3057.0,0.0069
3056.0,0.0068
3055.0,0.0068
3054.0,0.0067
3053.0,0.0067
3052.0,0.0066
3051.0,0.0066
3050.0,0.0065
3049.0,0.0064
3048.0,0.0063
3047.0,0.0062
3046.0,0.0062
3045.0,0.0062
3044.0,0.0061
3043.0,0.0061
3042.0,0.006
3041.0,0.0059
3040.0,0.0058
3039.0,0.0058
3038.0,0.0058
3037.0,0.0057
3036.0,0.0057
3035.0,0.0056
3034.0,0.0056
3033.0,0.0056
3032.0,0.0056
3031.0,0.0056
3030.0,0.0056
3029.0,0.0056
3028.0,0.0056
3027.0,0.0056
3026.0,0.0056
3025.0,0.0056
3024.0,0.0055
3023.0,0.0054
3022.0,0.0053
3021.0,0.0051
3020.0,0.005
3019.0,0.0049
3018.0,0.0048
3017.0,0.0047
3016.0,0.0047
3015.0,0.0046
3014.0,0.0045
3013.0,0.0045
3012.0,0.0044
3011.0,0.0045
3010.0,0.0045
3009.0,0.0044
3008.0,0.0043
3007.0,0.0043
3006.0,0.0042
3005.0,0.0042
3004.0,0.0042
3003.0,0.0043
3002.0,0.0043
3001.0,0.0044
3000.0,0.0044
2999.0,0.0044
2998.0,0.0044
2997.0,0.0044
2996.0,0.0044
2995.0,0.0045
2994.0,0.0046
2993.0,0.0048
2992.0,0.005
2991.0,0.0052
2990.0,0.0054
2989.0,0.0056
2988.0,0.0059
2987.0,0.0063
2986.0,0.0067
2985.0,0.0073
2984.0,0.008
2983.0,0.0088
2982.0,0.0097
2981.0,0.0107
2980.0,0.0119
2979.0,0.0133
2978.0,0.0149
2977.0,0.0166
2976.0,0.0186
2975.0,0.021
2974.0,0.0238
2973.0,0.027
2972.0,0.0306
2971.0,0.0346
2970.0,0.039
2969.0,0.0437
2968.0,0.0488
2967.0,0.0541
2966.0,0.0595
2965.0,0.0648
2964.0,0.0697
2963.0,0.074
2962.0,0.0775
2961.0,0.0801
2960.0,0.082
2959.0,0.0837
2958.0,0.0856
2957.0,0.0882
2956.0,0.0917
2955.0,0.0963
2954.0,0.1017
2953.0,0.1072
2952.0,0.1122
2951.0,0.1156
2950.0,0.1168
2949.0,0.1155
2948.0,0.1115
2947.0,0.1056
2946.0,0.0983
2945.0,0.0905
2944.0,0.0832
2943.0,0.0768
2942.0,0.0718
2941.0,0.0681
2940.0,0.0658
2939.0,0.0648
2938.0,0.0649
2937.0,0.0662
2936.0,0.0685
2935.0,0.0717
2934.0,0.0758
2933.0,0.0807
2932.0,0.0863
2931.0,0.0926
2930.0,0.0993
2929.0,0.1062
2928.0,0.1132
2927.0,0.1201
2926.0,0.1269
2925.0,0.1337
2924.0,0.1405
2923.0,0.1474
2922.0,0.1546
2921.0,0.1616
2920.0,0.1679
2919.0,0.1729
2918.0,0.1757
2917.0,0.1757
2916.0,0.173
2915.0,0.1681
2914.0,0.1619
2913.0,0.1554
2912.0,0.1491
2911.0,0.1435
2910.0,0.1386
2909.0,0.1341
2908.0,0.1301
2907.0,0.1262
2906.0,0.1225
2905.0,0.1189
2904.0,0.1152
2903.0,0.1116
2902.0,0.1079
2901.0,0.1044
2900.0,0.101
2899.0,0.0978
2898.0,0.0947
2897.0,0.0917
2896.0,0.089
2895.0,0.0866
2894.0,0.0846
2893.0,0.0831
2892.0,0.0819
2891.0,0.081
2890.0,0.0804
2889.0,0.0799
2888.0,0.0796
2887.0,0.0794
2886.0,0.0795
2885.0,0.0797
2884.0,0.0802
2883.0,0.081
2882.0,0.0819
2881.0,0.0831
2880.0,0.0843
2879.0,0.0851
2878.0,0.0855
2877.0,0.0853
2876.0,0.0847
2875.0,0.0841
2874.0,0.0837
2873.0,0.0838
2872.0,0.0844
2871.0,0.0854
2870.0,0.0867
2869.0,0.0879
2868.0,0.0887
2867.0,0.0887
2866.0,0.0874
2865.0,0.0847
2864.0,0.0809
2863.0,0.0764
2862.0,0.072
2861.0,0.0681
2860.0,0.065
2859.0,0.063
2858.0,0.0619
2857.0,0.0618
2856.0,0.0625
2855.0,0.0642
2854.0,0.0665
2853.0,0.0693
2852.0,0.0722
2851.0,0.0746
2850.0,0.0761
2849.0,0.0765
2848.0,0.0762
2847.0,0.0758
2846.0,0.076
2845.0,0.0771
2844.0,0.0791
2843.0,0.0817
2842.0,0.0846
2841.0,0.0872
2840.0,0.0892
2839.0,0.0902
2838.0,0.0897
2837.0,0.0878
2836.0,0.0844
2835.0,0.0798
2834.0,0.0745
2833.0,0.069
2832.0,0.0638
2831.0,0.0592
2830.0,0.0553
2829.0,0.052
2828.0,0.0492
2827.0,0.0469
2826.0,0.045
2825.0,0.0433
2824.0,0.0419
2823.0,0.0406
2822.0,0.0395
2821.0,0.0386
2820.0,0.0378
2819.0,0.037
2818.0,0.0363
2817.0,0.0356
2816.0,0.0349
2815.0,0.0343
2814.0,0.0338
2813.0,0.0333
2812.0,0.0329
2811.0,0.0325
2810.0,0.032
2809.0,0.0316
2808.0,0.0312
2807.0,0.0307
2806.0,0.0302
2805.0,0.0296
2804.0,0.0292
2803.0,0.0287
2802.0,0.0283
2801.0,0.0279
2800.0,0.0275
2799.0,0.0272
2798.0,0.0269
2797.0,0.0267
2796.0,0.0265
2795.0,0.0263
2794.0,0.026
2793.0,0.0257
2792.0,0.0254
2791.0,0.0251
2790.0,0.0248
2789.0,0.0246
2788.0,0.0243
2787.0,0.0241
2786.0,0.0239
2785.0,0.0237
2784.0,0.0236
2783.0,0.0234
2782.0,0.0231
2781.0,0.0228
2780.0,0.0226
2779.0,0.0223
2778.0,0.0222
2777.0,0.022
2776.0,0.0219
2775.0,0.0217
2774.0,0.0217
2773.0,0.0216
2772.0,0.0215
2771.0,0.0213
2770.0,0.0212
2769.0,0.021
2768.0,0.0209
2767.0,0.0208
2766.0,0.0207
2765.0,0.0205
2764.0,0.0205
2763.0,0.0204
2762.0,0.0203
2761.0,0.0202
2760.0,0.0202
2759.0,0.0201
2758.0,0.02
2757.0,0.0199
2756.0,0.0198
2755.0,0.0197
2754.0,0.0196
2753.0,0.0196
2752.0,0.0195
2751.0,0.0194
2750.0,0.0194
2749.0,0.0193
2748.0,0.0193
2747.0,0.0192
2746.0,0.0192
2745.0,0.0192
2744.0,0.0192
2743.0,0.0192
2742.0,0.0191
2741.0,0.0191
2740.0,0.0192
2739.0,0.0193
2738.0,0.0195
2737.0,0.0196
2736.0,0.0197
2735.0,0.0197
2734.0,0.0198
2733.0,0.0198
2732.0,0.0198
2731.0,0.0198
2730.0,0.0199
2729.0,0.02
2728.0,0.0202
2727.0,0.0204
2726.0,0.0207
2725.0,0.0209
2724.0,0.021
2723.0,0.021
2722.0,0.021
2721.0,0.0209
2720.0,0.0207
2719.0,0.0205
2718.0,0.0202
2717.0,0.02
2716.0,0.0198
2715.0,0.0197
2714.0,0.0196
2713.0,0.0194
2712.0,0.0192
2711.0,0.0189
2710.0,0.0188
2709.0,0.0187
2708.0,0.0186
2707.0,0.0185
2706.0,0.0184
2705.0,0.0182
2704.0,0.0181
2703.0,0.018
2702.0,0.0179
2701.0,0.0178
2700.0,0.0177
2699.0,0.0176
2698.0,0.0176
2697.0,0.0176
2696.0,0.0176
2695.0,0.0176
2694.0,0.0176
2693.0,0.0175
2692.0,0.0175
2691.0,0.0174
2690.0,0.0173
2689.0,0.0173
2688.0,0.0173
2687.0,0.0173
2686.0,0.0173
2685.0,0.0173
2684.0,0.0173
2683.0,0.0173
2682.0,0.0173
2681.0,0.0172
2680.0,0.0172
2679.0,0.0172
2678.0,0.0172
2677.0,0.0172
2676.0,0.0172
2675.0,0.0172
2674.0,0.0172
2673.0,0.0171
2672.0,0.0172
2671.0,0.0172
2670.0,0.0171
2669.0,0.017
2668.0,0.0169
2667.0,0.0168
2666.0,0.0169
2665.0,0.0169
2664.0,0.017
2663.0,0.017
2662.0,0.017
2661.0,0.0169
2660.0,0.0169
2659.0,0.0168
2658.0,0.0168
2657.0,0.0168
2656.0,0.0168
2655.0,0.0168
2654.0,0.0167
2653.0,0.0166
2652.0,0.0165
2651.0,0.0164
2650.0,0.0163
2649.0,0.0163
2648.0,0.0162
2647.0,0.0162
2646.0,0.0162
2645.0,0.0161
2644.0,0.0161
2643.0,0.0161
2642.0,0.016
2641.0,0.016
2640.0,0.0159
2639.0,0.0158
2638.0,0.0157
2637.0,0.0157
2636.0,0.0157
2635.0,0.0158
2634.0,0.0159
2633.0,0.0159
2632.0,0.0159
2631.0,0.0159
2630.0,0.0158
2629.0,0.0158
2628.0,0.0158
2627.0,0.0158
2626.0,0.0158
2625.0,0.0158
2624.0,0.0159
2623.0,0.0159
2622.0,0.0158
2621.0,0.0158
2620.0,0.0158
2619.0,0.0157
2618.0,0.0157
2617.0,0.0158
2616.0,0.0158
2615.0,0.0159
2614.0,0.0159
2613.0,0.0159
2612.0,0.0159
2611.0,0.0158
2610.0,0.0158
2609.0,0.0157
2608.0,0.0157
2607.0,0.0156
2606.0,0.0155
2605.0,0.0154
2604.0,0.0153
2603.0,0.0152
2602.0,0.0152
2601.0,0.0151
2600.0,0.0151
2599.0,0.0151
2598.0,0.0151
2597.0,0.0151
2596.0,0.0151
2595.0,0.0151
2594.0,0.0152
2593.0,0.0152
2592.0,0.0152
2591.0,0.0152
2590.0,0.0152
2589.0,0.0152
2588.0,0.0153
2587.0,0.0154
2586.0,0.0155
2585.0,0.0156
2584.0,0.0156
2583.0,0.0155
2582.0,0.0155
2581.0,0.0154
2580.0,0.0154
2579.0,0.0154
2578.0,0.0153
2577.0,0.0152
2576.0,0.0151
2575.0,0.015
2574.0,0.015
2573.0,0.0151
2572.0,0.015
2571.0,0.015
2570.0,0.0149
2569.0,0.0148
2568.0,0.0147
2567.0,0.0146
2566.0,0.0146
2565.0,0.0146
2564.0,0.0145
2563.0,0.0145
2562.0,0.0145
2561.0,0.0144
2560.0,0.0144
2559.0,0.0143
2558.0,0.0143
2557.0,0.0142
2556.0,0.0142
2555.0,0.0142
2554.0,0.0142
2553.0,0.0141
2552.0,0.0141
2551.0,0.0141
2550.0,0.0141
2549.0,0.014
2548.0,0.014
2547.0,0.014
2546.0,0.0139
2545.0,0.0139
2544.0,0.0138
2543.0,0.0138
2542.0,0.0138
2541.0,0.0138
2540.0,0.0138
2539.0,0.0138
2538.0,0.0137
2537.0,0.0137
2536.0,0.0137
2535.0,0.0137
2534.0,0.0138
2533.0,0.0138
2532.0,0.0138
2531.0,0.0138
2530.0,0.0137
2529.0,0.0136
2528.0,0.0135
2527.0,0.0135
2526.0,0.0135
2525.0,0.0135
2524.0,0.0135
2523.0,0.0135
2522.0,0.0134
2521.0,0.0134
2520.0,0.0134
2519.0,0.0134
2518.0,0.0133
2517.0,0.0133
2516.0,0.0133
2515.0,0.0133
2514.0,0.0132
2513.0,0.0132
2512.0,0.0131
2511.0,0.0132
2510.0,0.0132
2509.0,0.0132
2508.0,0.0131
2507.0,0.0131
2506.0,0.013
2505.0,0.013
2504.0,0.013
2503.0,0.0131
2502.0,0.0131
2501.0,0.0131
2500.0,0.013
2499.0,0.013
2498.0,0.0129
2497.0,0.0129
2496.0,0.0128
2495.0,0.0128
2494.0,0.0127
2493.0,0.0127
2492.0,0.0128
2491.0,0.0128
2490.0,0.0129
2489.0,0.0129
2488.0,0.0129
2487.0,0.0128
2486.0,0.0128
2485.0,0.0128
2484.0,0.0128
2483.0,0.0129
2482.0,0.0128
2481.0,0.0128
2480.0,0.0128
2479.0,0.0128
2478.0,0.0128
2477.0,0.0128
2476.0,0.0128
2475.0,0.0128
2474.0,0.0127
2473.0,0.0127
2472.0,0.0127
2471.0,0.0126
2470.0,0.0125
2469.0,0.0125
2468.0,0.0125
2467.0,0.0126
2466.0,0.0126
2465.0,0.0126
2464.0,0.0127
2463.0,0.0127
2462.0,0.0127
2461.0,0.0127
2460.0,0.0127
2459.0,0.0127
2458.0,0.0127
2457.0,0.0127
2456.0,0.0127
2455.0,0.0127
2454.0,0.0127
2453.0,0.0127
2452.0,0.0126
2451.0,0.0126
2450.0,0.0125
2449.0,0.0125
2448.0,0.0124
2447.0,0.0124
2446.0,0.0124
2445.0,0.0124
2444.0,0.0124
2443.0,0.0124
2442.0,0.0125
2441.0,0.0125
2440.0,0.0125
2439.0,0.0125
2438.0,0.0125
2437.0,0.0125
2436.0,0.0125
2435.0,0.0126
2434.0,0.0126
2433.0,0.0127
2432.0,0.0126
2431.0,0.0126
2430.0,0.0126
2429.0,0.0126
2428.0,0.0125
2427.0,0.0125
2426.0,0.0125
2425.0,0.0125
2424.0,0.0125
2423.0,0.0125
2422.0,0.0125
2421.0,0.0125
2420.0,0.0125
2419.0,0.0126
2418.0,0.0125
2417.0,0.0125
2416.0,0.0125
2415.0,0.0125
2414.0,0.0125
2413.0,0.0125
2412.0,0.0125
2411.0,0.0125
2410.0,0.0124
2409.0,0.0124
2408.0,0.0124
2407.0,0.0124
2406.0,0.0124
2405.0,0.0125
2404.0,0.0125
2403.0,0.0126
2402.0,0.0126
2401.0,0.0126
2400.0,0.0126
2399.0,0.0126
2398.0,0.0126
2397.0,0.0126
2396.0,0.0126
2395.0,0.0125
2394.0,0.0125
2393.0,0.0124
2392.0,0.0123
2391.0,0.0123
2390.0,0.0122
2389.0,0.0122
2388.0,0.0121
2387.0,0.0119
2386.0,0.0117
2385.0,0.0115
2384.0,0.0111
2383.0,0.0108
2382.0,0.0104
2381.0,0.0101
2380.0,0.0101
2379.0,0.0104
2378.0,0.011
2377.0,0.0119
2376.0,0.0129
2375.0,0.0136
2374.0,0.0136
2373.0,0.0128
2372.0,0.0114
2371.0,0.0099
2370.0,0.0088
2369.0,0.0084
2368.0,0.009
2367.0,0.0108
2366.0,0.0138
2365.0,0.017
2364.0,0.0181
2363.0,0.0163
2362.0,0.0133
2361.0,0.0119
2360.0,0.0125
2359.0,0.0129
2358.0,0.0119
2357.0,0.0106
2356.0,0.0104
2355.0,0.0112
2354.0,0.0119
2353.0,0.0122
2352.0,0.0123
2351.0,0.0123
2350.0,0.0122
2349.0,0.0122
2348.0,0.0121
2347.0,0.0122
2346.0,0.0125
2345.0,0.0128
2344.0,0.0127
2343.0,0.012
2342.0,0.0113
2341.0,0.0108
2340.0,0.0109
2339.0,0.0116
2338.0,0.0124
2337.0,0.0128
2336.0,0.0125
2335.0,0.0117
2334.0,0.0108
2333.0,0.0105
2332.0,0.011
2331.0,0.0118
2330.0,0.0123
2329.0,0.0122
2328.0,0.0119
2327.0,0.0119
2326.0,0.0123
2325.0,0.0127
2324.0,0.0128
2323.0,0.0125
2322.0,0.0121
2321.0,0.012
2320.0,0.0122
2319.0,0.0123
2318.0,0.0124
2317.0,0.0122
2316.0,0.0118
2315.0,0.0114
2314.0,0.0112
2313.0,0.0111
2312.0,0.0111
2311.0,0.011
2310.0,0.011
2309.0,0.0109
2308.0,0.0109
2307.0,0.0109
2306.0,0.0109
2305.0,0.0109
2304.0,0.0109
2303.0,0.011
2302.0,0.0111
2301.0,0.0113
2300.0,0.0115
2299.0,0.0116
2298.0,0.0118
2297.0,0.0119
2296.0,0.012
2295.0,0.0121
2294.0,0.0121
2293.0,0.0122
2292.0,0.0123
2291.0,0.0124
2290.0,0.0125
2289.0,0.0125
2288.0,0.0126
2287.0,0.0126
2286.0,0.0126
2285.0,0.0126
2284.0,0.0126
2283.0,0.0126
2282.0,0.0126
2281.0,0.0126
2280.0,0.0127
2279.0,0.0127
2278.0,0.0127
2277.0,0.0127
2276.0,0.0128
2275.0,0.0128
2274.0,0.0128
2273.0,0.0129
2272.0,0.0129
2271.0,0.013
2270.0,0.013
2269.0,0.013
2268.0,0.013
2267.0,0.0131
2266.0,0.0131
2265.0,0.0131
2264.0,0.0131
2263.0,0.0131
2262.0,0.0132
2261.0,0.0132
2260.0,0.0132
2259.0,0.0132
2258.0,0.0132
2257.0,0.0133
2256.0,0.0133
2255.0,0.0134
2254.0,0.0134
2253.0,0.0133
2252.0,0.0133
2251.0,0.0133
2250.0,0.0133
2249.0,0.0134
2248.0,0.0134
2247.0,0.0134
2246.0,0.0134
2245.0,0.0135
2244.0,0.0135
2243.0,0.0135
2242.0,0.0134
2241.0,0.0134
2240.0,0.0134
2239.0,0.0134
2238.0,0.0135
2237.0,0.0135
2236.0,0.0136
2235.0,0.0136
2234.0,0.0136
2233.0,0.0136
2232.0,0.0135
2231.0,0.0135
2230.0,0.0134
2229.0,0.0134
2228.0,0.0134
2227.0,0.0134
2226.0,0.0134
2225.0,0.0134
2224.0,0.0133
2223.0,0.0133
2222.0,0.0133
2221.0,0.0133
2220.0,0.0134
2219.0,0.0134
2218.0,0.0134
2217.0,0.0134
2216.0,0.0134
2215.0,0.0135
2214.0,0.0135
2213.0,0.0135
2212.0,0.0135
2211.0,0.0135
2210.0,0.0135
2209.0,0.0135
2208.0,0.0134
2207.0,0.0134
2206.0,0.0135
2205.0,0.0135
2204.0,0.0136
2203.0,0.0136
2202.0,0.0135
2201.0,0.0135
2200.0,0.0135
2199.0,0.0134
2198.0,0.0134
2197.0,0.0134
2196.0,0.0134
2195.0,0.0134
2194.0,0.0134
2193.0,0.0134
2192.0,0.0133
2191.0,0.0133
2190.0,0.0133
2189.0,0.0132
2188.0,0.0132
2187.0,0.0132
2186.0,0.0132
2185.0,0.0132
2184.0,0.0132
2183.0,0.0132
2182.0,0.0131
2181.0,0.013
2180.0,0.013
2179.0,0.0131
2178.0,0.0131
2177.0,0.0131
2176.0,0.0131
2175.0,0.013
2174.0,0.0129
2173.0,0.0128
2172.0,0.0127
2171.0,0.0127
2170.0,0.0126
2169.0,0.0126
2168.0,0.0126
2167.0,0.0125
2166.0,0.0125
2165.0,0.0125
2164.0,0.0124
2163.0,0.0124
2162.0,0.0123
2161.0,0.0123
2160.0,0.0123
2159.0,0.0123
2158.0,0.0123
2157.0,0.0124
2156.0,0.0124
2155.0,0.0124
2154.0,0.0124
2153.0,0.0123
2152.0,0.0123
2151.0,0.0123
2150.0,0.0122
2149.0,0.0123
2148.0,0.0123
2147.0,0.0123
2146.0,0.0123
2145.0,0.0123
2144.0,0.0123
2143.0,0.0123
2142.0,0.0123
2141.0,0.0123
2140.0,0.0123
2139.0,0.0123
2138.0,0.0123
2137.0,0.0123
2136.0,0.0122
2135.0,0.0123
2134.0,0.0123
2133.0,0.0123
2132.0,0.0123
2131.0,0.0123
2130.0,0.0123
2129.0,0.0122
2128.0,0.0122
2127.0,0.0122
2126.0,0.0122
2125.0,0.0122
2124.0,0.0121
2123.0,0.0121
2122.0,0.012
2121.0,0.012
2120.0,0.012
2119.0,0.0121
2118.0,0.0121
2117.0,0.0122
2116.0,0.0122
2115.0,0.0123
2114.0,0.0122
2113.0,0.0122
2112.0,0.0122
2111.0,0.0121
2110.0,0.0121
2109.0,0.012
2108.0,0.012
2107.0,0.012
2106.0,0.012
2105.0,0.012
2104.0,0.0119
2103.0,0.0118
2102.0,0.0118
2101.0,0.0118
2100.0,0.0118
2099.0,0.0117
2098.0,0.0117
2097.0,0.0116
2096.0,0.0115
2095.0,0.0115
2094.0,0.0115
2093.0,0.0115
2092.0,0.0115
2091.0,0.0114
2090.0,0.0114
2089.0,0.0114
2088.0,0.0114
2087.0,0.0113
2086.0,0.0113
2085.0,0.0113
2084.0,0.0112
2083.0,0.0112
2082.0,0.0111
2081.0,0.0111
2080.0,0.0111
2079.0,0.0111
2078.0,0.0111
2077.0,0.011
2076.0,0.011
2075.0,0.011
2074.0,0.011
2073.0,0.0109
2072.0,0.0109
2071.0,0.0109
2070.0,0.011
2069.0,0.011
2068.0,0.0109
2067.0,0.0109
2066.0,0.0109
2065.0,0.0109
2064.0,0.011
2063.0,0.0109
2062.0,0.0109
2061.0,0.0109
2060.0,0.0109
2059.0,0.0109
2058.0,0.0109
2057.0,0.0109
2056.0,0.0109
2055.0,0.0109
2054.0,0.0109
2053.0,0.0109
2052.0,0.0109
2051.0,0.0108
2050.0,0.0108
2049.0,0.0109
2048.0,0.0109
2047.0,0.0109
2046.0,0.0109
2045.0,0.0108
2044.0,0.0108
2043.0,0.0108
2042.0,0.0108
2041.0,0.0108
2040.0,0.0108
2039.0,0.0108
2038.0,0.0108
2037.0,0.0108
2036.0,0.0108
2035.0,0.0109
2034.0,0.0109
2033.0,0.0109
2032.0,0.0109
2031.0,0.0109
2030.0,0.0108
2029.0,0.0108
2028.0,0.0109
2027.0,0.0109
2026.0,0.011
2025.0,0.0109
2024.0,0.0109
2023.0,0.0108
2022.0,0.0108
2021.0,0.0108
2020.0,0.0108
2019.0,0.0107
2018.0,0.0107
2017.0,0.0107
2016.0,0.0107
2015.0,0.0107
2014.0,0.0107
2013.0,0.0106
2012.0,0.0106
2011.0,0.0107
2010.0,0.0107
2009.0,0.0107
2008.0,0.0107
2007.0,0.0107
2006.0,0.0107
2005.0,0.0107
2004.0,0.0107
2003.0,0.0107
2002.0,0.0106
2001.0,0.0106
2000.0,0.0107
1999.0,0.0107
1998.0,0.0107
1997.0,0.0107
1996.0,0.0107
1995.0,0.0107
1994.0,0.0107
1993.0,0.0107
1992.0,0.0107
1991.0,0.0107
1990.0,0.0108
1989.0,0.0107
1988.0,0.0107
1987.0,0.0106
1986.0,0.0106
1985.0,0.0106
1984.0,0.0106
1983.0,0.0106
1982.0,0.0106
1981.0,0.0106
1980.0,0.0106
1979.0,0.0106
1978.0,0.0106
1977.0,0.0106
1976.0,0.0106
1975.0,0.0106
1974.0,0.0106
1973.0,0.0106
1972.0,0.0106
1971.0,0.0106
1970.0,0.0106
1969.0,0.0107
1968.0,0.0106
1967.0,0.0106
1966.0,0.0106
1965.0,0.0106
1964.0,0.0107
1963.0,0.0106
1962.0,0.0106
1961.0,0.0105
1960.0,0.0105
1959.0,0.0105
1958.0,0.0105
1957.0,0.0105
1956.0,0.0105
1955.0,0.0106
1954.0,0.0106
1953.0,0.0106
1952.0,0.0106
1951.0,0.0106
1950.0,0.0106
1949.0,0.0106
1948.0,0.0106
1947.0,0.0106
1946.0,0.0106
1945.0,0.0106
1944.0,0.0107
1943.0,0.0107
1942.0,0.0107
1941.0,0.0107
1940.0,0.0107
1939.0,0.0106
1938.0,0.0106
1937.0,0.0105
1936.0,0.0105
1935.0,0.0105
1934.0,0.0105
1933.0,0.0105
1932.0,0.0105
1931.0,0.0105
1930.0,0.0105
1929.0,0.0105
1928.0,0.0105
1927.0,0.0105
1926.0,0.0105
1925.0,0.0106
1924.0,0.0105
1923.0,0.0105
1922.0,0.0105
1921.0,0.0105
1920.0,0.0106
1919.0,0.0106
1918.0,0.0106
1917.0,0.0106
1916.0,0.0106
1915.0,0.0106
1914.0,0.0106
1913.0,0.0106
1912.0,0.0106
1911.0,0.0106
1910.0,0.0106
1909.0,0.0106
1908.0,0.0106
1907.0,0.0106
1906.0,0.0106
1905.0,0.0106
1904.0,0.0106
1903.0,0.0106
1902.0,0.0106
1901.0,0.0106
1900.0,0.0106
1899.0,0.0107
1898.0,0.0107
1897.0,0.0107
1896.0,0.0107
1895.0,0.0107
1894.0,0.0107
1893.0,0.0107
1892.0,0.0108
1891.0,0.0108
1890.0,0.0107
1889.0,0.0107
1888.0,0.0107
1887.0,0.0106
1886.0,0.0105
1885.0,0.0105
1884.0,0.0105
1883.0,0.0105
1882.0,0.0105
1881.0,0.0105
1880.0,0.0105
1879.0,0.0105
1878.0,0.0104
1877.0,0.0104
1876.0,0.0104
1875.0,0.0104
1874.0,0.0104
1873.0,0.0105
1872.0,0.0105
1871.0,0.0106
1870.0,0.0105
1869.0,0.0105
1868.0,0.0106
1867.0,0.0106
1866.0,0.0105
1865.0,0.0105
1864.0,0.0105
1863.0,0.0105
1862.0,0.0105
1861.0,0.0105
1860.0,0.0105
1859.0,0.0105
1858.0,0.0105
1857.0,0.0106
1856.0,0.0106
1855.0,0.0106
1854.0,0.0106
1853.0,0.0106
1852.0,0.0106
1851.0,0.0105
1850.0,0.0105
1849.0,0.0106
1848.0,0.0106
1847.0,0.0106
1846.0,0.0105
1845.0,0.0105
1844.0,0.0105
1843.0,0.0105
1842.0,0.0106
1841.0,0.0106
1840.0,0.0106
1839.0,0.0106
1838.0,0.0106
1837.0,0.0107
1836.0,0.0107
1835.0,0.0106
1834.0,0.0106
1833.0,0.0106
1832.0,0.0106
1831.0,0.0106
1830.0,0.0106
1829.0,0.0107
1828.0,0.0107
1827.0,0.0107
1826.0,0.0106
1825.0,0.0105
1824.0,0.0105
1823.0,0.0105
1822.0,0.0104
1821.0,0.0105
1820.0,0.0105
1819.0,0.0105
1818.0,0.0105
1817.0,0.0105
1816.0,0.0105
1815.0,0.0105
1814.0,0.0105
1813.0,0.0105
1812.0,0.0105
1811.0,0.0105
1810.0,0.0105
1809.0,0.0106
1808.0,0.0106
1807.0,0.0106
1806.0,0.0105
1805.0,0.0105
1804.0,0.0105
1803.0,0.0105
1802.0,0.0105
1801.0,0.0105
1800.0,0.0106
1799.0,0.0106
1798.0,0.0106
1797.0,0.0106
1796.0,0.0106
1795.0,0.0106
1794.0,0.0106
1793.0,0.0106
1792.0,0.0106
1791.0,0.0107
1790.0,0.0107
1789.0,0.0107
1788.0,0.0106
1787.0,0.0106
1786.0,0.0106
1785.0,0.0106
1784.0,0.0106
1783.0,0.0106
1782.0,0.0107
1781.0,0.0107
1780.0,0.0107
1779.0,0.0107
1778.0,0.0107
1777.0,0.0107
1776.0,0.0108
1775.0,0.0107
1774.0,0.0106
1773.0,0.0105
1772.0,0.0106
1771.0,0.0107
1770.0,0.0108
1769.0,0.0108
1768.0,0.0108
1767.0,0.0108
1766.0,0.0109
1765.0,0.0109
1764.0,0.0109
1763.0,0.0109
1762.0,0.0109
1761.0,0.011
1760.0,0.011
1759.0,0.0111
1758.0,0.0112
1757.0,0.0112
1756.0,0.0113
1755.0,0.0113
1754.0,0.0114
1753.0,0.0114
1752.0,0.0115
1751.0,0.0116
1750.0,0.0118
1749.0,0.012
1748.0,0.0122
1747.0,0.0123
1746.0,0.0123
1745.0,0.0123
1744.0,0.0123
1743.0,0.0123
1742.0,0.0123
1741.0,0.0123
1740.0,0.0124
1739.0,0.0124
1738.0,0.0125
1737.0,0.0126
1736.0,0.0125
1735.0,0.0124
1734.0,0.0124
1733.0,0.0125
1732.0,0.0126
1731.0,0.0126
1730.0,0.0126
1729.0,0.0126
1728.0,0.0126
1727.0,0.0125
1726.0,0.0125
1725.0,0.0125
1724.0,0.0125
1723.0,0.0125
1722.0,0.0125
1721.0,0.0126
1720.0,0.0127
1719.0,0.0127
1718.0,0.0128
1717.0,0.013
1716.0,0.0131
1715.0,0.0131
1714.0,0.0131
1713.0,0.013
1712.0,0.0131
1711.0,0.0131
1710.0,0.0131
1709.0,0.0132
1708.0,0.0133
1707.0,0.0134
1706.0,0.0135
1705.0,0.0137
1704.0,0.0138
1703.0,0.0139
1702.0,0.0139
1701.0,0.014
1700.0,0.0146
1699.0,0.0152
1698.0,0.0156
1697.0,0.0161
1696.0,0.0165
1695.0,0.0169
1694.0,0.0172
1693.0,0.0176
1692.0,0.0182
1691.0,0.0188
1690.0,0.0195
1689.0,0.0202
1688.0,0.0209
1687.0,0.0214
1686.0,0.0217
1685.0,0.0221
1684.0,0.0229
1683.0,0.0234
1682.0,0.0236
1681.0,0.0234
1680.0,0.0231
1679.0,0.0228
1678.0,0.0224
1677.0,0.0219
1676.0,0.0212
1675.0,0.0205
1674.0,0.0201
1673.0,0.0198
1672.0,0.0196
1671.0,0.0192
1670.0,0.0187
1669.0,0.0183
1668.0,0.0181
1667.0,0.0179
1666.0,0.0178
1665.0,0.0176
1664.0,0.0174
1663.0,0.0172
1662.0,0.0171
1661.0,0.017
1660.0,0.0169
1659.0,0.0168
1658.0,0.0166
1657.0,0.0166
1656.0,0.0166
1655.0,0.0165
1654.0,0.0163
1653.0,0.0163
1652.0,0.0163
1651.0,0.0163
1650.0,0.0164
1649.0,0.0164
1648.0,0.0164
1647.0,0.0164
1646.0,0.0166
1645.0,0.0166
1644.0,0.0166
1643.0,0.0167
1642.0,0.0167
1641.0,0.0167
1640.0,0.0168
1639.0,0.0168
1638.0,0.0168
1637.0,0.0169
1636.0,0.0171
1635.0,0.0174
1634.0,0.0176
1633.0,0.0179
1632.0,0.0182
1631.0,0.0185
1630.0,0.0188
1629.0,0.0193
1628.0,0.02
1627.0,0.0208
1626.0,0.0215
1625.0,0.0222
1624.0,0.0231
1623.0,0.0239
1622.0,0.0245
1621.0,0.0247
1620.0,0.0248
1619.0,0.0246
1618.0,0.024
1617.0,0.0229
1616.0,0.0218
1615.0,0.021
1614.0,0.0204
1613.0,0.0198
1612.0,0.0191
1611.0,0.0185
1610.0,0.0179
1609.0,0.0174
1608.0,0.017
1607.0,0.0166
1606.0,0.0163
1605.0,0.0161
1604.0,0.0158
1603.0,0.0156
1602.0,0.0154
1601.0,0.0152
1600.0,0.015
1599.0,0.0148
1598.0,0.0145
1597.0,0.0144
1596.0,0.0142
1595.0,0.014
1594.0,0.0139
1593.0,0.0138
1592.0,0.0136
1591.0,0.0135
1590.0,0.0134
1589.0,0.0133
1588.0,0.0133
1587.0,0.0132
1586.0,0.0132
1585.0,0.0131
1584.0,0.0131
1583.0,0.0131
1582.0,0.0131
1581.0,0.013
1580.0,0.0129
1579.0,0.0129
1578.0,0.0128
1577.0,0.0127
1576.0,0.0127
1575.0,0.0126
1574.0,0.0126
1573.0,0.0126
1572.0,0.0126
1571.0,0.0126
1570.0,0.0126
1569.0,0.0126
1568.0,0.0126
1567.0,0.0125
1566.0,0.0125
1565.0,0.0125
1564.0,0.0125
1563.0,0.0125
1562.0,0.0125
1561.0,0.0124
1560.0,0.0122
1559.0,0.0125
1558.0,0.0126
1557.0,0.0126
1556.0,0.0126
1555.0,0.0126
1554.0,0.0125
1553.0,0.0125
1552.0,0.0126
1551.0,0.0126
1550.0,0.0125
1549.0,0.0125
1548.0,0.0125
1547.0,0.0125
1546.0,0.0124
1545.0,0.0123
1544.0,0.0123
1543.0,0.0123
1542.0,0.0122
1541.0,0.0123
1540.0,0.0124
1539.0,0.0123
1538.0,0.0121
1537.0,0.0121
1536.0,0.0121
1535.0,0.012
1534.0,0.0119
1533.0,0.0119
1532.0,0.0119
1531.0,0.0119
1530.0,0.0118
1529.0,0.0117
1528.0,0.0116
1527.0,0.0116
1526.0,0.0115
1525.0,0.0115
1524.0,0.0116
1523.0,0.0115
1522.0,0.0114
1521.0,0.0114
1520.0,0.0114
1519.0,0.0114
1518.0,0.0113
1517.0,0.0112
1516.0,0.0112
1515.0,0.0111
1514.0,0.011
1513.0,0.0109
1512.0,0.0109
1511.0,0.0109
1510.0,0.0109
1509.0,0.0109
1508.0,0.011
1507.0,0.011
1506.0,0.0109
1505.0,0.0108
1504.0,0.0108
1503.0,0.0108
1502.0,0.0108
1501.0,0.0108
1500.0,0.0108
1499.0,0.0109
1498.0,0.0111
1497.0,0.0114
1496.0,0.0118
1495.0,0.0121
1494.0,0.0122
1493.0,0.0123
1492.0,0.0123
1491.0,0.0121
1490.0,0.0118
1489.0,0.0118
1488.0,0.0118
1487.0,0.0117
1486.0,0.0117
1485.0,0.0118
1484.0,0.012
1483.0,0.0122
1482.0,0.0125
1481.0,0.0129
1480.0,0.0134
1479.0,0.014
1478.0,0.0148
1477.0,0.0164
1476.0,0.0185
1475.0,0.0212
1474.0,0.0246
1473.0,0.0291
1472.0,0.0335
1471.0,0.0369
1470.0,0.0401
1469.0,0.0438
1468.0,0.048
1467.0,0.0529
1466.0,0.0593
1465.0,0.0669
1464.0,0.0736
1463.0,0.0776
1462.0,0.0797
1461.0,0.0808
1460.0,0.0813
1459.0,0.0816
1458.0,0.0824
1457.0,0.0841
1456.0,0.085
1455.0,0.085
1454.0,0.0847
1453.0,0.084
1452.0,0.0828
1451.0,0.081
1450.0,0.0783
1449.0,0.0745
1448.0,0.0694
1447.0,0.0641
1446.0,0.0593
1445.0,0.0552
1444.0,0.0515
1443.0,0.0483
1442.0,0.0458
1441.0,0.044
1440.0,0.0427
1439.0,0.042
1438.0,0.0421
1437.0,0.0425
1436.0,0.0424
1435.0,0.0412
1434.0,0.0391
1433.0,0.0365
1432.0,0.0336
1431.0,0.0309
1430.0,0.0288
1429.0,0.0271
1428.0,0.0259
1427.0,0.0251
1426.0,0.0245
1425.0,0.0238
1424.0,0.0232
1423.0,0.0227
1422.0,0.0224
1421.0,0.022
1420.0,0.0215
1419.0,0.0213
1418.0,0.0211
1417.0,0.0209
1416.0,0.0206
1415.0,0.0203
1414.0,0.0201
1413.0,0.0199
1412.0,0.0196
1411.0,0.0194
1410.0,0.0192
1409.0,0.019
1408.0,0.0188
1407.0,0.0186
1406.0,0.0185
1405.0,0.0183
1404.0,0.0181
1403.0,0.018
1402.0,0.0179
1401.0,0.0178
1400.0,0.0175
1399.0,0.0174
1398.0,0.0174
1397.0,0.0173
1396.0,0.0171
1395.0,0.017
1394.0,0.017
1393.0,0.0169
1392.0,0.0168
1391.0,0.0169
1390.0,0.0172
1389.0,0.0175
1388.0,0.0183
1387.0,0.0198
1386.0,0.022
1385.0,0.0251
1384.0,0.0296
1383.0,0.0363
1382.0,0.0456
1381.0,0.0577
1380.0,0.073
1379.0,0.0906
1378.0,0.1078
1377.0,0.1208
1376.0,0.1265
1375.0,0.1229
1374.0,0.1112
1373.0,0.0967
1372.0,0.0835
1371.0,0.0722
1370.0,0.0625
1369.0,0.0547
1368.0,0.049
1367.0,0.0453
1366.0,0.0431
1365.0,0.042
1364.0,0.0418
1363.0,0.0425
1362.0,0.0438
1361.0,0.0453
1360.0,0.0464
1359.0,0.0467
1358.0,0.0462
1357.0,0.0447
1356.0,0.0426
1355.0,0.0402
1354.0,0.0379
1353.0,0.0358
1352.0,0.0342
1351.0,0.0327
1350.0,0.0315
1349.0,0.0305
1348.0,0.0296
1347.0,0.0289
1346.0,0.0282
1345.0,0.0277
1344.0,0.0272
1343.0,0.0268
1342.0,0.0265
1341.0,0.0262
1340.0,0.026
1339.0,0.0258
1338.0,0.0257
1337.0,0.0255
1336.0,0.0255
1335.0,0.0255
1334.0,0.0256
1333.0,0.0259
1332.0,0.0262
1331.0,0.0264
1330.0,0.0265
1329.0,0.0265
1328.0,0.0263
1327.0,0.026
1326.0,0.0257
1325.0,0.0253
1324.0,0.0249
1323.0,0.0246
1322.0,0.0243
1321.0,0.0241
1320.0,0.024
1319.0,0.0239
1318.0,0.0237
1317.0,0.0236
1316.0,0.0235
1315.0,0.0234
1314.0,0.0233
1313.0,0.0233
1312.0,0.0233
1311.0,0.0234
1310.0,0.0235
1309.0,0.0238
1308.0,0.0243
1307.0,0.0249
1306.0,0.0256
1305.0,0.0261
1304.0,0.0262
1303.0,0.0262
1302.0,0.026
1301.0,0.0258
1300.0,0.0258
1299.0,0.0258
1298.0,0.0259
1297.0,0.026
1296.0,0.026
1295.0,0.026
1294.0,0.0258
1293.0,0.0256
1292.0,0.0253
1291.0,0.0251
1290.0,0.0248
1289.0,0.0247
1288.0,0.0245
1287.0,0.0244
1286.0,0.0243
1285.0,0.0242
1284.0,0.0241
1283.0,0.024
1282.0,0.0239
1281.0,0.0239
1280.0,0.0238
1279.0,0.0238
1278.0,0.0237
1277.0,0.0237
1276.0,0.0237
1275.0,0.0238
1274.0,0.0238
1273.0,0.0239
1272.0,0.0239
1271.0,0.0239
1270.0,0.024
1269.0,0.0241
1268.0,0.0242
1267.0,0.0244
1266.0,0.0246
1265.0,0.0247
1264.0,0.0249
1263.0,0.0251
1262.0,0.0253
1261.0,0.0256
1260.0,0.026
1259.0,0.0265
1258.0,0.027
1257.0,0.0275
1256.0,0.0278
1255.0,0.0278
1254.0,0.0276
1253.0,0.0272
1252.0,0.0269
1251.0,0.0266
1250.0,0.0263
1249.0,0.0262
1248.0,0.0261
1247.0,0.026
1246.0,0.0259
1245.0,0.0259
1244.0,0.0259
1243.0,0.026
1242.0,0.026
1241.0,0.026
1240.0,0.026
1239.0,0.026
1238.0,0.0261
1237.0,0.0262
1236.0,0.0262
1235.0,0.0263
1234.0,0.0264
1233.0,0.0264
1232.0,0.0265
1231.0,0.0266
1230.0,0.0267
1229.0,0.0268
1228.0,0.0269
1227.0,0.0271
1226.0,0.0273
1225.0,0.0276
1224.0,0.0279
1223.0,0.0282
1222.0,0.0286
1221.0,0.0289
1220.0,0.0291
1219.0,0.0293
1218.0,0.0294
1217.0,0.0295
1216.0,0.0295
1215.0,0.0295
1214.0,0.0295
1213.0,0.0295
1212.0,0.0295
1211.0,0.0296
1210.0,0.0297
1209.0,0.0298
1208.0,0.0299
1207.0,0.03
1206.0,0.0302
1205.0,0.0304
1204.0,0.0306
1203.0,0.0308
1202.0,0.031
1201.0,0.0312
1200.0,0.0314
1199.0,0.0317
1198.0,0.032
1197.0,0.0323
1196.0,0.0327
1195.0,0.033
1194.0,0.0333
1193.0,0.0336
1192.0,0.0339
1191.0,0.0342
1190.0,0.0345
1189.0,0.0348
1188.0,0.0351
1187.0,0.0353
1186.0,0.0356
1185.0,0.0359
1184.0,0.0362
1183.0,0.0365
1182.0,0.0369
1181.0,0.0373
1180.0,0.0378
1179.0,0.0383
1178.0,0.039
1177.0,0.0398
1176.0,0.0407
1175.0,0.0418
1174.0,0.0432
1173.0,0.0451
1172.0,0.0473
1171.0,0.0497
1170.0,0.0521
1169.0,0.0541
1168.0,0.0556
1167.0,0.0563
1166.0,0.0564
1165.0,0.0562
1164.0,0.0559
1163.0,0.0556
1162.0,0.0554
1161.0,0.0553
1160.0,0.0552
1159.0,0.0552
1158.0,0.0554
1157.0,0.0557
1156.0,0.0562
1155.0,0.0568
1154.0,0.0573
1153.0,0.0578
1152.0,0.0582
1151.0,0.0584
1150.0,0.0585
1149.0,0.0586
1148.0,0.0588
1147.0,0.0589
1146.0,0.0591
1145.0,0.0593
1144.0,0.0596
1143.0,0.0599
1142.0,0.0603
1141.0,0.0606
1140.0,0.061
1139.0,0.0614
1138.0,0.0618
1137.0,0.0622
1136.0,0.0626
1135.0,0.063
1134.0,0.0633
1133.0,0.0636
1132.0,0.0639
1131.0,0.0641
1130.0,0.0644
1129.0,0.0646
1128.0,0.0649
1127.0,0.0652
1126.0,0.0655
1125.0,0.0657
1124.0,0.066
1123.0,0.0664
1122.0,0.0667
1121.0,0.0671
1120.0,0.0674
1119.0,0.0677
1118.0,0.068
1117.0,0.0683
1116.0,0.0685
1115.0,0.0688
1114.0,0.069
1113.0,0.0692
1112.0,0.0695
1111.0,0.0697
1110.0,0.07
1109.0,0.0702
1108.0,0.0704
1107.0,0.0707
1106.0,0.0709
1105.0,0.0712
1104.0,0.0713
1103.0,0.0713
1102.0,0.071
1101.0,0.0705
1100.0,0.0698
1099.0,0.069
1098.0,0.0682
1097.0,0.0674
1096.0,0.0666
1095.0,0.0658
1094.0,0.0649
1093.0,0.0641
1092.0,0.0633
1091.0,0.0625
1090.0,0.0617
1089.0,0.061
1088.0,0.0603
1087.0,0.0596
1086.0,0.0589
1085.0,0.0582
1084.0,0.0575
1083.0,0.0568
1082.0,0.0561
1081.0,0.0555
1080.0,0.0549
1079.0,0.0542
1078.0,0.0536
1077.0,0.0529
1076.0,0.0523
1075.0,0.0517
1074.0,0.0513
1073.0,0.0508
1072.0,0.0504
1071.0,0.0499
1070.0,0.0494
1069.0,0.0489
1068.0,0.0486
1067.0,0.0483
1066.0,0.0479
1065.0,0.0476
1064.0,0.0472
1063.0,0.0468
1062.0,0.0464
1061.0,0.046
1060.0,0.0457
1059.0,0.0454
1058.0,0.0451
1057.0,0.0448
1056.0,0.0445
1055.0,0.0442
1054.0,0.0439
1053.0,0.0437
1052.0,0.0436
1051.0,0.0434
1050.0,0.0433
1049.0,0.0431
1048.0,0.043
1047.0,0.0428
1046.0,0.0426
1045.0,0.0425
1044.0,0.0422
1043.0,0.0419
1042.0,0.0415
1041.0,0.0411
1040.0,0.0407
1039.0,0.0403
1038.0,0.0399
1037.0,0.0396
1036.0,0.0394
1035.0,0.0391
1034.0,0.0389
1033.0,0.0387
1032.0,0.0386
1031.0,0.0384
1030.0,0.0382
1029.0,0.0379
1028.0,0.0376
1027.0,0.0374
1026.0,0.0373
1025.0,0.0371
1024.0,0.037
1023.0,0.0368
1022.0,0.0367
1021.0,0.0366
1020.0,0.0365
1019.0,0.0364
1018.0,0.0362
1017.0,0.0361
1016.0,0.036
1015.0,0.0358
1014.0,0.0357
1013.0,0.0355
1012.0,0.0355
1011.0,0.0356
1010.0,0.0357
1009.0,0.0361
1008.0,0.0366
1007.0,0.0373
1006.0,0.0382
1005.0,0.0391
1004.0,0.0401
1003.0,0.0412
1002.0,0.0425
1001.0,0.0444
1000.0,0.0466
999.0,0.0485
998.0,0.0495
997.0,0.0492
996.0,0.0476
995.0,0.0453
994.0,0.0428
993.0,0.0406
992.0,0.0389
991.0,0.0375
990.0,0.0365
989.0,0.0358
988.0,0.0353
987.0,0.0349
986.0,0.0346
985.0,0.0344
984.0,0.0344
983.0,0.0346
982.0,0.0352
981.0,0.0361
980.0,0.0375
979.0,0.0393
978.0,0.0417
977.0,0.0445
976.0,0.0476
975.0,0.0505
974.0,0.0526
973.0,0.0533
972.0,0.0526
971.0,0.0504
970.0,0.0475
969.0,0.0445
968.0,0.0418
967.0,0.0397
966.0,0.0382
965.0,0.037
964.0,0.0361
963.0,0.0354
962.0,0.0347
961.0,0.0342
960.0,0.0338
959.0,0.0334
958.0,0.0331
957.0,0.0328
956.0,0.0326
955.0,0.0323
954.0,0.0321
953.0,0.032
952.0,0.0318
951.0,0.0317
950.0,0.0316
949.0,0.0315
948.0,0.0315
947.0,0.0315
946.0,0.0315
945.0,0.0316
944.0,0.0318
943.0,0.0319
942.0,0.0321
941.0,0.0323
940.0,0.0324
939.0,0.0322
938.0,0.0319
937.0,0.0315
936.0,0.0311
935.0,0.0308
934.0,0.0305
933.0,0.0304
932.0,0.0302
931.0,0.03
930.0,0.0298
929.0,0.0297
928.0,0.0295
927.0,0.0294
926.0,0.0294
925.0,0.0294
924.0,0.0294
923.0,0.0295
922.0,0.0294
921.0,0.0294
920.0,0.0293
919.0,0.0293
918.0,0.0293
917.0,0.0293
916.0,0.0293
915.0,0.0293
914.0,0.0293
913.0,0.0294
912.0,0.0295
911.0,0.0296
910.0,0.0297
909.0,0.0298
908.0,0.0299
907.0,0.0301
906.0,0.0305
905.0,0.0311
904.0,0.032
903.0,0.0332
902.0,0.0346
901.0,0.0361
900.0,0.0372
899.0,0.0377
898.0,0.0374
897.0,0.0365
896.0,0.0353
895.0,0.0341
894.0,0.033
893.0,0.032
892.0,0.0314
891.0,0.0309
890.0,0.0305
889.0,0.0303
888.0,0.0302
887.0,0.0301
886.0,0.03
885.0,0.0298
884.0,0.0297
883.0,0.0297
882.0,0.0297
881.0,0.0298
880.0,0.0299
879.0,0.0299
878.0,0.0299
877.0,0.0299
876.0,0.03
875.0,0.03
874.0,0.0301
873.0,0.0302
872.0,0.0302
871.0,0.0301
870.0,0.03
869.0,0.0299
868.0,0.0297
867.0,0.0296
866.0,0.0295
865.0,0.0295
864.0,0.0295
863.0,0.0295
862.0,0.0295
861.0,0.0295
860.0,0.0295
859.0,0.0295
858.0,0.0295
857.0,0.0295
856.0,0.0295
855.0,0.0294
854.0,0.0295
853.0,0.0296
852.0,0.0297
851.0,0.0299
850.0,0.0302
849.0,0.0305
848.0,0.0309
847.0,0.0315
846.0,0.0326
845.0,0.0344
844.0,0.0371
843.0,0.0403
842.0,0.0429
841.0,0.0438
840.0,0.0428
839.0,0.0404
838.0,0.0376
837.0,0.0355
836.0,0.034
835.0,0.033
834.0,0.0323
833.0,0.0317
832.0,0.0313
831.0,0.0309
830.0,0.0306
829.0,0.0304
828.0,0.0303
827.0,0.0302
826.0,0.0301
825.0,0.0299
824.0,0.0297
823.0,0.0295
822.0,0.0293
821.0,0.0293
820.0,0.0294
819.0,0.0295
818.0,0.0298
817.0,0.0302
816.0,0.0308
815.0,0.0316
814.0,0.0326
813.0,0.0339
812.0,0.0353
811.0,0.0367
810.0,0.0378
809.0,0.0385
808.0,0.0386
807.0,0.0381
806.0,0.0373
805.0,0.0362
804.0,0.0352
803.0,0.0343
802.0,0.0336
801.0,0.0331
800.0,0.0326
799.0,0.0321
798.0,0.0317
797.0,0.0316
796.0,0.0315
795.0,0.0314
794.0,0.0313
793.0,0.0309
792.0,0.0306
791.0,0.0303
790.0,0.0301
789.0,0.0299
788.0,0.0299
787.0,0.0297
786.0,0.0296
785.0,0.0294
784.0,0.0292
783.0,0.0291
782.0,0.029
781.0,0.029
780.0,0.0291
779.0,0.0291
778.0,0.0291
777.0,0.029
776.0,0.029
775.0,0.029
774.0,0.0291
773.0,0.0293
772.0,0.0296
771.0,0.0298
770.0,0.0301
769.0,0.0304
768.0,0.0307
767.0,0.031
766.0,0.0311
765.0,0.0312
764.0,0.0312
763.0,0.0313
762.0,0.0312
761.0,0.0312
760.0,0.0312
759.0,0.0313
758.0,0.0316
757.0,0.0318
756.0,0.032
755.0,0.0321
754.0,0.032
753.0,0.0319
752.0,0.0318
751.0,0.0318
750.0,0.0319
749.0,0.0321
748.0,0.0323
747.0,0.0325
746.0,0.0325
745.0,0.0325
744.0,0.0324
743.0,0.0324
742.0,0.0325
741.0,0.0326
740.0,0.0327
739.0,0.0327
738.0,0.0328
737.0,0.0331
736.0,0.0335
735.0,0.034
734.0,0.035
733.0,0.0364
732.0,0.0381
731.0,0.0395
730.0,0.0401
729.0,0.0399
728.0,0.0394
727.0,0.0389
726.0,0.0385
725.0,0.0385
724.0,0.0387
723.0,0.0392
722.0,0.0401
721.0,0.0413
720.0,0.0423
719.0,0.0427
718.0,0.0425
717.0,0.0419
716.0,0.041
715.0,0.0401
714.0,0.0392
713.0,0.0386
712.0,0.0381
711.0,0.0378
710.0,0.0377
709.0,0.0378
708.0,0.0381
707.0,0.0386
706.0,0.0395
705.0,0.0409
704.0,0.0425
703.0,0.0441
702.0,0.0455
701.0,0.047
700.0,0.0485
699.0,0.0494
698.0,0.0492
697.0,0.0479
696.0,0.0463
695.0,0.0451
694.0,0.0441
693.0,0.0431
692.0,0.0423
691.0,0.0419
690.0,0.0422
689.0,0.0427
688.0,0.043
687.0,0.0431
686.0,0.0434
685.0,0.044
684.0,0.0446
683.0,0.0448
682.0,0.045
681.0,0.0457
680.0,0.047
679.0,0.048
678.0,0.0486
677.0,0.0494
676.0,0.0508
675.0,0.0525
674.0,0.0539
673.0,0.0549
672.0,0.0557
671.0,0.0569
670.0,0.0587
669.0,0.0617
668.0,0.0643
667.0,0.0647
666.0,0.0597
665.0,0.0561
664.0,0.055
663.0,0.0526
662.0,0.0512
661.0,0.0493
660.0,0.0477
659.0,0.0463
658.0,0.0451
657.0,0.0441
656.0,0.0434
655.0,0.0429
654.0,0.0426
653.0,0.0425
652.0,0.0425
651.0,0.0424
650.0,0.042
649.0,0.0417
648.0,0.0416
647.0,0.0416
646.0,0.0415
645.0,0.0415
644.0,0.0415
643.0,0.0418
642.0,0.042
641.0,0.0424
640.0,0.0429
639.0,0.0437
638.0,0.0447
637.0,0.0458
636.0,0.0472
635.0,0.0486
634.0,0.0496
633.0,0.0499
632.0,0.0494
631.0,0.0484
630.0,0.0473
629.0,0.0467
628.0,0.0469
627.0,0.0473
626.0,0.0478
625.0,0.0482
624.0,0.0487
623.0,0.0493
622.0,0.0498
621.0,0.05
620.0,0.0502
619.0,0.0503
618.0,0.0506
617.0,0.0511
616.0,0.0517
615.0,0.0523
614.0,0.0528
613.0,0.0537
612.0,0.0549
611.0,0.0563
610.0,0.0576
609.0,0.0591
608.0,0.061
607.0,0.0628
606.0,0.0643
605.0,0.0654
604.0,0.0663
603.0,0.0668
602.0,0.0671
601.0,0.0679
600.0,0.0691
