cm-1,A
4000.0,0.0076
3999.0,0.0076
3998.0,0.0076
3997.0,0.0076
3996.0,0.0077
3995.0,0.0077
3994.0,0.0077
3993.0,0.0077
3992.0,0.0077
3991.0,0.0077
3990.0,0.0077
3989.0,0.0078
3988.0,0.0078
3987.0,0.0078
3986.0,0.0078
3985.0,0.0079
3984.0,0.0079
3983.0,0.008
3982.0,0.0081
3981.0,0.0081
3980.0,0.008
3979.0,0.0079
3978.0,0.0078
3977.0,0.0078
3976.0,0.0078
3975.0,0.0079
3974.0,0.0079
3973.0,0.008
3972.0,0.008
3971.0,0.008
3970.0,0.008
3969.0,0.0079
3968.0,0.0079
3967.0,0.0079
3966.0,0.008
3965.0,0.008
3964.0,0.008
3963.0,0.008
3962.0,0.0079
3961.0,0.0079
3960.0,0.0078
3959.0,0.0078
3958.0,0.0078
3957.0,0.0079
3956.0,0.0079
3955.0,0.008
3954.0,0.008
3953.0,0.008
3952.0,0.0081
3951.0,0.0081
3950.0,0.0081
3949.0,0.0081
3948.0,0.0081
3947.0,0.0081
3946.0,0.0082
3945.0,0.0082
3944.0,0.0082
3943.0,0.0082
3942.0,0.0081
3941.0,0.0081
3940.0,0.008
3939.0,0.008
3938.0,0.008
3937.0,0.0081
3936.0,0.0082
3935.0,0.0082
3934.0,0.0082
3933.0,0.0082
3932.0,0.0081
3931.0,0.0081
3930.0,0.008
3929.0,0.008
3928.0,0.008
3927.0,0.008
3926.0,0.008
3925.0,0.008
3924.0,0.008
3923.0,0.0081
3922.0,0.0082
3921.0,0.0082
3920.0,0.0081
3919.0,0.008
3918.0,0.008
3917.0,0.008
3916.0,0.0081
3915.0,0.0081
3914.0,0.0081
3913.0,0.0081
3912.0,0.0081
3911.0,0.008
3910.0,0.0081
3909.0,0.0082
3908.0,0.0083
3907.0,0.0084
3906.0,0.0085
3905.0,0.0084
3904.0,0.0084
3903.0,0.0083
3902.0,0.0082
3901.0,0.0081
3900.0,0.0081
3899.0,0.0081
3898.0,0.0081
3897.0,0.0082
3896.0,0.0082
3895.0,0.0083
3894.0,0.0083
3893.0,0.0083
3892.0,0.0083
3891.0,0.0082
3890.0,0.0082
3889.0,0.0083
3888.0,0.0083
3887.0,0.0083
3886.0,0.0082
3885.0,0.0082
3884.0,0.0084
3883.0,0.0085
3882.0,0.0085
3881.0,0.0084
3880.0,0.0083
3879.0,0.0083
3878.0,0.0084
3877.0,0.0085
3876.0,0.0086
3875.0,0.0086
3874.0,0.0087
3873.0,0.0088
3872.0,0.0088
3871.0,0.0086
3870.0,0.0085
3869.0,0.0084
3868.0,0.0085
3867.0,0.0086
3866.0,0.0085
3865.0,0.0084
3864.0,0.0084
3863.0,0.0085
3862.0,0.0086
3861.0,0.0085
3860.0,0.0085
3859.0,0.0084
3858.0,0.0083
3857.0,0.0083
3856.0,0.0083
3855.0,0.0082
3854.0,0.0082
3853.0,0.0084
3852.0,0.0085
3851.0,0.0086
3850.0,0.0086
3849.0,0.0086
3848.0,0.0086
3847.0,0.0087
3846.0,0.0088
3845.0,0.0089
3844.0,0.009
3843.0,0.009
3842.0,0.0091
3841.0,0.0091
3840.0,0.0091
3839.0,0.0091
3838.0,0.009
3837.0,0.009
3836.0,0.0089
3835.0,0.0088
3834.0,0.0088
3833.0,0.0087
3832.0,0.0086
3831.0,0.0086
3830.0,0.0087
3829.0,0.0088
3828.0,0.0088
3827.0,0.0087
3826.0,0.0087
3825.0,0.0088
3824.0,0.0091
3823.0,0.0092
3822.0,0.0091
3821.0,0.009
3820.0,0.009
3819.0,0.009
3818.0,0.0091
3817.0,0.009
3816.0,0.0089
3815.0,0.0089
3814.0,0.0088
3813.0,0.0087
3812.0,0.0086
3811.0,0.0086
3810.0,0.0087
3809.0,0.0088
3808.0,0.0087
3807.0,0.0086
3806.0,0.0086
3805.0,0.0087
3804.0,0.0089
3803.0,0.009
3802.0,0.0089
3801.0,0.0089
3800.0,0.0088
3799.0,0.0089
3798.0,0.009
3797.0,0.009
3796.0,0.009
3795.0,0.0089
3794.0,0.0089
3793.0,0.0088
3792.0,0.0088
3791.0,0.0087
3790.0,0.0087
3789.0,0.0087
3788.0,0.0087
3787.0,0.0088
3786.0,0.0089
3785.0,0.009
3784.0,0.0091
3783.0,0.0092
3782.0,0.0093
3781.0,0.0093
3780.0,0.0092
3779.0,0.009
3778.0,0.0089
3777.0,0.0089
3776.0,0.0088
3775.0,0.0088
3774.0,0.0089
3773.0,0.009
3772.0,0.0091
3771.0,0.0092
3770.0,0.0092
3769.0,0.0092
3768.0,0.0092
3767.0,0.0091
3766.0,0.009
3765.0,0.0089
3764.0,0.0089
3763.0,0.0089
3762.0,0.0089
3761.0,0.0089
3760.0,0.0089
3759.0,0.0089
3758.0,0.009
3757.0,0.009
3756.0,0.009
3755.0,0.0091
3754.0,0.0091
3753.0,0.0091
3752.0,0.009
3751.0,0.0091
3750.0,0.009
3749.0,0.0088
3748.0,0.0088
3747.0,0.0087
3746.0,0.0085
3745.0,0.008
3744.0,0.0077
3743.0,0.0076
3742.0,0.0075
3741.0,0.0074
3740.0,0.0073
3739.0,0.0071
3738.0,0.0069
3737.0,0.0067
3736.0,0.0066
3735.0,0.0067
3734.0,0.0068
3733.0,0.0066
3732.0,0.0062
3731.0,0.0059
3730.0,0.0056
3729.0,0.0055
3728.0,0.0055
3727.0,0.0055
3726.0,0.0057
3725.0,0.006
3724.0,0.0063
3723.0,0.0065
3722.0,0.0068
3721.0,0.007
3720.0,0.0072
3719.0,0.0075
3718.0,0.0079
3717.0,0.0082
3716.0,0.0084
3715.0,0.0085
3714.0,0.0083
3713.0,0.0077
3712.0,0.0071
3711.0,0.0069
3710.0,0.0069
3709.0,0.007
3708.0,0.007
3707.0,0.007
3706.0,0.0069
3705.0,0.007
3704.0,0.0071
3703.0,0.0072
3702.0,0.0072
3701.0,0.0072
3700.0,0.0072
3699.0,0.0073
3698.0,0.0073
3697.0,0.0074
3696.0,0.0074
3695.0,0.0075
3694.0,0.0075
3693.0,0.0076
3692.0,0.0077
3691.0,0.0081
3690.0,0.0084
3689.0,0.0085
3688.0,0.0084
3687.0,0.0082
3686.0,0.0083
3685.0,0.0084
3684.0,0.0085
3683.0,0.0086
3682.0,0.0086
3681.0,0.0086
3680.0,0.0086
3679.0,0.0087
3678.0,0.0088
3677.0,0.009
3676.0,0.0091
3675.0,0.0093
3674.0,0.0095
3673.0,0.0096
3672.0,0.0097
3671.0,0.0096
3670.0,0.0096
3669.0,0.0096
3668.0,0.0096
3667.0,0.0095
3666.0,0.0095
3665.0,0.0095
3664.0,0.0094
3663.0,0.0094
3662.0,0.0093
3661.0,0.0093
3660.0,0.0093
3659.0,0.0094
3658.0,0.0095
3657.0,0.0097
3656.0,0.0097
3655.0,0.0098
3654.0,0.0099
3653.0,0.01
3652.0,0.01
3651.0,0.01
3650.0,0.01
3649.0,0.0101
3648.0,0.0101
3647.0,0.0099
3646.0,0.0097
3645.0,0.0095
3644.0,0.0094
3643.0,0.0092
3642.0,0.0092
3641.0,0.0091
3640.0,0.009
3639.0,0.0088
3638.0,0.0087
3637.0,0.0086
3636.0,0.0085
3635.0,0.0084
3634.0,0.0082
3633.0,0.0081
3632.0,0.0081
3631.0,0.0081
3630.0,0.0079
3629.0,0.0079
3628.0,0.008
3627.0,0.0082
3626.0,0.0083
3625.0,0.0083
3624.0,0.0085
3623.0,0.0087
3622.0,0.009
3621.0,0.0092
3620.0,0.0094
3619.0,0.0094
3618.0,0.0094
3617.0,0.0095
3616.0,0.0097
3615.0,0.0099
3614.0,0.01
3613.0,0.0099
3612.0,0.0098
3611.0,0.0096
3610.0,0.0094
3609.0,0.0092
3608.0,0.0091
3607.0,0.009
3606.0,0.009
3605.0,0.009
3604.0,0.0089
3603.0,0.0089
3602.0,0.0089
3601.0,0.0089
3600.0,0.0089
3599.0,0.009
3598.0,0.009
3597.0,0.0089
3596.0,0.0088
3595.0,0.0088
3594.0,0.0088
3593.0,0.0088
3592.0,0.0088
3591.0,0.009
3590.0,0.0093
3589.0,0.0097
3588.0,0.0101
3587.0,0.0103
3586.0,0.0103
3585.0,0.0102
3584.0,0.0101
3583.0,0.0101
3582.0,0.0101
3581.0,0.0102
3580.0,0.0103
3579.0,0.0104
3578.0,0.0104
3577.0,0.0104
3576.0,0.0104
3575.0,0.0105
3574.0,0.0106
3573.0,0.0107
3572.0,0.0108
3571.0,0.0108
3570.0,0.0109
3569.0,0.0108
3568.0,0.0108
3567.0,0.0108
3566.0,0.011
3565.0,0.0111
3564.0,0.0111
3563.0,0.0111
3562.0,0.011
3561.0,0.011
3560.0,0.0111
3559.0,0.0111
3558.0,0.0113
3557.0,0.0114
3556.0,0.0115
3555.0,0.0116
3554.0,0.0117
3553.0,0.0116
3552.0,0.0116
3551.0,0.0115
3550.0,0.0115
3549.0,0.0115
3548.0,0.0115
3547.0,0.0115
3546.0,0.0116
3545.0,0.0116
3544.0,0.0116
3543.0,0.0117
3542.0,0.0117
3541.0,0.0117
3540.0,0.0118
3539.0,0.0118
3538.0,0.0118
3537.0,0.0119
3536.0,0.012
3535.0,0.012
3534.0,0.012
3533.0,0.0121
3532.0,0.0121
3531.0,0.0121
3530.0,0.0121
3529.0,0.012
3528.0,0.0119
3527.0,0.0118
3526.0,0.0118
3525.0,0.0118
3524.0,0.0118
3523.0,0.0118
3522.0,0.0119
3521.0,0.012
3520.0,0.0121
3519.0,0.012
3518.0,0.0119
3517.0,0.0118
3516.0,0.0118
3515.0,0.0117
3514.0,0.0117
3513.0,0.0118
3512.0,0.0118
3511.0,0.0118
3510.0,0.0118
3509.0,0.0119
3508.0,0.0121
3507.0,0.0122
3506.0,0.0123
3505.0,0.0122
3504.0,0.0121
3503.0,0.012
3502.0,0.012
3501.0,0.0121
3500.0,0.0122
3499.0,0.0123
3498.0,0.0123
3497.0,0.0124
3496.0,0.0124
3495.0,0.0124
3494.0,0.0123
3493.0,0.0122
3492.0,0.0121
3491.0,0.0121
3490.0,0.012
3489.0,0.0121
3488.0,0.0122
3487.0,0.0123
3486.0,0.0125
3485.0,0.0126
3484.0,0.0127
3483.0,0.0127
3482.0,0.0127
3481.0,0.0127
3480.0,0.0126
3479.0,0.0127
3478.0,0.0127
3477.0,0.0127
3476.0,0.0126
3475.0,0.0125
3474.0,0.0124
3473.0,0.0124
3472.0,0.0123
3471.0,0.0124
3470.0,0.0124
3469.0,0.0125
3468.0,0.0125
3467.0,0.0126
3466.0,0.0127
3465.0,0.0128
3464.0,0.0129
3463.0,0.0129
3462.0,0.0129
3461.0,0.0129
3460.0,0.0128
3459.0,0.0127
3458.0,0.0127
3457.0,0.0127
3456.0,0.0126
3455.0,0.0126
3454.0,0.0126
3453.0,0.0125
3452.0,0.0125
3451.0,0.0126
3450.0,0.0126
3449.0,0.0127
3448.0,0.0127
3447.0,0.0128
3446.0,0.0129
3445.0,0.013
3444.0,0.013
3443.0,0.0131
3442.0,0.0131
3441.0,0.0132
3440.0,0.0133
3439.0,0.0134
3438.0,0.0135
3437.0,0.0136
3436.0,0.0136
3435.0,0.0137
3434.0,0.0137
3433.0,0.0137
3432.0,0.0136
3431.0,0.0136
3430.0,0.0136
3429.0,0.0136
3428.0,0.0135
3427.0,0.0135
3426.0,0.0135
3425.0,0.0136
3424.0,0.0136
3423.0,0.0136
3422.0,0.0136
3421.0,0.0136
3420.0,0.0136
3419.0,0.0136
3418.0,0.0136
3417.0,0.0135
3416.0,0.0134
3415.0,0.0134
3414.0,0.0134
3413.0,0.0134
3412.0,0.0134
3411.0,0.0134
3410.0,0.0133
3409.0,0.0133
3408.0,0.0133
3407.0,0.0133
3406.0,0.0134
3405.0,0.0135
3404.0,0.0135
3403.0,0.0135
3402.0,0.0134
3401.0,0.0134
3400.0,0.0133
3399.0,0.0133
3398.0,0.0133
3397.0,0.0133
3396.0,0.0133
3395.0,0.0133
3394.0,0.0133
3393.0,0.0133
3392.0,0.0132
3391.0,0.0132
3390.0,0.0132
3389.0,0.0133
3388.0,0.0133
3387.0,0.0134
3386.0,0.0134
3385.0,0.0133
3384.0,0.0133
3383.0,0.0132
3382.0,0.0132
3381.0,0.0132
3380.0,0.0132
3379.0,0.0132
3378.0,0.0132
3377.0,0.0131
3376.0,0.0131
3375.0,0.0131
3374.0,0.0131
3373.0,0.0131
3372.0,0.0131
3371.0,0.0131
3370.0,0.0132
3369.0,0.0132
3368.0,0.0132
3367.0,0.0131
3366.0,0.0131
3365.0,0.0131
3364.0,0.0131
3363.0,0.0131
3362.0,0.0131
3361.0,0.013
3360.0,0.0129
3359.0,0.0128
3358.0,0.0128
3357.0,0.0129
3356.0,0.013
3355.0,0.0131
3354.0,0.0131
3353.0,0.0131
3352.0,0.0131
3351.0,0.013
3350.0,0.013
3349.0,0.013
3348.0,0.013
3347.0,0.0131
3346.0,0.0131
3345.0,0.0131
3344.0,0.0131
3343.0,0.013
3342.0,0.0129
3341.0,0.0129
3340.0,0.013
3339.0,0.0131
3338.0,0.0132
3337.0,0.0133
3336.0,0.0132
3335.0,0.0131
3334.0,0.013
3333.0,0.0129
3332.0,0.0128
3331.0,0.0128
3330.0,0.0128
3329.0,0.0128
3328.0,0.0129
3327.0,0.013
3326.0,0.013
3325.0,0.013
3324.0,0.013
3323.0,0.013
3322.0,0.0129
3321.0,0.0129
3320.0,0.013
3319.0,0.013
3318.0,0.0131
3317.0,0.0131
3316.0,0.0131
3315.0,0.0131
3314.0,0.0131
3313.0,0.0131
3312.0,0.0131
3311.0,0.0131
3310.0,0.0131
3309.0,0.0131
3308.0,0.013
3307.0,0.0129
3306.0,0.0129
3305.0,0.0128
3304.0,0.0128
3303.0,0.0128
3302.0,0.0128
3301.0,0.0129
3300.0,0.0129
3299.0,0.0128
3298.0,0.0128
3297.0,0.0128
3296.0,0.0128
3295.0,0.0127
3294.0,0.0127
3293.0,0.0126
3292.0,0.0127
3291.0,0.0127
3290.0,0.0128
3289.0,0.0128
3288.0,0.0129
3287.0,0.013
3286.0,0.0131
3285.0,0.0131
3284.0,0.0131
3283.0,0.013
3282.0,0.013
3281.0,0.0129
3280.0,0.0128
3279.0,0.0127
3278.0,0.0126
3277.0,0.0126
3276.0,0.0126
3275.0,0.0126
3274.0,0.0127
3273.0,0.0127
3272.0,0.0128
3271.0,0.0128
3270.0,0.0128
3269.0,0.0127
3268.0,0.0127
3267.0,0.0126
3266.0,0.0126
3265.0,0.0126
3264.0,0.0127
3263.0,0.0127
3262.0,0.0126
3261.0,0.0126
3260.0,0.0125
3259.0,0.0125
3258.0,0.0124
3257.0,0.0123
3256.0,0.0123
3255.0,0.0124
3254.0,0.0125
3253.0,0.0126
3252.0,0.0127
3251.0,0.0128
3250.0,0.0128
3249.0,0.0127
3248.0,0.0127
3247.0,0.0127
3246.0,0.0128
3245.0,0.0128
3244.0,0.0129
3243.0,0.0129
3242.0,0.0128
3241.0,0.0127
3240.0,0.0127
3239.0,0.0127
3238.0,0.0128
3237.0,0.0128
3236.0,0.0129
3235.0,0.0129
3234.0,0.0128
3233.0,0.0128
3232.0,0.0127
3231.0,0.0127
3230.0,0.0127
3229.0,0.0127
3228.0,0.0126
3227.0,0.0125
3226.0,0.0124
3225.0,0.0125
3224.0,0.0127
3223.0,0.0128
3222.0,0.0128
3221.0,0.0127
3220.0,0.0126
3219.0,0.0125
3218.0,0.0126
3217.0,0.0127
3216.0,0.0127
3215.0,0.0127
3214.0,0.0126
3213.0,0.0125
3212.0,0.0125
3211.0,0.0125
3210.0,0.0126
3209.0,0.0126
3208.0,0.0127
3207.0,0.0127
3206.0,0.0127
3205.0,0.0126
3204.0,0.0126
3203.0,0.0126
3202.0,0.0125
3201.0,0.0125
3200.0,0.0125
3199.0,0.0125
3198.0,0.0126
3197.0,0.0125
3196.0,0.0125
3195.0,0.0124
3194.0,0.0124
3193.0,0.0124
3192.0,0.0124
3191.0,0.0124
3190.0,0.0124
3189.0,0.0125
3188.0,0.0125
3187.0,0.0126
3186.0,0.0126
3185.0,0.0125
3184.0,0.0124
3183.0,0.0123
3182.0,0.0123
3181.0,0.0124
3180.0,0.0125
3179.0,0.0126
3178.0,0.0126
3177.0,0.0125
3176.0,0.0124
3175.0,0.0123
3174.0,0.0122
3173.0,0.0122
3172.0,0.0122
3171.0,0.0122
3170.0,0.0122
3169.0,0.0123
3168.0,0.0123
3167.0,0.0123
3166.0,0.0123
3165.0,0.0121
3164.0,0.012
3163.0,0.0119
3162.0,0.0118
3161.0,0.0118
3160.0,0.0119
3159.0,0.0119
3158.0,0.012
3157.0,0.0121
3156.0,0.0121
3155.0,0.0121
3154.0,0.0121
3153.0,0.0121
3152.0,0.0121
3151.0,0.0121
3150.0,0.0121
3149.0,0.0121
3148.0,0.0121
3147.0,0.0121
3146.0,0.0122
3145.0,0.0122
3144.0,0.0121
3143.0,0.0121
3142.0,0.0121
3141.0,0.0121
3140.0,0.012
3139.0,0.012
3138.0,0.0121
3137.0,0.0121
3136.0,0.0122
3135.0,0.0122
3134.0,0.0121
3133.0,0.0121
3132.0,0.0121
3131.0,0.0121
3130.0,0.0121
3129.0,0.0121
3128.0,0.0121
3127.0,0.0121
3126.0,0.0121
3125.0,0.0121
3124.0,0.0121
3123.0,0.0121
3122.0,0.0121
3121.0,0.012
3120.0,0.012
3119.0,0.012
3118.0,0.012
3117.0,0.0121
3116.0,0.0121
3115.0,0.0121
3114.0,0.0121
3113.0,0.0122
3112.0,0.0123
3111.0,0.0123
3110.0,0.0123
3109.0,0.0123
3108.0,0.0123
3107.0,0.0123
3106.0,0.0124
3105.0,0.0124
3104.0,0.0124
3103.0,0.0124
3102.0,0.0123
3101.0,0.0124
3100.0,0.0124
3099.0,0.0124
3098.0,0.0124
3097.0,0.0125
3096.0,0.0125
3095.0,0.0125
3094.0,0.0125
3093.0,0.0124
3092.0,0.0124
3091.0,0.0124
3090.0,0.0124
3089.0,0.0124
3088.0,0.0124
3087.0,0.0124
3086.0,0.0124
3085.0,0.0124
3084.0,0.0125
3083.0,0.0126
3082.0,0.0126
3081.0,0.0127
3080.0,0.0127
3079.0,0.0127
3078.0,0.0127
3077.0,0.0127
3076.0,0.0127
3075.0,0.0128
3074.0,0.0128
3073.0,0.0127
3072.0,0.0127
3071.0,0.0128
3070.0,0.0128
3069.0,0.0128
3068.0,0.0128
3067.0,0.0128
3066.0,0.0129
3065.0,0.0129
3064.0,0.013
3063.0,0.013
3062.0,0.013
3061.0,0.0129
3060.0,0.0129
3059.0,0.0129
3058.0,0.0129
3057.0,0.013
3056.0,0.013
3055.0,0.013
3054.0,0.013
3053.0,0.013
3052.0,0.0131
3051.0,0.0131
3050.0,0.013
3049.0,0.013
3048.0,0.013
3047.0,0.0129
3046.0,0.0127
3045.0,0.0126
3044.0,0.0126
3043.0,0.0125
3042.0,0.0125
3041.0,0.0126
3040.0,0.0126
3039.0,0.0126
3038.0,0.0126
3037.0,0.0125
3036.0,0.0124
3035.0,0.0123
3034.0,0.0124
3033.0,0.0124
3032.0,0.0125
3031.0,0.0126
3030.0,0.0126
3029.0,0.0127
3028.0,0.0127
3027.0,0.0128
3026.0,0.013
3025.0,0.0131
3024.0,0.0132
3023.0,0.0133
3022.0,0.0134
3021.0,0.0135
3020.0,0.0137
3019.0,0.0138
3018.0,0.014
3017.0,0.0143
3016.0,0.0145
3015.0,0.0148
3014.0,0.0151
3013.0,0.0155
3012.0,0.0158
3011.0,0.016
3010.0,0.0162
3009.0,0.0163
3008.0,0.0164
3007.0,0.0166
3006.0,0.0167
3005.0,0.0168
3004.0,0.0169
3003.0,0.0169
3002.0,0.0169
3001.0,0.0168
3000.0,0.0168
2999.0,0.0167
2998.0,0.0167
2997.0,0.0166
2996.0,0.0167
2995.0,0.0167
2994.0,0.0167
2993.0,0.0168
2992.0,0.0169
2991.0,0.0171
2990.0,0.0174
2989.0,0.0176
2988.0,0.0179
2987.0,0.0182
2986.0,0.0185
2985.0,0.0189
2984.0,0.0193
2983.0,0.0197
2982.0,0.0202
2981.0,0.0207
2980.0,0.0212
2979.0,0.0218
2978.0,0.0224
2977.0,0.0231
2976.0,0.0238
2975.0,0.0247
2974.0,0.0256
2973.0,0.0265
2972.0,0.0275
2971.0,0.0285
2970.0,0.0297
2969.0,0.031
2968.0,0.0323
2967.0,0.0337
2966.0,0.0351
2965.0,0.0365
2964.0,0.0378
2963.0,0.039
2962.0,0.04
2961.0,0.041
2960.0,0.0418
2959.0,0.0426
2958.0,0.0432
2957.0,0.0437
2956.0,0.044
2955.0,0.0441
2954.0,0.044
2953.0,0.0438
2952.0,0.0435
2951.0,0.0433
2950.0,0.0431
2949.0,0.0431
2948.0,0.0433
2947.0,0.0436
2946.0,0.0442
2945.0,0.0449
2944.0,0.046
2943.0,0.0474
2942.0,0.0491
2941.0,0.0509
2940.0,0.053
2939.0,0.0553
2938.0,0.0578
2937.0,0.0605
2936.0,0.0633
2935.0,0.0663
2934.0,0.0694
2933.0,0.0726
2932.0,0.0757
2931.0,0.0788
2930.0,0.0818
2929.0,0.0846
2928.0,0.0872
2927.0,0.0896
2926.0,0.0917
2925.0,0.0933
2924.0,0.0943
2923.0,0.0944
2922.0,0.0938
2921.0,0.0923
2920.0,0.0903
2919.0,0.0878
2918.0,0.0849
2917.0,0.0819
2916.0,0.0789
2915.0,0.076
2914.0,0.0732
2913.0,0.0706
2912.0,0.0683
2911.0,0.0661
2910.0,0.0641
2909.0,0.0623
2908.0,0.0607
2907.0,0.0592
2906.0,0.0578
2905.0,0.0565
2904.0,0.0552
2903.0,0.0539
2902.0,0.0527
2901.0,0.0516
2900.0,0.0505
2899.0,0.0494
2898.0,0.0484
2897.0,0.0474
2896.0,0.0463
2895.0,0.0453
2894.0,0.0444
2893.0,0.0434
2892.0,0.0425
2891.0,0.0415
2890.0,0.0406
2889.0,0.0398
2888.0,0.039
2887.0,0.0383
2886.0,0.0376
2885.0,0.037
2884.0,0.0364
2883.0,0.0359
2882.0,0.0355
2881.0,0.0354
2880.0,0.0354
2879.0,0.0355
2878.0,0.0358
2877.0,0.0362
2876.0,0.0367
2875.0,0.0372
2874.0,0.0378
2873.0,0.0383
2872.0,0.0388
2871.0,0.0391
2870.0,0.0393
2869.0,0.0396
2868.0,0.04
2867.0,0.0406
2866.0,0.0416
2865.0,0.0429
2864.0,0.0446
2863.0,0.0466
2862.0,0.0491
2861.0,0.0519
2860.0,0.0549
2859.0,0.058
2858.0,0.061
2857.0,0.0638
2856.0,0.0662
2855.0,0.0679
2854.0,0.0688
2853.0,0.0685
2852.0,0.0673
2851.0,0.065
2850.0,0.0621
2849.0,0.0587
2848.0,0.055
2847.0,0.0514
2846.0,0.048
2845.0,0.0448
2844.0,0.0418
2843.0,0.0392
2842.0,0.0368
2841.0,0.0348
2840.0,0.033
2839.0,0.0315
2838.0,0.0302
2837.0,0.029
2836.0,0.028
2835.0,0.0272
2834.0,0.0264
2833.0,0.0258
2832.0,0.0252
2831.0,0.0247
2830.0,0.0242
2829.0,0.0237
2828.0,0.0232
2827.0,0.0228
2826.0,0.0224
2825.0,0.022
2824.0,0.0216
2823.0,0.0212
2822.0,0.0209
2821.0,0.0206
2820.0,0.0204
2819.0,0.0202
2818.0,0.02
2817.0,0.0197
2816.0,0.0195
2815.0,0.0192
2814.0,0.019
2813.0,0.0189
2812.0,0.0188
2811.0,0.0187
2810.0,0.0186
2809.0,0.0184
2808.0,0.0183
2807.0,0.0182
2806.0,0.0181
2805.0,0.018
2804.0,0.0179
2803.0,0.0178
2802.0,0.0176
2801.0,0.0175
2800.0,0.0173
2799.0,0.0172
2798.0,0.0171
2797.0,0.0171
2796.0,0.017
2795.0,0.017
2794.0,0.0169
2793.0,0.0168
2792.0,0.0167
2791.0,0.0167
2790.0,0.0168
2789.0,0.0167
2788.0,0.0167
2787.0,0.0165
2786.0,0.0163
2785.0,0.0162
2784.0,0.0161
2783.0,0.016
2782.0,0.016
2781.0,0.016
2780.0,0.016
2779.0,0.016
2778.0,0.016
2777.0,0.0159
2776.0,0.0159
2775.0,0.0158
2774.0,0.0158
2773.0,0.0158
2772.0,0.0158
2771.0,0.0157
2770.0,0.0156
2769.0,0.0155
2768.0,0.0155
2767.0,0.0155
2766.0,0.0155
2765.0,0.0155
2764.0,0.0154
2763.0,0.0154
2762.0,0.0154
2761.0,0.0154
2760.0,0.0154
2759.0,0.0153
2758.0,0.0153
2757.0,0.0153
2756.0,0.0153
2755.0,0.0152
2754.0,0.0152
2753.0,0.0152
2752.0,0.0152
2751.0,0.0152
2750.0,0.0152
2749.0,0.0151
2748.0,0.015
2747.0,0.015
2746.0,0.015
2745.0,0.015
2744.0,0.015
2743.0,0.015
2742.0,0.015
2741.0,0.015
2740.0,0.015
2739.0,0.0151
2738.0,0.0151
2737.0,0.0151
2736.0,0.015
2735.0,0.015
2734.0,0.015
2733.0,0.015
2732.0,0.015
2731.0,0.015
2730.0,0.0151
2729.0,0.0151
2728.0,0.0151
2727.0,0.015
2726.0,0.0149
2725.0,0.0148
2724.0,0.0148
2723.0,0.0148
2722.0,0.0148
2721.0,0.0148
2720.0,0.0149
2719.0,0.0148
2718.0,0.0147
2717.0,0.0146
2716.0,0.0145
2715.0,0.0145
2714.0,0.0145
2713.0,0.0145
2712.0,0.0145
2711.0,0.0145
2710.0,0.0145
2709.0,0.0145
2708.0,0.0145
2707.0,0.0146
2706.0,0.0146
2705.0,0.0146
2704.0,0.0146
2703.0,0.0145
2702.0,0.0145
2701.0,0.0145
2700.0,0.0145
2699.0,0.0145
2698.0,0.0145
2697.0,0.0145
2696.0,0.0145
2695.0,0.0144
2694.0,0.0144
2693.0,0.0144
2692.0,0.0144
2691.0,0.0144
2690.0,0.0144
2689.0,0.0145
2688.0,0.0145
2687.0,0.0145
2686.0,0.0145
2685.0,0.0145
2684.0,0.0144
2683.0,0.0144
2682.0,0.0144
2681.0,0.0144
2680.0,0.0144
2679.0,0.0145
2678.0,0.0144
2677.0,0.0144
2676.0,0.0144
2675.0,0.0144
2674.0,0.0144
2673.0,0.0144
2672.0,0.0144
2671.0,0.0144
2670.0,0.0144
2669.0,0.0144
2668.0,0.0144
2667.0,0.0144
2666.0,0.0143
2665.0,0.0142
2664.0,0.0142
2663.0,0.0141
2662.0,0.0141
2661.0,0.0141
2660.0,0.0141
2659.0,0.014
2658.0,0.014
2657.0,0.014
2656.0,0.014
2655.0,0.014
2654.0,0.014
2653.0,0.014
2652.0,0.014
2651.0,0.014
2650.0,0.014
2649.0,0.014
2648.0,0.0139
2647.0,0.0139
2646.0,0.0139
2645.0,0.0139
2644.0,0.0139
2643.0,0.0139
2642.0,0.0139
2641.0,0.0138
2640.0,0.0138
2639.0,0.0138
2638.0,0.0139
2637.0,0.0139
2636.0,0.0138
2635.0,0.0138
2634.0,0.0138
2633.0,0.0138
2632.0,0.0138
2631.0,0.0138
2630.0,0.0138
2629.0,0.0138
2628.0,0.0138
2627.0,0.0138
2626.0,0.0137
2625.0,0.0136
2624.0,0.0136
2623.0,0.0136
2622.0,0.0136
2621.0,0.0136
2620.0,0.0137
2619.0,0.0137
2618.0,0.0137
2617.0,0.0137
2616.0,0.0137
2615.0,0.0137
2614.0,0.0137
2613.0,0.0136
2612.0,0.0136
2611.0,0.0136
2610.0,0.0136
2609.0,0.0136
2608.0,0.0136
2607.0,0.0135
2606.0,0.0135
2605.0,0.0135
2604.0,0.0135
2603.0,0.0135
2602.0,0.0135
2601.0,0.0135
2600.0,0.0135
2599.0,0.0135
2598.0,0.0134
2597.0,0.0134
2596.0,0.0134
2595.0,0.0134
2594.0,0.0134
2593.0,0.0134
2592.0,0.0134
2591.0,0.0135
2590.0,0.0135
2589.0,0.0134
2588.0,0.0134
2587.0,0.0134
2586.0,0.0134
2585.0,0.0134
2584.0,0.0134
2583.0,0.0134
2582.0,0.0134
2581.0,0.0134
2580.0,0.0134
2579.0,0.0134
2578.0,0.0134
2577.0,0.0133
2576.0,0.0133
2575.0,0.0133
2574.0,0.0133
2573.0,0.0133
2572.0,0.0133
2571.0,0.0132
2570.0,0.0132
2569.0,0.0132
2568.0,0.0132
2567.0,0.0133
2566.0,0.0132
2565.0,0.0132
2564.0,0.0131
2563.0,0.0131
2562.0,0.0131
2561.0,0.0131
2560.0,0.0132
2559.0,0.0132
2558.0,0.0132
2557.0,0.0132
2556.0,0.0132
2555.0,0.0132
2554.0,0.0132
2553.0,0.0132
2552.0,0.0132
2551.0,0.0132
2550.0,0.0131
2549.0,0.013
2548.0,0.013
2547.0,0.013
2546.0,0.013
2545.0,0.013
2544.0,0.0131
2543.0,0.0131
2542.0,0.0131
2541.0,0.013
2540.0,0.013
2539.0,0.013
2538.0,0.013
2537.0,0.0131
2536.0,0.0131
2535.0,0.0131
2534.0,0.0131
2533.0,0.0131
2532.0,0.0131
2531.0,0.0131
2530.0,0.0131
2529.0,0.0131
2528.0,0.0131
2527.0,0.0131
2526.0,0.013
2525.0,0.013
2524.0,0.013
2523.0,0.0129
2522.0,0.0129
2521.0,0.0129
2520.0,0.0129
2519.0,0.0129
2518.0,0.0128
2517.0,0.0127
2516.0,0.0127
2515.0,0.0127
2514.0,0.0127
2513.0,0.0127
2512.0,0.0127
2511.0,0.0126
2510.0,0.0127
2509.0,0.0127
2508.0,0.0128
2507.0,0.0127
2506.0,0.0127
2505.0,0.0126
2504.0,0.0125
2503.0,0.0125
2502.0,0.0125
2501.0,0.0126
2500.0,0.0126
2499.0,0.0126
2498.0,0.0126
2497.0,0.0125
2496.0,0.0125
2495.0,0.0125
2494.0,0.0125
2493.0,0.0125
2492.0,0.0125
2491.0,0.0125
2490.0,0.0125
2489.0,0.0125
2488.0,0.0125
2487.0,0.0125
2486.0,0.0125
2485.0,0.0124
2484.0,0.0124
2483.0,0.0124
2482.0,0.0124
2481.0,0.0124
2480.0,0.0124
2479.0,0.0123
2478.0,0.0123
2477.0,0.0123
2476.0,0.0123
2475.0,0.0123
2474.0,0.0123
2473.0,0.0123
2472.0,0.0123
2471.0,0.0124
2470.0,0.0124
2469.0,0.0123
2468.0,0.0123
2467.0,0.0122
2466.0,0.0122
2465.0,0.0121
2464.0,0.0122
2463.0,0.0122
2462.0,0.0123
2461.0,0.0123
2460.0,0.0123
2459.0,0.0122
2458.0,0.0122
2457.0,0.0121
2456.0,0.0121
2455.0,0.0121
2454.0,0.0122
2453.0,0.0123
2452.0,0.0123
2451.0,0.0123
2450.0,0.0122
2449.0,0.0121
2448.0,0.012
2447.0,0.012
2446.0,0.012
2445.0,0.0121
2444.0,0.0121
2443.0,0.0121
2442.0,0.012
2441.0,0.012
2440.0,0.0119
2439.0,0.0119
2438.0,0.0119
2437.0,0.0119
2436.0,0.0119
2435.0,0.0119
2434.0,0.0119
2433.0,0.0119
2432.0,0.0119
2431.0,0.012
2430.0,0.012
2429.0,0.012
2428.0,0.0119
2427.0,0.0119
2426.0,0.0119
2425.0,0.012
2424.0,0.012
2423.0,0.012
2422.0,0.012
2421.0,0.012
2420.0,0.012
2419.0,0.012
2418.0,0.0119
2417.0,0.0119
2416.0,0.0119
2415.0,0.012
2414.0,0.012
2413.0,0.012
2412.0,0.012
2411.0,0.0119
2410.0,0.0119
2409.0,0.0119
2408.0,0.0119
2407.0,0.0119
2406.0,0.0119
2405.0,0.0119
2404.0,0.012
2403.0,0.012
2402.0,0.0119
2401.0,0.0119
2400.0,0.0119
2399.0,0.0119
2398.0,0.012
2397.0,0.012
2396.0,0.012
2395.0,0.012
2394.0,0.0119
2393.0,0.0119
2392.0,0.0118
2391.0,0.0116
2390.0,0.0114
2389.0,0.011
2388.0,0.0104
2387.0,0.0096
2386.0,0.0086
2385.0,0.0074
2384.0,0.0062
2383.0,0.0052
2382.0,0.0043
2381.0,0.0038
2380.0,0.0035
2379.0,0.0034
2378.0,0.0035
2377.0,0.0037
2376.0,0.0039
2375.0,0.004
2374.0,0.004
2373.0,0.0037
2372.0,0.0033
2371.0,0.0028
2370.0,0.0024
2369.0,0.0019
2368.0,0.0011
2367.0,-0.0004
2366.0,-0.0021
2365.0,-0.0025
2364.0,-0.0014
2363.0,0.0001
2362.0,0.0006
2361.0,0.0004
2360.0,-0.0003
2359.0,-0.0009
2358.0,-0.0009
2357.0,-0.0003
2356.0,0.0003
2355.0,0.0001
2354.0,-0.0004
2353.0,-0.0004
2352.0,-0.0002
2351.0,-0.0003
2350.0,-0.0005
2349.0,-0.0003
2348.0,0.0003
2347.0,0.0007
2346.0,0.0004
2345.0,-0.0004
2344.0,-0.0013
2343.0,-0.0022
2342.0,-0.0023
2341.0,-0.0014
2340.0,-0.0004
2339.0,-0.0002
2338.0,-0.0004
2337.0,-0.0008
2336.0,-0.0013
2335.0,-0.0017
2334.0,-0.0015
2333.0,-0.0009
2332.0,-0.0005
2331.0,-0.0009
2330.0,-0.0019
2329.0,-0.0029
2328.0,-0.0034
2327.0,-0.0031
2326.0,-0.002
2325.0,-0.0006
2324.0,0.0006
2323.0,0.0012
2322.0,0.0015
2321.0,0.0014
2320.0,0.0011
2319.0,0.0006
2318.0,0.0002
2317.0,-0.0002
2316.0,-0.0005
2315.0,-0.0009
2314.0,-0.0014
2313.0,-0.002
2312.0,-0.0025
2311.0,-0.0029
2310.0,-0.003
2309.0,-0.0027
2308.0,-0.0019
2307.0,-0.0009
2306.0,0.0
2305.0,0.0007
2304.0,0.001
2303.0,0.0012
2302.0,0.0014
2301.0,0.0017
2300.0,0.0021
2299.0,0.0026
2298.0,0.003
2297.0,0.0033
2296.0,0.0038
2295.0,0.0043
2294.0,0.0049
2293.0,0.0056
2292.0,0.0062
2291.0,0.0068
2290.0,0.0072
2289.0,0.0077
2288.0,0.0081
2287.0,0.0086
2286.0,0.009
2285.0,0.0094
2284.0,0.0096
2283.0,0.0097
2282.0,0.0096
2281.0,0.0096
2280.0,0.0095
2279.0,0.0095
2278.0,0.0095
2277.0,0.0095
2276.0,0.0095
2275.0,0.0095
2274.0,0.0095
2273.0,0.0095
2272.0,0.0095
2271.0,0.0095
2270.0,0.0095
2269.0,0.0095
2268.0,0.0096
2267.0,0.0096
2266.0,0.0096
2265.0,0.0096
2264.0,0.0097
2263.0,0.0097
2262.0,0.0097
2261.0,0.0097
2260.0,0.0097
2259.0,0.0098
2258.0,0.0098
2257.0,0.0099
2256.0,0.01
2255.0,0.0101
2254.0,0.0101
2253.0,0.0101
2252.0,0.0101
2251.0,0.0102
2250.0,0.0102
2249.0,0.0103
2248.0,0.0103
2247.0,0.0103
2246.0,0.0103
2245.0,0.0103
2244.0,0.0104
2243.0,0.0104
2242.0,0.0105
2241.0,0.0105
2240.0,0.0105
2239.0,0.0106
2238.0,0.0106
2237.0,0.0106
2236.0,0.0106
2235.0,0.0106
2234.0,0.0107
2233.0,0.0107
2232.0,0.0107
2231.0,0.0106
2230.0,0.0106
2229.0,0.0106
2228.0,0.0106
2227.0,0.0107
2226.0,0.0107
2225.0,0.0107
2224.0,0.0106
2223.0,0.0106
2222.0,0.0106
2221.0,0.0105
2220.0,0.0105
2219.0,0.0105
2218.0,0.0106
2217.0,0.0106
2216.0,0.0105
2215.0,0.0105
2214.0,0.0105
2213.0,0.0105
2212.0,0.0105
2211.0,0.0105
2210.0,0.0106
2209.0,0.0106
2208.0,0.0106
2207.0,0.0106
2206.0,0.0105
2205.0,0.0105
2204.0,0.0105
2203.0,0.0104
2202.0,0.0104
2201.0,0.0104
2200.0,0.0104
2199.0,0.0104
2198.0,0.0104
2197.0,0.0104
2196.0,0.0104
2195.0,0.0104
2194.0,0.0104
2193.0,0.0103
2192.0,0.0103
2191.0,0.0103
2190.0,0.0103
2189.0,0.0103
2188.0,0.0103
2187.0,0.0103
2186.0,0.0103
2185.0,0.0103
2184.0,0.0103
2183.0,0.0103
2182.0,0.0103
2181.0,0.0103
2180.0,0.0103
2179.0,0.0103
2178.0,0.0103
2177.0,0.0102
2176.0,0.0102
2175.0,0.0102
2174.0,0.0102
2173.0,0.0103
2172.0,0.0103
2171.0,0.0103
2170.0,0.0103
2169.0,0.0103
2168.0,0.0103
2167.0,0.0103
2166.0,0.0103
2165.0,0.0103
2164.0,0.0103
2163.0,0.0103
2162.0,0.0103
2161.0,0.0102
2160.0,0.0102
2159.0,0.0102
2158.0,0.0103
2157.0,0.0103
2156.0,0.0104
2155.0,0.0104
2154.0,0.0104
2153.0,0.0103
2152.0,0.0103
2151.0,0.0102
2150.0,0.0102
2149.0,0.0103
2148.0,0.0103
2147.0,0.0103
2146.0,0.0103
2145.0,0.0102
2144.0,0.0102
2143.0,0.0102
2142.0,0.0102
2141.0,0.0102
2140.0,0.0102
2139.0,0.0101
2138.0,0.0101
2137.0,0.01
2136.0,0.01
2135.0,0.01
2134.0,0.01
2133.0,0.0101
2132.0,0.0101
2131.0,0.0101
2130.0,0.0101
2129.0,0.0101
2128.0,0.0101
2127.0,0.0101
2126.0,0.0101
2125.0,0.0101
2124.0,0.0101
2123.0,0.0101
2122.0,0.0101
2121.0,0.0101
2120.0,0.0101
2119.0,0.0101
2118.0,0.0101
2117.0,0.0101
2116.0,0.0101
2115.0,0.0101
2114.0,0.0102
2113.0,0.0102
2112.0,0.0101
2111.0,0.0101
2110.0,0.0101
2109.0,0.0101
2108.0,0.0101
2107.0,0.0102
2106.0,0.0102
2105.0,0.0102
2104.0,0.0102
2103.0,0.0101
2102.0,0.01
2101.0,0.01
2100.0,0.01
2099.0,0.01
2098.0,0.0101
2097.0,0.0101
2096.0,0.0101
2095.0,0.0101
2094.0,0.01
2093.0,0.01
2092.0,0.01
2091.0,0.0099
2090.0,0.0099
2089.0,0.0099
2088.0,0.0099
2087.0,0.01
2086.0,0.01
2085.0,0.01
2084.0,0.0099
2083.0,0.0099
2082.0,0.0099
2081.0,0.0098
2080.0,0.0098
2079.0,0.0098
2078.0,0.0098
2077.0,0.0098
2076.0,0.0098
2075.0,0.0098
2074.0,0.0098
2073.0,0.0097
2072.0,0.0097
2071.0,0.0096
2070.0,0.0096
2069.0,0.0096
2068.0,0.0096
2067.0,0.0097
2066.0,0.0096
2065.0,0.0096
2064.0,0.0096
2063.0,0.0096
2062.0,0.0096
2061.0,0.0096
2060.0,0.0095
2059.0,0.0095
2058.0,0.0095
2057.0,0.0094
2056.0,0.0094
2055.0,0.0094
2054.0,0.0094
2053.0,0.0093
2052.0,0.0093
2051.0,0.0092
2050.0,0.0092
2049.0,0.0092
2048.0,0.0092
2047.0,0.0092
2046.0,0.0092
2045.0,0.0091
2044.0,0.0091
2043.0,0.0091
2042.0,0.0091
2041.0,0.0091
2040.0,0.0091
2039.0,0.0091
2038.0,0.009
2037.0,0.009
2036.0,0.009
2035.0,0.0091
2034.0,0.0091
2033.0,0.0091
2032.0,0.009
2031.0,0.009
2030.0,0.0089
2029.0,0.0089
2028.0,0.0089
2027.0,0.0089
2026.0,0.0089
2025.0,0.0089
2024.0,0.0088
2023.0,0.0088
2022.0,0.0088
2021.0,0.0089
2020.0,0.0089
2019.0,0.0089
2018.0,0.0089
2017.0,0.0088
2016.0,0.0088
2015.0,0.0087
2014.0,0.0087
2013.0,0.0087
2012.0,0.0087
2011.0,0.0087
2010.0,0.0086
2009.0,0.0086
2008.0,0.0086
2007.0,0.0087
2006.0,0.0087
2005.0,0.0086
2004.0,0.0086
2003.0,0.0087
2002.0,0.0087
2001.0,0.0087
2000.0,0.0086
1999.0,0.0086
1998.0,0.0085
1997.0,0.0085
1996.0,0.0085
1995.0,0.0086
1994.0,0.0086
1993.0,0.0086
1992.0,0.0086
1991.0,0.0086
1990.0,0.0086
1989.0,0.0086
1988.0,0.0086
1987.0,0.0087
1986.0,0.0086
1985.0,0.0086
1984.0,0.0086
1983.0,0.0086
1982.0,0.0086
1981.0,0.0086
1980.0,0.0086
1979.0,0.0087
1978.0,0.0087
1977.0,0.0087
1976.0,0.0087
1975.0,0.0087
1974.0,0.0087
1973.0,0.0086
1972.0,0.0086
1971.0,0.0087
1970.0,0.0087
1969.0,0.0088
1968.0,0.0088
1967.0,0.0089
1966.0,0.0089
1965.0,0.0089
1964.0,0.0089
1963.0,0.009
1962.0,0.009
1961.0,0.009
1960.0,0.009
1959.0,0.009
1958.0,0.0091
1957.0,0.0091
1956.0,0.0091
1955.0,0.0092
1954.0,0.0093
1953.0,0.0094
1952.0,0.0094
1951.0,0.0094
1950.0,0.0094
1949.0,0.0094
1948.0,0.0093
1947.0,0.0093
1946.0,0.0092
1945.0,0.0092
1944.0,0.0091
1943.0,0.0091
1942.0,0.0091
1941.0,0.009
1940.0,0.0089
1939.0,0.0088
1938.0,0.0087
1937.0,0.0085
1936.0,0.0084
1935.0,0.0084
1934.0,0.0083
1933.0,0.0082
1932.0,0.0081
1931.0,0.0081
1930.0,0.008
1929.0,0.0079
1928.0,0.0079
1927.0,0.0078
1926.0,0.0077
1925.0,0.0077
1924.0,0.0077
1923.0,0.0076
1922.0,0.0076
1921.0,0.0075
1920.0,0.0074
1919.0,0.0073
1918.0,0.0072
1917.0,0.0072
1916.0,0.0072
1915.0,0.0072
1914.0,0.0071
1913.0,0.0071
1912.0,0.007
1911.0,0.0069
1910.0,0.0069
1909.0,0.0068
1908.0,0.0067
1907.0,0.0067
1906.0,0.0067
1905.0,0.0066
1904.0,0.0065
1903.0,0.0064
1902.0,0.0063
1901.0,0.0063
1900.0,0.0062
1899.0,0.0062
1898.0,0.0061
1897.0,0.0061
1896.0,0.0061
1895.0,0.006
1894.0,0.0059
1893.0,0.0059
1892.0,0.0059
1891.0,0.0059
1890.0,0.0058
1889.0,0.0057
1888.0,0.0056
1887.0,0.0055
1886.0,0.0055
1885.0,0.0054
1884.0,0.0054
1883.0,0.0053
1882.0,0.0053
1881.0,0.0052
1880.0,0.0052
1879.0,0.0051
1878.0,0.0051
1877.0,0.005
1876.0,0.005
1875.0,0.005
1874.0,0.0049
1873.0,0.0049
1872.0,0.0048
1871.0,0.0048
1870.0,0.0047
1869.0,0.0047
1868.0,0.0047
1867.0,0.0046
1866.0,0.0045
1865.0,0.0044
1864.0,0.0043
1863.0,0.0042
1862.0,0.0042
1861.0,0.0042
1860.0,0.0042
1859.0,0.0041
1858.0,0.0041
1857.0,0.004
1856.0,0.004
1855.0,0.004
1854.0,0.004
1853.0,0.004
1852.0,0.004
1851.0,0.004
1850.0,0.004
1849.0,0.004
1848.0,0.004
1847.0,0.004
1846.0,0.0039
1845.0,0.0038
1844.0,0.0037
1843.0,0.0037
1842.0,0.0037
1841.0,0.0038
1840.0,0.0038
1839.0,0.0038
1838.0,0.0038
1837.0,0.0038
1836.0,0.0038
1835.0,0.0038
1834.0,0.0039
1833.0,0.0039
1832.0,0.004
1831.0,0.0041
1830.0,0.0041
1829.0,0.004
1828.0,0.004
1827.0,0.0039
1826.0,0.0039
1825.0,0.0038
1824.0,0.0037
1823.0,0.0037
1822.0,0.0036
1821.0,0.0035
1820.0,0.0035
1819.0,0.0034
1818.0,0.0034
1817.0,0.0033
1816.0,0.0033
1815.0,0.0033
1814.0,0.0032
1813.0,0.0032
1812.0,0.0031
1811.0,0.0031
1810.0,0.0029
1809.0,0.0028
1808.0,0.0027
1807.0,0.0026
1806.0,0.0026
1805.0,0.0025
1804.0,0.0025
1803.0,0.0024
1802.0,0.0023
1801.0,0.0022
1800.0,0.0022
1799.0,0.0021
1798.0,0.002
1797.0,0.0019
1796.0,0.0018
1795.0,0.0017
1794.0,0.0016
1793.0,0.0013
1792.0,0.0012
1791.0,0.0011
1790.0,0.0011
1789.0,0.0011
1788.0,0.001
1787.0,0.001
1786.0,0.0009
1785.0,0.0008
1784.0,0.0008
1783.0,0.0008
1782.0,0.0008
1781.0,0.0007
1780.0,0.0006
1779.0,0.0006
1778.0,0.0006
1777.0,0.0006
1776.0,0.0007
1775.0,0.0008
1774.0,0.0008
1773.0,0.0008
1772.0,0.0008
1771.0,0.0009
1770.0,0.001
1769.0,0.0011
1768.0,0.0013
1767.0,0.0017
1766.0,0.0021
1765.0,0.0025
1764.0,0.003
1763.0,0.0038
1762.0,0.0047
1761.0,0.0057
1760.0,0.0067
1759.0,0.008
1758.0,0.0096
1757.0,0.0115
1756.0,0.0136
1755.0,0.0155
1754.0,0.0173
1753.0,0.0194
1752.0,0.022
1751.0,0.0253
1750.0,0.0286
1749.0,0.0318
1748.0,0.0347
1747.0,0.0376
1746.0,0.0404
1745.0,0.0433
1744.0,0.0465
1743.0,0.0497
1742.0,0.0528
1741.0,0.0559
1740.0,0.0595
1739.0,0.063
1738.0,0.0656
1737.0,0.0674
1736.0,0.0692
1735.0,0.0723
1734.0,0.0768
1733.0,0.0809
1732.0,0.0842
1731.0,0.0876
1730.0,0.0914
1729.0,0.0953
1728.0,0.0991
1727.0,0.1028
1726.0,0.1065
1725.0,0.1105
1724.0,0.1147
1723.0,0.1189
1722.0,0.1226
1721.0,0.1256
1720.0,0.1281
1719.0,0.131
1718.0,0.1347
1717.0,0.1382
1716.0,0.1403
1715.0,0.1414
1714.0,0.142
1713.0,0.1416
1712.0,0.14
1711.0,0.1376
1710.0,0.1346
1709.0,0.131
1708.0,0.1267
1707.0,0.1216
1706.0,0.1156
1705.0,0.11
1704.0,0.1058
1703.0,0.1023
1702.0,0.0985
1701.0,0.0932
1700.0,0.0877
1699.0,0.0842
1698.0,0.0819
1697.0,0.0792
1696.0,0.076
1695.0,0.0733
1694.0,0.0715
1693.0,0.0703
1692.0,0.0689
1691.0,0.0673
1690.0,0.0655
1689.0,0.064
1688.0,0.0628
1687.0,0.0617
1686.0,0.0604
1685.0,0.059
1684.0,0.058
1683.0,0.0573
1682.0,0.0566
1681.0,0.056
1680.0,0.0552
1679.0,0.0543
1678.0,0.0534
1677.0,0.0525
1676.0,0.0515
1675.0,0.0506
1674.0,0.0499
1673.0,0.0494
1672.0,0.0488
1671.0,0.0481
1670.0,0.0472
1669.0,0.0466
1668.0,0.046
1667.0,0.0454
1666.0,0.0449
1665.0,0.0443
1664.0,0.0437
1663.0,0.043
1662.0,0.0424
1661.0,0.0419
1660.0,0.0415
1659.0,0.041
1658.0,0.0405
1657.0,0.04
1656.0,0.0394
1655.0,0.0387
1654.0,0.0381
1653.0,0.0381
1652.0,0.0379
1651.0,0.0378
1650.0,0.0377
1649.0,0.0374
1648.0,0.037
1647.0,0.0365
1646.0,0.0362
1645.0,0.0359
1644.0,0.0358
1643.0,0.0356
1642.0,0.0353
1641.0,0.0352
1640.0,0.0349
1639.0,0.0346
1638.0,0.0343
1637.0,0.034
1636.0,0.0338
1635.0,0.0335
1634.0,0.0332
1633.0,0.0329
1632.0,0.0327
1631.0,0.0325
1630.0,0.0322
1629.0,0.032
1628.0,0.0318
1627.0,0.0315
1626.0,0.0313
1625.0,0.031
1624.0,0.0309
1623.0,0.0309
1622.0,0.0308
1621.0,0.0307
1620.0,0.0305
1619.0,0.0303
1618.0,0.0303
1617.0,0.0307
1616.0,0.0312
1615.0,0.0315
1614.0,0.0316
1613.0,0.0317
1612.0,0.0317
1611.0,0.0317
1610.0,0.0316
1609.0,0.0314
1608.0,0.0312
1607.0,0.0309
1606.0,0.0306
1605.0,0.0303
1604.0,0.0299
1603.0,0.0295
1602.0,0.0291
1601.0,0.0287
1600.0,0.0283
1599.0,0.028
1598.0,0.0276
1597.0,0.0273
1596.0,0.027
1595.0,0.0268
1594.0,0.0266
1593.0,0.0265
1592.0,0.0264
1591.0,0.0262
1590.0,0.0261
1589.0,0.0261
1588.0,0.0261
1587.0,0.026
1586.0,0.026
1585.0,0.0261
1584.0,0.0264
1583.0,0.0268
1582.0,0.0274
1581.0,0.0281
1580.0,0.0287
1579.0,0.0291
1578.0,0.0293
1577.0,0.0291
1576.0,0.0287
1575.0,0.0282
1574.0,0.0277
1573.0,0.0272
1572.0,0.0267
1571.0,0.026
1570.0,0.0253
1569.0,0.0247
1568.0,0.0243
1567.0,0.0239
1566.0,0.0235
1565.0,0.0231
1564.0,0.0228
1563.0,0.0224
1562.0,0.0221
1561.0,0.0218
1560.0,0.0216
1559.0,0.0215
1558.0,0.0212
1557.0,0.0209
1556.0,0.0207
1555.0,0.0205
1554.0,0.0204
1553.0,0.0203
1552.0,0.0201
1551.0,0.02
1550.0,0.0198
1549.0,0.0197
1548.0,0.0195
1547.0,0.0193
1546.0,0.0192
1545.0,0.019
1544.0,0.0189
1543.0,0.0187
1542.0,0.0184
1541.0,0.0184
1540.0,0.0186
1539.0,0.0185
1538.0,0.0183
1537.0,0.0183
1536.0,0.0184
1535.0,0.0184
1534.0,0.0184
1533.0,0.0185
1532.0,0.0184
1531.0,0.0182
1530.0,0.018
1529.0,0.0179
1528.0,0.0179
1527.0,0.0177
1526.0,0.0176
1525.0,0.0174
1524.0,0.0173
1523.0,0.0171
1522.0,0.0169
1521.0,0.0167
1520.0,0.0165
1519.0,0.0164
1518.0,0.0163
1517.0,0.0162
1516.0,0.016
1515.0,0.0159
1514.0,0.0159
1513.0,0.016
1512.0,0.0163
1511.0,0.0168
1510.0,0.0174
1509.0,0.0184
1508.0,0.0209
1507.0,0.0252
1506.0,0.028
1505.0,0.0284
1504.0,0.0279
1503.0,0.0268
1502.0,0.0252
1501.0,0.0235
1500.0,0.0218
1499.0,0.0203
1498.0,0.0189
1497.0,0.0179
1496.0,0.0172
1495.0,0.0167
1494.0,0.0164
1493.0,0.0161
1492.0,0.016
1491.0,0.0157
1490.0,0.0155
1489.0,0.0155
1488.0,0.0157
1487.0,0.0158
1486.0,0.016
1485.0,0.0163
1484.0,0.0168
1483.0,0.0173
1482.0,0.0179
1481.0,0.0187
1480.0,0.0194
1479.0,0.0201
1478.0,0.0208
1477.0,0.0216
1476.0,0.0225
1475.0,0.0233
1474.0,0.0246
1473.0,0.027
1472.0,0.0299
1471.0,0.0322
1470.0,0.034
1469.0,0.0356
1468.0,0.037
1467.0,0.0381
1466.0,0.039
1465.0,0.0399
1464.0,0.0406
1463.0,0.041
1462.0,0.0413
1461.0,0.0416
1460.0,0.042
1459.0,0.0423
1458.0,0.043
1457.0,0.0439
1456.0,0.0442
1455.0,0.044
1454.0,0.0437
1453.0,0.0431
1452.0,0.0424
1451.0,0.0416
1450.0,0.0408
1449.0,0.04
1448.0,0.0393
1447.0,0.0386
1446.0,0.0381
1445.0,0.0377
1444.0,0.0374
1443.0,0.037
1442.0,0.0367
1441.0,0.0363
1440.0,0.0359
1439.0,0.0353
1438.0,0.0344
1437.0,0.0334
1436.0,0.0322
1435.0,0.0312
1434.0,0.0302
1433.0,0.0291
1432.0,0.0279
1431.0,0.0265
1430.0,0.0251
1429.0,0.0238
1428.0,0.0228
1427.0,0.0221
1426.0,0.0214
1425.0,0.0209
1424.0,0.0206
1423.0,0.0205
1422.0,0.0205
1421.0,0.0207
1420.0,0.0215
1419.0,0.0231
1418.0,0.0252
1417.0,0.0275
1416.0,0.0303
1415.0,0.0336
1414.0,0.0377
1413.0,0.0427
1412.0,0.0481
1411.0,0.0533
1410.0,0.0575
1409.0,0.0602
1408.0,0.0612
1407.0,0.0605
1406.0,0.0581
1405.0,0.0547
1404.0,0.0511
1403.0,0.048
1402.0,0.0453
1401.0,0.0428
1400.0,0.0402
1399.0,0.0377
1398.0,0.0357
1397.0,0.0342
1396.0,0.0328
1395.0,0.0315
1394.0,0.0304
1393.0,0.0295
1392.0,0.0288
1391.0,0.0282
1390.0,0.0277
1389.0,0.0274
1388.0,0.0273
1387.0,0.0274
1386.0,0.0277
1385.0,0.0281
1384.0,0.0285
1383.0,0.029
1382.0,0.0295
1381.0,0.0301
1380.0,0.0309
1379.0,0.0316
1378.0,0.0323
1377.0,0.0327
1376.0,0.033
1375.0,0.0332
1374.0,0.0333
1373.0,0.0333
1372.0,0.0333
1371.0,0.0332
1370.0,0.033
1369.0,0.0326
1368.0,0.032
1367.0,0.0312
1366.0,0.0301
1365.0,0.0289
1364.0,0.0274
1363.0,0.0257
1362.0,0.0243
1361.0,0.0232
1360.0,0.0225
1359.0,0.0219
1358.0,0.0215
1357.0,0.0213
1356.0,0.0213
1355.0,0.0214
1354.0,0.0217
1353.0,0.0221
1352.0,0.0228
1351.0,0.0236
1350.0,0.0247
1349.0,0.026
1348.0,0.0277
1347.0,0.0297
1346.0,0.0322
1345.0,0.0351
1344.0,0.0382
1343.0,0.0414
1342.0,0.0445
1341.0,0.0476
1340.0,0.0502
1339.0,0.0519
1338.0,0.052
1337.0,0.0505
1336.0,0.0477
1335.0,0.0441
1334.0,0.0399
1333.0,0.0356
1332.0,0.0315
1331.0,0.0281
1330.0,0.0253
1329.0,0.0233
1328.0,0.0218
1327.0,0.0209
1326.0,0.0204
1325.0,0.0203
1324.0,0.0204
1323.0,0.0206
1322.0,0.021
1321.0,0.0215
1320.0,0.0222
1319.0,0.0229
1318.0,0.0236
1317.0,0.0242
1316.0,0.025
1315.0,0.0257
1314.0,0.0265
1313.0,0.0275
1312.0,0.0285
1311.0,0.0295
1310.0,0.0305
1309.0,0.0316
1308.0,0.0327
1307.0,0.0338
1306.0,0.0348
1305.0,0.0358
1304.0,0.0369
1303.0,0.038
1302.0,0.0393
1301.0,0.0409
1300.0,0.0428
1299.0,0.0448
1298.0,0.0471
1297.0,0.0495
1296.0,0.052
1295.0,0.0546
1294.0,0.0571
1293.0,0.0596
1292.0,0.0621
1291.0,0.0646
1290.0,0.0669
1289.0,0.0691
1288.0,0.0713
1287.0,0.0734
1286.0,0.0754
1285.0,0.0772
1284.0,0.0789
1283.0,0.0805
1282.0,0.082
1281.0,0.0835
1280.0,0.085
1279.0,0.0865
1278.0,0.0879
1277.0,0.0895
1276.0,0.0914
1275.0,0.0934
1274.0,0.0958
1273.0,0.0986
1272.0,0.1018
1271.0,0.1055
1270.0,0.1094
1269.0,0.1136
1268.0,0.118
1267.0,0.1225
1266.0,0.1271
1265.0,0.1316
1264.0,0.1361
1263.0,0.1403
1262.0,0.144
1261.0,0.1473
1260.0,0.1501
1259.0,0.152
1258.0,0.1532
1257.0,0.1539
1256.0,0.1544
1255.0,0.1548
1254.0,0.1552
1253.0,0.1562
1252.0,0.1576
1251.0,0.1593
1250.0,0.1614
1249.0,0.1636
1248.0,0.1662
1247.0,0.1687
1246.0,0.1712
1245.0,0.1736
1244.0,0.176
1243.0,0.1781
1242.0,0.1799
1241.0,0.1813
1240.0,0.1823
1239.0,0.1828
1238.0,0.1827
1237.0,0.182
1236.0,0.1808
1235.0,0.1791
1234.0,0.1767
1233.0,0.1741
1232.0,0.1712
1231.0,0.1681
1230.0,0.1647
1229.0,0.1613
1228.0,0.1578
1227.0,0.1543
1226.0,0.1507
1225.0,0.1472
1224.0,0.1437
1223.0,0.1403
1222.0,0.1367
1221.0,0.1333
1220.0,0.1299
1219.0,0.1266
1218.0,0.1233
1217.0,0.1201
1216.0,0.117
1215.0,0.1141
1214.0,0.1113
1213.0,0.1087
1212.0,0.1063
1211.0,0.104
1210.0,0.1018
1209.0,0.0997
1208.0,0.0977
1207.0,0.0958
1206.0,0.0939
1205.0,0.092
1204.0,0.0903
1203.0,0.0886
1202.0,0.0868
1201.0,0.0852
1200.0,0.0836
1199.0,0.0821
1198.0,0.0805
1197.0,0.0791
1196.0,0.0777
1195.0,0.0765
1194.0,0.0752
1193.0,0.074
1192.0,0.0728
1191.0,0.0716
1190.0,0.0705
1189.0,0.0695
1188.0,0.0687
1187.0,0.068
1186.0,0.0674
1185.0,0.067
1184.0,0.0669
1183.0,0.067
1182.0,0.0672
1181.0,0.0677
1180.0,0.0684
1179.0,0.0693
1178.0,0.0702
1177.0,0.071
1176.0,0.0717
1175.0,0.0722
1174.0,0.0724
1173.0,0.0722
1172.0,0.0715
1171.0,0.0704
1170.0,0.069
1169.0,0.0674
1168.0,0.0657
1167.0,0.0641
1166.0,0.0626
1165.0,0.0614
1164.0,0.0604
1163.0,0.0595
1162.0,0.0588
1161.0,0.0581
1160.0,0.0576
1159.0,0.0571
1158.0,0.0567
1157.0,0.0563
1156.0,0.0561
1155.0,0.056
1154.0,0.056
1153.0,0.0562
1152.0,0.0566
1151.0,0.0571
1150.0,0.0578
1149.0,0.0586
1148.0,0.0596
1147.0,0.0606
1146.0,0.0618
1145.0,0.063
1144.0,0.0643
1143.0,0.0656
1142.0,0.0669
1141.0,0.0682
1140.0,0.0695
1139.0,0.0709
1138.0,0.0724
1137.0,0.074
1136.0,0.0757
1135.0,0.0777
1134.0,0.0798
1133.0,0.0822
1132.0,0.0848
1131.0,0.0878
1130.0,0.0909
1129.0,0.0944
1128.0,0.0982
1127.0,0.1023
1126.0,0.1065
1125.0,0.1108
1124.0,0.1151
1123.0,0.1194
1122.0,0.1236
1121.0,0.1276
1120.0,0.1313
1119.0,0.1345
1118.0,0.137
1117.0,0.1387
1116.0,0.1395
1115.0,0.1395
1114.0,0.1389
1113.0,0.1381
1112.0,0.1376
1111.0,0.1377
1110.0,0.1388
1109.0,0.1411
1108.0,0.1445
1107.0,0.1488
1106.0,0.1537
1105.0,0.1591
1104.0,0.1648
1103.0,0.1703
1102.0,0.1755
1101.0,0.1805
1100.0,0.1851
1099.0,0.1893
1098.0,0.1929
1097.0,0.1959
1096.0,0.1985
1095.0,0.2004
1094.0,0.2015
1093.0,0.2021
1092.0,0.2021
1091.0,0.2015
1090.0,0.2003
1089.0,0.1989
1088.0,0.1973
1087.0,0.1955
1086.0,0.1936
1085.0,0.1916
1084.0,0.1896
1083.0,0.1874
1082.0,0.1849
1081.0,0.182
1080.0,0.1789
1079.0,0.1752
1078.0,0.1712
1077.0,0.167
1076.0,0.1628
1075.0,0.1585
1074.0,0.1543
1073.0,0.1502
1072.0,0.1464
1071.0,0.1426
1070.0,0.1389
1069.0,0.1356
1068.0,0.1325
1067.0,0.1297
1066.0,0.1269
1065.0,0.1242
1064.0,0.1216
1063.0,0.1192
1062.0,0.1169
1061.0,0.1149
1060.0,0.1131
1059.0,0.1115
1058.0,0.11
1057.0,0.1087
1056.0,0.1077
1055.0,0.1068
1054.0,0.1061
1053.0,0.1057
1052.0,0.1056
1051.0,0.1055
1050.0,0.1056
1049.0,0.1059
1048.0,0.1063
1047.0,0.1066
1046.0,0.1069
1045.0,0.107
1044.0,0.1071
1043.0,0.107
1042.0,0.1067
1041.0,0.1062
1040.0,0.1056
1039.0,0.1049
1038.0,0.1041
1037.0,0.1031
1036.0,0.1021
1035.0,0.1009
1034.0,0.0995
1033.0,0.0981
1032.0,0.0968
1031.0,0.0955
1030.0,0.0942
1029.0,0.093
1028.0,0.0921
1027.0,0.0918
1026.0,0.0926
1025.0,0.095
1024.0,0.0994
1023.0,0.1057
1022.0,0.1139
1021.0,0.1237
1020.0,0.1343
1019.0,0.1446
1018.0,0.1531
1017.0,0.1585
1016.0,0.1599
1015.0,0.157
1014.0,0.1511
1013.0,0.1435
1012.0,0.1359
1011.0,0.1289
1010.0,0.1227
1009.0,0.1175
1008.0,0.113
1007.0,0.1092
1006.0,0.106
1005.0,0.1032
1004.0,0.1008
1003.0,0.0987
1002.0,0.0967
1001.0,0.095
1000.0,0.0934
999.0,0.0921
998.0,0.0908
997.0,0.0897
996.0,0.0887
995.0,0.0876
994.0,0.0866
993.0,0.0857
992.0,0.0848
991.0,0.0841
990.0,0.0834
989.0,0.0829
988.0,0.0826
987.0,0.0823
986.0,0.082
985.0,0.0819
984.0,0.0819
983.0,0.0821
982.0,0.0822
981.0,0.0825
980.0,0.0829
979.0,0.0835
978.0,0.0841
977.0,0.0849
976.0,0.0857
975.0,0.0865
974.0,0.0872
973.0,0.0877
972.0,0.0882
971.0,0.0885
970.0,0.0885
969.0,0.0884
968.0,0.0881
967.0,0.0876
966.0,0.0868
965.0,0.086
964.0,0.0851
963.0,0.0842
962.0,0.0832
961.0,0.0823
960.0,0.0813
959.0,0.0802
958.0,0.0792
957.0,0.0781
956.0,0.0772
955.0,0.0763
954.0,0.0755
953.0,0.0749
952.0,0.0742
951.0,0.0735
950.0,0.0728
949.0,0.0721
948.0,0.0715
947.0,0.071
946.0,0.0705
945.0,0.07
944.0,0.0695
943.0,0.0691
942.0,0.0687
941.0,0.0684
940.0,0.068
939.0,0.0677
938.0,0.0673
937.0,0.0669
936.0,0.0666
935.0,0.0662
934.0,0.0658
933.0,0.0655
932.0,0.0652
931.0,0.0649
930.0,0.0646
929.0,0.0643
928.0,0.064
927.0,0.0637
926.0,0.0635
925.0,0.0632
924.0,0.0629
923.0,0.0625
922.0,0.062
921.0,0.0617
920.0,0.0614
919.0,0.0611
918.0,0.0608
917.0,0.0605
916.0,0.0602
915.0,0.0601
914.0,0.06
913.0,0.0601
912.0,0.0603
911.0,0.0605
910.0,0.0608
909.0,0.0612
908.0,0.0617
907.0,0.0624
906.0,0.0631
905.0,0.0639
904.0,0.0647
903.0,0.0653
902.0,0.066
901.0,0.0666
900.0,0.0673
899.0,0.0677
898.0,0.0679
897.0,0.068
896.0,0.0679
895.0,0.0678
894.0,0.0676
893.0,0.0673
892.0,0.0672
891.0,0.067
890.0,0.0669
889.0,0.0668
888.0,0.067
887.0,0.0674
886.0,0.0681
885.0,0.0691
884.0,0.0706
883.0,0.0726
882.0,0.0751
881.0,0.0783
880.0,0.082
879.0,0.0862
878.0,0.0908
877.0,0.0958
876.0,0.1011
875.0,0.1064
874.0,0.1112
873.0,0.1145
872.0,0.1157
871.0,0.1143
870.0,0.1108
869.0,0.1064
868.0,0.1018
867.0,0.0976
866.0,0.0941
865.0,0.0912
864.0,0.089
863.0,0.0873
862.0,0.086
861.0,0.0851
860.0,0.0843
859.0,0.0837
858.0,0.0833
857.0,0.083
856.0,0.0828
855.0,0.0827
854.0,0.0827
853.0,0.0829
852.0,0.0833
851.0,0.0839
850.0,0.0845
849.0,0.0852
848.0,0.0858
847.0,0.0864
846.0,0.0868
845.0,0.0871
844.0,0.0873
843.0,0.0871
842.0,0.0868
841.0,0.0863
840.0,0.0857
839.0,0.0851
838.0,0.0842
837.0,0.0833
836.0,0.0824
835.0,0.0814
834.0,0.0805
833.0,0.0795
832.0,0.0786
831.0,0.0777
830.0,0.0769
829.0,0.0763
828.0,0.0758
827.0,0.0753
826.0,0.0748
825.0,0.0745
824.0,0.0744
823.0,0.0744
822.0,0.0744
821.0,0.0745
820.0,0.0745
819.0,0.0744
818.0,0.0743
817.0,0.0742
816.0,0.0741
815.0,0.074
814.0,0.0739
813.0,0.0738
812.0,0.074
811.0,0.0741
810.0,0.0743
809.0,0.0744
808.0,0.0744
807.0,0.0744
806.0,0.0744
805.0,0.0743
804.0,0.0741
803.0,0.0738
802.0,0.0732
801.0,0.0727
800.0,0.0722
799.0,0.0722
798.0,0.0727
797.0,0.0741
796.0,0.076
795.0,0.0778
794.0,0.079
793.0,0.0793
792.0,0.0786
791.0,0.0771
790.0,0.0753
789.0,0.0733
788.0,0.0714
787.0,0.0694
786.0,0.0674
785.0,0.0657
784.0,0.0642
783.0,0.0629
782.0,0.0617
781.0,0.0608
780.0,0.06
779.0,0.0591
778.0,0.0581
777.0,0.0572
776.0,0.0563
775.0,0.0555
774.0,0.0547
773.0,0.054
772.0,0.0533
771.0,0.0526
770.0,0.0516
769.0,0.0506
768.0,0.0497
767.0,0.0488
766.0,0.0479
765.0,0.0471
764.0,0.0462
763.0,0.0452
762.0,0.0442
761.0,0.0432
760.0,0.0425
759.0,0.0419
758.0,0.0414
757.0,0.0407
756.0,0.04
755.0,0.0391
754.0,0.0382
753.0,0.0373
752.0,0.0366
751.0,0.0358
750.0,0.0351
749.0,0.0346
748.0,0.0342
747.0,0.0339
746.0,0.0337
745.0,0.0338
744.0,0.0345
743.0,0.0361
742.0,0.0388
741.0,0.0431
740.0,0.0494
739.0,0.0575
738.0,0.0671
737.0,0.0782
736.0,0.0903
735.0,0.1033
734.0,0.117
733.0,0.1314
732.0,0.1466
731.0,0.1626
730.0,0.1795
729.0,0.198
728.0,0.2177
727.0,0.2374
726.0,0.2552
725.0,0.2691
724.0,0.2774
723.0,0.2792
722.0,0.2751
721.0,0.2666
720.0,0.2559
719.0,0.2441
718.0,0.232
717.0,0.2202
716.0,0.2091
715.0,0.1991
714.0,0.1903
713.0,0.183
712.0,0.1768
711.0,0.1713
710.0,0.1661
709.0,0.1614
708.0,0.1571
707.0,0.153
706.0,0.1489
705.0,0.1451
704.0,0.1418
703.0,0.1387
702.0,0.1353
701.0,0.1315
700.0,0.1277
699.0,0.124
698.0,0.1207
697.0,0.1179
696.0,0.1154
695.0,0.1131
694.0,0.1112
693.0,0.1096
692.0,0.1083
691.0,0.1069
690.0,0.1051
689.0,0.1032
688.0,0.1016
687.0,0.1005
686.0,0.1
685.0,0.0996
684.0,0.0992
683.0,0.0989
682.0,0.0988
681.0,0.0989
680.0,0.0985
679.0,0.0975
678.0,0.096
677.0,0.0944
676.0,0.0931
675.0,0.0919
674.0,0.0907
673.0,0.0894
672.0,0.0888
671.0,0.0908
670.0,0.0963
669.0,0.1049
668.0,0.1118
667.0,0.1086
666.0,0.0982
665.0,0.0891
664.0,0.0845
663.0,0.083
662.0,0.0825
661.0,0.082
660.0,0.0814
659.0,0.0803
658.0,0.0792
657.0,0.0785
656.0,0.0786
655.0,0.0791
654.0,0.0795
653.0,0.0797
652.0,0.0794
651.0,0.0784
650.0,0.077
649.0,0.0757
648.0,0.075
647.0,0.0748
646.0,0.0745
645.0,0.0744
644.0,0.0747
643.0,0.0754
642.0,0.0762
641.0,0.0767
640.0,0.0772
639.0,0.0776
638.0,0.0778
637.0,0.0778
636.0,0.078
635.0,0.0784
634.0,0.0794
633.0,0.0808
632.0,0.0821
631.0,0.0825
630.0,0.0818
629.0,0.0807
628.0,0.0799
627.0,0.0792
626.0,0.0783
625.0,0.0773
624.0,0.0765
623.0,0.076
622.0,0.0757
621.0,0.0754
620.0,0.0752
619.0,0.0749
618.0,0.0745
617.0,0.0743
616.0,0.0746
615.0,0.0751
614.0,0.0752
613.0,0.075
612.0,0.0745
611.0,0.074
610.0,0.0735
609.0,0.073
608.0,0.0728
607.0,0.0728
606.0,0.0728
605.0,0.0726
604.0,0.0722
603.0,0.0719
602.0,0.0722
601.0,0.0731
600.0,0.0741
