cm-1,A
4000.0,0.0096
3999.0,0.0096
3998.0,0.0096
3997.0,0.0096
3996.0,0.0096
3995.0,0.0096
3994.0,0.0096
3993.0,0.0096
3992.0,0.0096
3991.0,0.0096
3990.0,0.0096
3989.0,0.0095
3988.0,0.0095
3987.0,0.0094
3986.0,0.0094
3985.0,0.0094
3984.0,0.0095
3983.0,0.0095
3982.0,0.0095
3981.0,0.0095
3980.0,0.0095
3979.0,0.0096
3978.0,0.0097
3977.0,0.0097
3976.0,0.0097
3975.0,0.0096
3974.0,0.0096
3973.0,0.0096
3972.0,0.0097
3971.0,0.0097
3970.0,0.0096
3969.0,0.0096
3968.0,0.0097
3967.0,0.0097
3966.0,0.0098
3965.0,0.0098
3964.0,0.0097
3963.0,0.0097
3962.0,0.0097
3961.0,0.0096
3960.0,0.0097
3959.0,0.0097
3958.0,0.0097
3957.0,0.0097
3956.0,0.0098
3955.0,0.0098
3954.0,0.0098
3953.0,0.0098
3952.0,0.0098
3951.0,0.0097
3950.0,0.0097
3949.0,0.0097
3948.0,0.0097
3947.0,0.0097
3946.0,0.0098
3945.0,0.0098
3944.0,0.0099
3943.0,0.0099
3942.0,0.0098
3941.0,0.0097
3940.0,0.0097
3939.0,0.0096
3938.0,0.0096
3937.0,0.0097
3936.0,0.0098
3935.0,0.0099
3934.0,0.01
3933.0,0.01
3932.0,0.0099
3931.0,0.0099
3930.0,0.0098
3929.0,0.0098
3928.0,0.0098
3927.0,0.0098
3926.0,0.0098
3925.0,0.0097
3924.0,0.0097
3923.0,0.0098
3922.0,0.0098
3921.0,0.0098
3920.0,0.0099
3919.0,0.01
3918.0,0.0102
3917.0,0.0102
3916.0,0.0101
3915.0,0.01
3914.0,0.01
3913.0,0.01
3912.0,0.01
3911.0,0.01
3910.0,0.01
3909.0,0.01
3908.0,0.01
3907.0,0.01
3906.0,0.01
3905.0,0.01
3904.0,0.01
3903.0,0.01
3902.0,0.0102
3901.0,0.0102
3900.0,0.0102
3899.0,0.0101
3898.0,0.01
3897.0,0.01
3896.0,0.01
3895.0,0.01
3894.0,0.01
3893.0,0.01
3892.0,0.0099
3891.0,0.0098
3890.0,0.0099
3889.0,0.0101
3888.0,0.0102
3887.0,0.0101
3886.0,0.01
3885.0,0.01
3884.0,0.0101
3883.0,0.0103
3882.0,0.0103
3881.0,0.0102
3880.0,0.01
3879.0,0.01
3878.0,0.0101
3877.0,0.0102
3876.0,0.0101
3875.0,0.01
3874.0,0.0099
3873.0,0.01
3872.0,0.0102
3871.0,0.0103
3870.0,0.0102
3869.0,0.0101
3868.0,0.0102
3867.0,0.0104
3866.0,0.0103
3865.0,0.0102
3864.0,0.0102
3863.0,0.0102
3862.0,0.0102
3861.0,0.0102
3860.0,0.0102
3859.0,0.0102
3858.0,0.0101
3857.0,0.0101
3856.0,0.0101
3855.0,0.0102
3854.0,0.0103
3853.0,0.0104
3852.0,0.0104
3851.0,0.0105
3850.0,0.0105
3849.0,0.0104
3848.0,0.0102
3847.0,0.0101
3846.0,0.0101
3845.0,0.01
3844.0,0.0099
3843.0,0.0098
3842.0,0.0098
3841.0,0.0099
3840.0,0.01
3839.0,0.0102
3838.0,0.0103
3837.0,0.0103
3836.0,0.0104
3835.0,0.0105
3834.0,0.0106
3833.0,0.0106
3832.0,0.0106
3831.0,0.0105
3830.0,0.0105
3829.0,0.0105
3828.0,0.0104
3827.0,0.0103
3826.0,0.0102
3825.0,0.0103
3824.0,0.0104
3823.0,0.0106
3822.0,0.0107
3821.0,0.0106
3820.0,0.0105
3819.0,0.0105
3818.0,0.0105
3817.0,0.0104
3816.0,0.0102
3815.0,0.0103
3814.0,0.0105
3813.0,0.0107
3812.0,0.0107
3811.0,0.0106
3810.0,0.0107
3809.0,0.0107
3808.0,0.0106
3807.0,0.0103
3806.0,0.0101
3805.0,0.0102
3804.0,0.0103
3803.0,0.0104
3802.0,0.0104
3801.0,0.0103
3800.0,0.0103
3799.0,0.0104
3798.0,0.0105
3797.0,0.0104
3796.0,0.0103
3795.0,0.0104
3794.0,0.0105
3793.0,0.0105
3792.0,0.0105
3791.0,0.0105
3790.0,0.0105
3789.0,0.0105
3788.0,0.0105
3787.0,0.0106
3786.0,0.0106
3785.0,0.0105
3784.0,0.0105
3783.0,0.0105
3782.0,0.0105
3781.0,0.0105
3780.0,0.0105
3779.0,0.0104
3778.0,0.0105
3777.0,0.0106
3776.0,0.0107
3775.0,0.0107
3774.0,0.0107
3773.0,0.0107
3772.0,0.0107
3771.0,0.0107
3770.0,0.0107
3769.0,0.0107
3768.0,0.0107
3767.0,0.0106
3766.0,0.0105
3765.0,0.0104
3764.0,0.0105
3763.0,0.0106
3762.0,0.0107
3761.0,0.0106
3760.0,0.0106
3759.0,0.0106
3758.0,0.0105
3757.0,0.0104
3756.0,0.0104
3755.0,0.0105
3754.0,0.0105
3753.0,0.0107
3752.0,0.011
3751.0,0.0111
3750.0,0.011
3749.0,0.0108
3748.0,0.0109
3747.0,0.0111
3746.0,0.0111
3745.0,0.0109
3744.0,0.0106
3743.0,0.0106
3742.0,0.0107
3741.0,0.0106
3740.0,0.0103
3739.0,0.01
3738.0,0.0098
3737.0,0.0097
3736.0,0.0096
3735.0,0.0095
3734.0,0.0095
3733.0,0.0093
3732.0,0.0092
3731.0,0.0091
3730.0,0.0092
3729.0,0.0093
3728.0,0.0094
3727.0,0.0093
3726.0,0.0093
3725.0,0.0093
3724.0,0.0094
3723.0,0.0095
3722.0,0.0097
3721.0,0.0098
3720.0,0.0099
3719.0,0.01
3718.0,0.0101
3717.0,0.0102
3716.0,0.0103
3715.0,0.0104
3714.0,0.0103
3713.0,0.0103
3712.0,0.0102
3711.0,0.0102
3710.0,0.0101
3709.0,0.0101
3708.0,0.01
3707.0,0.0099
3706.0,0.0098
3705.0,0.0098
3704.0,0.0097
3703.0,0.0096
3702.0,0.0095
3701.0,0.0096
3700.0,0.0097
3699.0,0.0099
3698.0,0.01
3697.0,0.0101
3696.0,0.0101
3695.0,0.01
3694.0,0.01
3693.0,0.0101
3692.0,0.0102
3691.0,0.0104
3690.0,0.0106
3689.0,0.0106
3688.0,0.0106
3687.0,0.0106
3686.0,0.0108
3685.0,0.0109
3684.0,0.0109
3683.0,0.0108
3682.0,0.0108
3681.0,0.0107
3680.0,0.0107
3679.0,0.0107
3678.0,0.0108
3677.0,0.011
3676.0,0.011
3675.0,0.0109
3674.0,0.011
3673.0,0.0112
3672.0,0.0114
3671.0,0.0114
3670.0,0.0115
3669.0,0.0115
3668.0,0.0117
3667.0,0.0118
3666.0,0.0118
3665.0,0.0117
3664.0,0.0116
3663.0,0.0115
3662.0,0.0114
3661.0,0.0114
3660.0,0.0114
3659.0,0.0114
3658.0,0.0115
3657.0,0.0116
3656.0,0.0116
3655.0,0.0116
3654.0,0.0117
3653.0,0.0117
3652.0,0.0116
3651.0,0.0116
3650.0,0.0118
3649.0,0.0118
3648.0,0.0117
3647.0,0.0117
3646.0,0.0118
3645.0,0.0119
3644.0,0.012
3643.0,0.0119
3642.0,0.0119
3641.0,0.0118
3640.0,0.0117
3639.0,0.0117
3638.0,0.0117
3637.0,0.0117
3636.0,0.0117
3635.0,0.0117
3634.0,0.0116
3633.0,0.0116
3632.0,0.0116
3631.0,0.0116
3630.0,0.0115
3629.0,0.0114
3628.0,0.0113
3627.0,0.0114
3626.0,0.0116
3625.0,0.0117
3624.0,0.0117
3623.0,0.0116
3622.0,0.0116
3621.0,0.0117
3620.0,0.0117
3619.0,0.0117
3618.0,0.0118
3617.0,0.012
3616.0,0.0121
3615.0,0.0123
3614.0,0.0124
3613.0,0.0124
3612.0,0.0125
3611.0,0.0126
3610.0,0.0126
3609.0,0.0126
3608.0,0.0125
3607.0,0.0124
3606.0,0.0123
3605.0,0.0122
3604.0,0.0122
3603.0,0.0122
3602.0,0.0122
3601.0,0.0122
3600.0,0.0121
3599.0,0.012
3598.0,0.012
3597.0,0.012
3596.0,0.0121
3595.0,0.0123
3594.0,0.0124
3593.0,0.0124
3592.0,0.0125
3591.0,0.0126
3590.0,0.0128
3589.0,0.0129
3588.0,0.0129
3587.0,0.0127
3586.0,0.0126
3585.0,0.0126
3584.0,0.0128
3583.0,0.013
3582.0,0.0131
3581.0,0.0133
3580.0,0.0133
3579.0,0.0134
3578.0,0.0134
3577.0,0.0135
3576.0,0.0136
3575.0,0.0137
3574.0,0.0138
3573.0,0.0137
3572.0,0.0137
3571.0,0.0136
3570.0,0.0135
3569.0,0.0135
3568.0,0.0135
3567.0,0.0136
3566.0,0.0137
3565.0,0.0138
3564.0,0.0139
3563.0,0.0139
3562.0,0.014
3561.0,0.014
3560.0,0.0139
3559.0,0.0139
3558.0,0.0139
3557.0,0.014
3556.0,0.014
3555.0,0.0141
3554.0,0.0142
3553.0,0.0143
3552.0,0.0143
3551.0,0.0143
3550.0,0.0144
3549.0,0.0144
3548.0,0.0143
3547.0,0.0143
3546.0,0.0142
3545.0,0.0142
3544.0,0.0141
3543.0,0.0142
3542.0,0.0142
3541.0,0.0143
3540.0,0.0144
3539.0,0.0145
3538.0,0.0146
3537.0,0.0146
3536.0,0.0147
3535.0,0.0147
3534.0,0.0147
3533.0,0.0146
3532.0,0.0145
3531.0,0.0144
3530.0,0.0144
3529.0,0.0144
3528.0,0.0144
3527.0,0.0144
3526.0,0.0144
3525.0,0.0145
3524.0,0.0146
3523.0,0.0147
3522.0,0.0147
3521.0,0.0147
3520.0,0.0146
3519.0,0.0146
3518.0,0.0146
3517.0,0.0146
3516.0,0.0146
3515.0,0.0145
3514.0,0.0145
3513.0,0.0145
3512.0,0.0146
3511.0,0.0147
3510.0,0.0147
3509.0,0.0147
3508.0,0.0146
3507.0,0.0146
3506.0,0.0145
3505.0,0.0144
3504.0,0.0144
3503.0,0.0144
3502.0,0.0144
3501.0,0.0145
3500.0,0.0145
3499.0,0.0146
3498.0,0.0146
3497.0,0.0147
3496.0,0.0147
3495.0,0.0147
3494.0,0.0147
3493.0,0.0147
3492.0,0.0146
3491.0,0.0146
3490.0,0.0145
3489.0,0.0145
3488.0,0.0145
3487.0,0.0145
3486.0,0.0146
3485.0,0.0147
3484.0,0.0148
3483.0,0.0148
3482.0,0.0149
3481.0,0.0149
3480.0,0.0149
3479.0,0.0149
3478.0,0.0148
3477.0,0.0148
3476.0,0.0147
3475.0,0.0147
3474.0,0.0147
3473.0,0.0148
3472.0,0.0149
3471.0,0.0149
3470.0,0.015
3469.0,0.015
3468.0,0.015
3467.0,0.015
3466.0,0.015
3465.0,0.015
3464.0,0.0149
3463.0,0.0149
3462.0,0.015
3461.0,0.0151
3460.0,0.0152
3459.0,0.0153
3458.0,0.0153
3457.0,0.0153
3456.0,0.0153
3455.0,0.0154
3454.0,0.0154
3453.0,0.0155
3452.0,0.0156
3451.0,0.0156
3450.0,0.0156
3449.0,0.0156
3448.0,0.0157
3447.0,0.0158
3446.0,0.0159
3445.0,0.0161
3444.0,0.0162
3443.0,0.0162
3442.0,0.0162
3441.0,0.0162
3440.0,0.0162
3439.0,0.0161
3438.0,0.0161
3437.0,0.0161
3436.0,0.0161
3435.0,0.0161
3434.0,0.0162
3433.0,0.0162
3432.0,0.0163
3431.0,0.0163
3430.0,0.0164
3429.0,0.0164
3428.0,0.0165
3427.0,0.0165
3426.0,0.0164
3425.0,0.0164
3424.0,0.0163
3423.0,0.0163
3422.0,0.0163
3421.0,0.0163
3420.0,0.0163
3419.0,0.0164
3418.0,0.0163
3417.0,0.0163
3416.0,0.0162
3415.0,0.0161
3414.0,0.0161
3413.0,0.016
3412.0,0.0159
3411.0,0.0158
3410.0,0.0157
3409.0,0.0158
3408.0,0.0159
3407.0,0.016
3406.0,0.016
3405.0,0.0161
3404.0,0.016
3403.0,0.016
3402.0,0.0159
3401.0,0.0158
3400.0,0.0158
3399.0,0.0157
3398.0,0.0157
3397.0,0.0156
3396.0,0.0155
3395.0,0.0155
3394.0,0.0155
3393.0,0.0155
3392.0,0.0155
3391.0,0.0155
3390.0,0.0155
3389.0,0.0155
3388.0,0.0155
3387.0,0.0156
3386.0,0.0157
3385.0,0.0158
3384.0,0.0157
3383.0,0.0156
3382.0,0.0155
3381.0,0.0154
3380.0,0.0154
3379.0,0.0153
3378.0,0.0153
3377.0,0.0153
3376.0,0.0153
3375.0,0.0154
3374.0,0.0154
3373.0,0.0155
3372.0,0.0154
3371.0,0.0154
3370.0,0.0153
3369.0,0.0153
3368.0,0.0153
3367.0,0.0153
3366.0,0.0153
3365.0,0.0152
3364.0,0.0152
3363.0,0.0152
3362.0,0.0152
3361.0,0.0152
3360.0,0.0152
3359.0,0.0153
3358.0,0.0153
3357.0,0.0153
3356.0,0.0153
3355.0,0.0153
3354.0,0.0153
3353.0,0.0153
3352.0,0.0153
3351.0,0.0153
3350.0,0.0153
3349.0,0.0153
3348.0,0.0153
3347.0,0.0153
3346.0,0.0153
3345.0,0.0153
3344.0,0.0153
3343.0,0.0152
3342.0,0.0152
3341.0,0.0152
3340.0,0.0151
3339.0,0.0151
3338.0,0.0151
3337.0,0.0152
3336.0,0.0152
3335.0,0.0152
3334.0,0.0152
3333.0,0.0151
3332.0,0.0151
3331.0,0.0151
3330.0,0.0151
3329.0,0.0151
3328.0,0.0151
3327.0,0.0152
3326.0,0.0152
3325.0,0.0152
3324.0,0.0152
3323.0,0.0151
3322.0,0.015
3321.0,0.015
3320.0,0.015
3319.0,0.0151
3318.0,0.0152
3317.0,0.0152
3316.0,0.0152
3315.0,0.0152
3314.0,0.0151
3313.0,0.0151
3312.0,0.015
3311.0,0.0151
3310.0,0.0151
3309.0,0.0151
3308.0,0.0151
3307.0,0.0152
3306.0,0.0152
3305.0,0.0152
3304.0,0.0151
3303.0,0.0151
3302.0,0.015
3301.0,0.0149
3300.0,0.0149
3299.0,0.0148
3298.0,0.0148
3297.0,0.0148
3296.0,0.0148
3295.0,0.0149
3294.0,0.0149
3293.0,0.0149
3292.0,0.015
3291.0,0.015
3290.0,0.015
3289.0,0.015
3288.0,0.0149
3287.0,0.0148
3286.0,0.0148
3285.0,0.0147
3284.0,0.0147
3283.0,0.0147
3282.0,0.0148
3281.0,0.0148
3280.0,0.0148
3279.0,0.0148
3278.0,0.0147
3277.0,0.0147
3276.0,0.0146
3275.0,0.0146
3274.0,0.0146
3273.0,0.0145
3272.0,0.0145
3271.0,0.0145
3270.0,0.0145
3269.0,0.0145
3268.0,0.0144
3267.0,0.0143
3266.0,0.0143
3265.0,0.0143
3264.0,0.0143
3263.0,0.0144
3262.0,0.0145
3261.0,0.0146
3260.0,0.0146
3259.0,0.0146
3258.0,0.0145
3257.0,0.0145
3256.0,0.0145
3255.0,0.0145
3254.0,0.0145
3253.0,0.0145
3252.0,0.0145
3251.0,0.0145
3250.0,0.0145
3249.0,0.0145
3248.0,0.0144
3247.0,0.0143
3246.0,0.0143
3245.0,0.0143
3244.0,0.0143
3243.0,0.0143
3242.0,0.0143
3241.0,0.0143
3240.0,0.0143
3239.0,0.0142
3238.0,0.0142
3237.0,0.0142
3236.0,0.0142
3235.0,0.0142
3234.0,0.0142
3233.0,0.0142
3232.0,0.0142
3231.0,0.0142
3230.0,0.0142
3229.0,0.0143
3228.0,0.0143
3227.0,0.0143
3226.0,0.0142
3225.0,0.0141
3224.0,0.014
3223.0,0.0139
3222.0,0.0139
3221.0,0.0139
3220.0,0.0139
3219.0,0.014
3218.0,0.0139
3217.0,0.0139
3216.0,0.0138
3215.0,0.0138
3214.0,0.0139
3213.0,0.0139
3212.0,0.0139
3211.0,0.0139
3210.0,0.0139
3209.0,0.0138
3208.0,0.0138
3207.0,0.0138
3206.0,0.0138
3205.0,0.0138
3204.0,0.0138
3203.0,0.0139
3202.0,0.0138
3201.0,0.0138
3200.0,0.0138
3199.0,0.0138
3198.0,0.0139
3197.0,0.0139
3196.0,0.0139
3195.0,0.0138
3194.0,0.0137
3193.0,0.0137
3192.0,0.0137
3191.0,0.0137
3190.0,0.0137
3189.0,0.0137
3188.0,0.0136
3187.0,0.0136
3186.0,0.0135
3185.0,0.0134
3184.0,0.0133
3183.0,0.0133
3182.0,0.0133
3181.0,0.0134
3180.0,0.0135
3179.0,0.0136
3178.0,0.0136
3177.0,0.0136
3176.0,0.0135
3175.0,0.0135
3174.0,0.0134
3173.0,0.0134
3172.0,0.0133
3171.0,0.0133
3170.0,0.0133
3169.0,0.0133
3168.0,0.0134
3167.0,0.0134
3166.0,0.0134
3165.0,0.0134
3164.0,0.0133
3163.0,0.0133
3162.0,0.0133
3161.0,0.0133
3160.0,0.0133
3159.0,0.0133
3158.0,0.0132
3157.0,0.0132
3156.0,0.0131
3155.0,0.0131
3154.0,0.0131
3153.0,0.0131
3152.0,0.0131
3151.0,0.0131
3150.0,0.0131
3149.0,0.0131
3148.0,0.0131
3147.0,0.0131
3146.0,0.0131
3145.0,0.0131
3144.0,0.0131
3143.0,0.0131
3142.0,0.0131
3141.0,0.0132
3140.0,0.0132
3139.0,0.0133
3138.0,0.0133
3137.0,0.0133
3136.0,0.0133
3135.0,0.0132
3134.0,0.0132
3133.0,0.0131
3132.0,0.0131
3131.0,0.0131
3130.0,0.0132
3129.0,0.0132
3128.0,0.0133
3127.0,0.0133
3126.0,0.0133
3125.0,0.0132
3124.0,0.0132
3123.0,0.0131
3122.0,0.0131
3121.0,0.0131
3120.0,0.0131
3119.0,0.0132
3118.0,0.0132
3117.0,0.0132
3116.0,0.0132
3115.0,0.0132
3114.0,0.0132
3113.0,0.0131
3112.0,0.0132
3111.0,0.0133
3110.0,0.0134
3109.0,0.0135
3108.0,0.0136
3107.0,0.0136
3106.0,0.0136
3105.0,0.0137
3104.0,0.0137
3103.0,0.0137
3102.0,0.0137
3101.0,0.0137
3100.0,0.0137
3099.0,0.0136
3098.0,0.0135
3097.0,0.0135
3096.0,0.0134
3095.0,0.0133
3094.0,0.0133
3093.0,0.0133
3092.0,0.0134
3091.0,0.0135
3090.0,0.0136
3089.0,0.0136
3088.0,0.0136
3087.0,0.0136
3086.0,0.0137
3085.0,0.0137
3084.0,0.0137
3083.0,0.0137
3082.0,0.0137
3081.0,0.0138
3080.0,0.0138
3079.0,0.0138
3078.0,0.0138
3077.0,0.0138
3076.0,0.0139
3075.0,0.0139
3074.0,0.0139
3073.0,0.0139
3072.0,0.0139
3071.0,0.0139
3070.0,0.0139
3069.0,0.014
3068.0,0.014
3067.0,0.014
3066.0,0.014
3065.0,0.0139
3064.0,0.0138
3063.0,0.0138
3062.0,0.0137
3061.0,0.0137
3060.0,0.0138
3059.0,0.0138
3058.0,0.0139
3057.0,0.0139
3056.0,0.014
3055.0,0.014
3054.0,0.014
3053.0,0.014
3052.0,0.0139
3051.0,0.0139
3050.0,0.0138
3049.0,0.0137
3048.0,0.0136
3047.0,0.0134
3046.0,0.0133
3045.0,0.0131
3044.0,0.013
3043.0,0.013
3042.0,0.0129
3041.0,0.0128
3040.0,0.0127
3039.0,0.0127
3038.0,0.0127
3037.0,0.0127
3036.0,0.0127
3035.0,0.0128
3034.0,0.0128
3033.0,0.0128
3032.0,0.0128
3031.0,0.0127
3030.0,0.0127
3029.0,0.0127
3028.0,0.0128
3027.0,0.0128
3026.0,0.0129
3025.0,0.013
3024.0,0.0131
3023.0,0.0131
3022.0,0.0131
3021.0,0.0132
3020.0,0.0132
3019.0,0.0133
3018.0,0.0134
3017.0,0.0135
3016.0,0.0136
3015.0,0.0138
3014.0,0.014
3013.0,0.0142
3012.0,0.0143
3011.0,0.0145
3010.0,0.0146
3009.0,0.0147
3008.0,0.0147
3007.0,0.0148
3006.0,0.0149
3005.0,0.015
3004.0,0.0151
3003.0,0.0151
3002.0,0.0151
3001.0,0.0151
3000.0,0.0151
2999.0,0.0152
2998.0,0.0152
2997.0,0.0153
2996.0,0.0153
2995.0,0.0154
2994.0,0.0154
2993.0,0.0155
2992.0,0.0156
2991.0,0.0157
2990.0,0.0158
2989.0,0.0159
2988.0,0.016
2987.0,0.0162
2986.0,0.0164
2985.0,0.0166
2984.0,0.0168
2983.0,0.017
2982.0,0.0173
2981.0,0.0175
2980.0,0.0178
2979.0,0.018
2978.0,0.0183
2977.0,0.0186
2976.0,0.0189
2975.0,0.0192
2974.0,0.0195
2973.0,0.0199
2972.0,0.0203
2971.0,0.0207
2970.0,0.0211
2969.0,0.0215
2968.0,0.0218
2967.0,0.0221
2966.0,0.0225
2965.0,0.0228
2964.0,0.023
2963.0,0.0233
2962.0,0.0235
2961.0,0.0236
2960.0,0.0237
2959.0,0.0239
2958.0,0.024
2957.0,0.0241
2956.0,0.0241
2955.0,0.0241
2954.0,0.024
2953.0,0.0239
2952.0,0.0237
2951.0,0.0235
2950.0,0.0232
2949.0,0.023
2948.0,0.0229
2947.0,0.0228
2946.0,0.0227
2945.0,0.0226
2944.0,0.0227
2943.0,0.0228
2942.0,0.0231
2941.0,0.0233
2940.0,0.0236
2939.0,0.0239
2938.0,0.0243
2937.0,0.0248
2936.0,0.0252
2935.0,0.0258
2934.0,0.0263
2933.0,0.0268
2932.0,0.0273
2931.0,0.0278
2930.0,0.0284
2929.0,0.0289
2928.0,0.0293
2927.0,0.0296
2926.0,0.0298
2925.0,0.0298
2924.0,0.0298
2923.0,0.0296
2922.0,0.0293
2921.0,0.0288
2920.0,0.0283
2919.0,0.0278
2918.0,0.0272
2917.0,0.0266
2916.0,0.026
2915.0,0.0255
2914.0,0.025
2913.0,0.0245
2912.0,0.0241
2911.0,0.0237
2910.0,0.0234
2909.0,0.0231
2908.0,0.0229
2907.0,0.0226
2906.0,0.0224
2905.0,0.0221
2904.0,0.0218
2903.0,0.0216
2902.0,0.0213
2901.0,0.0211
2900.0,0.0209
2899.0,0.0207
2898.0,0.0205
2897.0,0.0203
2896.0,0.0202
2895.0,0.0201
2894.0,0.02
2893.0,0.0197
2892.0,0.0195
2891.0,0.0193
2890.0,0.0192
2889.0,0.0191
2888.0,0.019
2887.0,0.0189
2886.0,0.0187
2885.0,0.0186
2884.0,0.0184
2883.0,0.0183
2882.0,0.0181
2881.0,0.018
2880.0,0.018
2879.0,0.018
2878.0,0.018
2877.0,0.0181
2876.0,0.0182
2875.0,0.0182
2874.0,0.0183
2873.0,0.0184
2872.0,0.0185
2871.0,0.0186
2870.0,0.0186
2869.0,0.0187
2868.0,0.0187
2867.0,0.0188
2866.0,0.019
2865.0,0.0192
2864.0,0.0195
2863.0,0.0199
2862.0,0.0203
2861.0,0.0208
2860.0,0.0213
2859.0,0.0218
2858.0,0.0224
2857.0,0.0228
2856.0,0.0232
2855.0,0.0234
2854.0,0.0234
2853.0,0.0232
2852.0,0.0229
2851.0,0.0224
2850.0,0.0218
2849.0,0.0211
2848.0,0.0204
2847.0,0.0197
2846.0,0.019
2845.0,0.0184
2844.0,0.0179
2843.0,0.0173
2842.0,0.0169
2841.0,0.0165
2840.0,0.0163
2839.0,0.016
2838.0,0.0159
2837.0,0.0157
2836.0,0.0156
2835.0,0.0153
2834.0,0.0151
2833.0,0.015
2832.0,0.0149
2831.0,0.0148
2830.0,0.0148
2829.0,0.0147
2828.0,0.0146
2827.0,0.0145
2826.0,0.0143
2825.0,0.0142
2824.0,0.0142
2823.0,0.0142
2822.0,0.0142
2821.0,0.0142
2820.0,0.0141
2819.0,0.0141
2818.0,0.014
2817.0,0.0139
2816.0,0.0138
2815.0,0.0138
2814.0,0.0137
2813.0,0.0137
2812.0,0.0138
2811.0,0.0138
2810.0,0.0138
2809.0,0.0139
2808.0,0.0139
2807.0,0.0138
2806.0,0.0138
2805.0,0.0137
2804.0,0.0137
2803.0,0.0136
2802.0,0.0136
2801.0,0.0136
2800.0,0.0136
2799.0,0.0136
2798.0,0.0137
2797.0,0.0137
2796.0,0.0137
2795.0,0.0137
2794.0,0.0137
2793.0,0.0136
2792.0,0.0136
2791.0,0.0136
2790.0,0.0136
2789.0,0.0136
2788.0,0.0135
2787.0,0.0135
2786.0,0.0134
2785.0,0.0134
2784.0,0.0133
2783.0,0.0133
2782.0,0.0133
2781.0,0.0133
2780.0,0.0133
2779.0,0.0133
2778.0,0.0133
2777.0,0.0132
2776.0,0.0131
2775.0,0.0131
2774.0,0.0131
2773.0,0.0131
2772.0,0.0131
2771.0,0.0131
2770.0,0.0131
2769.0,0.0131
2768.0,0.0131
2767.0,0.0131
2766.0,0.013
2765.0,0.013
2764.0,0.0129
2763.0,0.0129
2762.0,0.0129
2761.0,0.0129
2760.0,0.0129
2759.0,0.013
2758.0,0.013
2757.0,0.013
2756.0,0.013
2755.0,0.013
2754.0,0.013
2753.0,0.013
2752.0,0.0131
2751.0,0.013
2750.0,0.013
2749.0,0.0129
2748.0,0.0128
2747.0,0.0128
2746.0,0.0128
2745.0,0.0129
2744.0,0.0129
2743.0,0.0129
2742.0,0.0129
2741.0,0.0128
2740.0,0.0128
2739.0,0.0128
2738.0,0.0128
2737.0,0.0128
2736.0,0.0128
2735.0,0.0128
2734.0,0.0128
2733.0,0.0128
2732.0,0.0128
2731.0,0.0128
2730.0,0.0127
2729.0,0.0127
2728.0,0.0127
2727.0,0.0127
2726.0,0.0127
2725.0,0.0127
2724.0,0.0127
2723.0,0.0127
2722.0,0.0127
2721.0,0.0127
2720.0,0.0127
2719.0,0.0126
2718.0,0.0126
2717.0,0.0126
2716.0,0.0126
2715.0,0.0126
2714.0,0.0126
2713.0,0.0126
2712.0,0.0126
2711.0,0.0126
2710.0,0.0126
2709.0,0.0126
2708.0,0.0126
2707.0,0.0126
2706.0,0.0126
2705.0,0.0126
2704.0,0.0126
2703.0,0.0125
2702.0,0.0124
2701.0,0.0124
2700.0,0.0124
2699.0,0.0125
2698.0,0.0125
2697.0,0.0126
2696.0,0.0126
2695.0,0.0126
2694.0,0.0126
2693.0,0.0125
2692.0,0.0125
2691.0,0.0124
2690.0,0.0125
2689.0,0.0125
2688.0,0.0125
2687.0,0.0124
2686.0,0.0124
2685.0,0.0123
2684.0,0.0123
2683.0,0.0124
2682.0,0.0124
2681.0,0.0125
2680.0,0.0125
2679.0,0.0124
2678.0,0.0123
2677.0,0.0123
2676.0,0.0123
2675.0,0.0123
2674.0,0.0124
2673.0,0.0124
2672.0,0.0124
2671.0,0.0124
2670.0,0.0123
2669.0,0.0123
2668.0,0.0122
2667.0,0.0122
2666.0,0.0122
2665.0,0.0122
2664.0,0.0122
2663.0,0.0122
2662.0,0.0122
2661.0,0.0122
2660.0,0.0122
2659.0,0.0123
2658.0,0.0123
2657.0,0.0123
2656.0,0.0123
2655.0,0.0123
2654.0,0.0122
2653.0,0.0122
2652.0,0.0121
2651.0,0.0121
2650.0,0.0121
2649.0,0.0121
2648.0,0.0121
2647.0,0.0121
2646.0,0.0121
2645.0,0.012
2644.0,0.0121
2643.0,0.0121
2642.0,0.0121
2641.0,0.0121
2640.0,0.0121
2639.0,0.0121
2638.0,0.0122
2637.0,0.0122
2636.0,0.0122
2635.0,0.0122
2634.0,0.0121
2633.0,0.0121
2632.0,0.0121
2631.0,0.0121
2630.0,0.0121
2629.0,0.0121
2628.0,0.012
2627.0,0.012
2626.0,0.012
2625.0,0.012
2624.0,0.012
2623.0,0.012
2622.0,0.012
2621.0,0.012
2620.0,0.012
2619.0,0.0121
2618.0,0.0121
2617.0,0.0121
2616.0,0.012
2615.0,0.012
2614.0,0.012
2613.0,0.0121
2612.0,0.0121
2611.0,0.0121
2610.0,0.012
2609.0,0.012
2608.0,0.0119
2607.0,0.0119
2606.0,0.0119
2605.0,0.0119
2604.0,0.0119
2603.0,0.012
2602.0,0.012
2601.0,0.012
2600.0,0.012
2599.0,0.012
2598.0,0.012
2597.0,0.012
2596.0,0.012
2595.0,0.012
2594.0,0.0121
2593.0,0.012
2592.0,0.012
2591.0,0.012
2590.0,0.012
2589.0,0.012
2588.0,0.012
2587.0,0.012
2586.0,0.012
2585.0,0.012
2584.0,0.0121
2583.0,0.0121
2582.0,0.0121
2581.0,0.0121
2580.0,0.0121
2579.0,0.0121
2578.0,0.0121
2577.0,0.0121
2576.0,0.0121
2575.0,0.0121
2574.0,0.012
2573.0,0.012
2572.0,0.0119
2571.0,0.012
2570.0,0.012
2569.0,0.0121
2568.0,0.0121
2567.0,0.0121
2566.0,0.0121
2565.0,0.0121
2564.0,0.0121
2563.0,0.0121
2562.0,0.0121
2561.0,0.0121
2560.0,0.0121
2559.0,0.0121
2558.0,0.0121
2557.0,0.012
2556.0,0.012
2555.0,0.012
2554.0,0.012
2553.0,0.012
2552.0,0.012
2551.0,0.012
2550.0,0.012
2549.0,0.012
2548.0,0.0119
2547.0,0.0119
2546.0,0.0119
2545.0,0.0119
2544.0,0.0119
2543.0,0.012
2542.0,0.012
2541.0,0.012
2540.0,0.0119
2539.0,0.0119
2538.0,0.0119
2537.0,0.0119
2536.0,0.0119
2535.0,0.0119
2534.0,0.0118
2533.0,0.0118
2532.0,0.0118
2531.0,0.0117
2530.0,0.0117
2529.0,0.0117
2528.0,0.0117
2527.0,0.0117
2526.0,0.0117
2525.0,0.0117
2524.0,0.0117
2523.0,0.0117
2522.0,0.0117
2521.0,0.0118
2520.0,0.0118
2519.0,0.0118
2518.0,0.0117
2517.0,0.0117
2516.0,0.0116
2515.0,0.0116
2514.0,0.0116
2513.0,0.0116
2512.0,0.0116
2511.0,0.0116
2510.0,0.0116
2509.0,0.0117
2508.0,0.0117
2507.0,0.0116
2506.0,0.0116
2505.0,0.0115
2504.0,0.0115
2503.0,0.0115
2502.0,0.0115
2501.0,0.0116
2500.0,0.0116
2499.0,0.0116
2498.0,0.0115
2497.0,0.0115
2496.0,0.0115
2495.0,0.0114
2494.0,0.0114
2493.0,0.0114
2492.0,0.0114
2491.0,0.0115
2490.0,0.0114
2489.0,0.0114
2488.0,0.0113
2487.0,0.0112
2486.0,0.0112
2485.0,0.0112
2484.0,0.0111
2483.0,0.0111
2482.0,0.0111
2481.0,0.0111
2480.0,0.0112
2479.0,0.0112
2478.0,0.0112
2477.0,0.0111
2476.0,0.0111
2475.0,0.0111
2474.0,0.011
2473.0,0.011
2472.0,0.011
2471.0,0.011
2470.0,0.011
2469.0,0.011
2468.0,0.011
2467.0,0.011
2466.0,0.0111
2465.0,0.0111
2464.0,0.0111
2463.0,0.0111
2462.0,0.011
2461.0,0.0109
2460.0,0.0109
2459.0,0.0109
2458.0,0.0109
2457.0,0.0109
2456.0,0.0109
2455.0,0.0109
2454.0,0.0108
2453.0,0.0108
2452.0,0.0108
2451.0,0.0108
2450.0,0.0108
2449.0,0.0108
2448.0,0.0107
2447.0,0.0107
2446.0,0.0106
2445.0,0.0106
2444.0,0.0107
2443.0,0.0107
2442.0,0.0108
2441.0,0.0108
2440.0,0.0108
2439.0,0.0107
2438.0,0.0107
2437.0,0.0107
2436.0,0.0107
2435.0,0.0107
2434.0,0.0108
2433.0,0.0108
2432.0,0.0108
2431.0,0.0108
2430.0,0.0108
2429.0,0.0107
2428.0,0.0107
2427.0,0.0107
2426.0,0.0108
2425.0,0.0108
2424.0,0.0108
2423.0,0.0108
2422.0,0.0108
2421.0,0.0108
2420.0,0.0109
2419.0,0.0109
2418.0,0.0109
2417.0,0.0109
2416.0,0.0109
2415.0,0.0108
2414.0,0.0108
2413.0,0.0108
2412.0,0.0108
2411.0,0.0108
2410.0,0.0108
2409.0,0.0109
2408.0,0.0109
2407.0,0.0108
2406.0,0.0108
2405.0,0.0107
2404.0,0.0107
2403.0,0.0108
2402.0,0.0108
2401.0,0.0109
2400.0,0.0108
2399.0,0.0108
2398.0,0.0108
2397.0,0.0108
2396.0,0.0108
2395.0,0.0109
2394.0,0.0109
2393.0,0.0109
2392.0,0.0109
2391.0,0.0109
2390.0,0.011
2389.0,0.0109
2388.0,0.0106
2387.0,0.0105
2386.0,0.0102
2385.0,0.0098
2384.0,0.0091
2383.0,0.0083
2382.0,0.0073
2381.0,0.0062
2380.0,0.0051
2379.0,0.0041
2378.0,0.0034
2377.0,0.0032
2376.0,0.0033
2375.0,0.0037
2374.0,0.004
2373.0,0.004
2372.0,0.0035
2371.0,0.0027
2370.0,0.0019
2369.0,0.0013
2368.0,0.0011
2367.0,0.0016
2366.0,0.0025
2365.0,0.0033
2364.0,0.0035
2363.0,0.0031
2362.0,0.0023
2361.0,0.0017
2360.0,0.0018
2359.0,0.0019
2358.0,0.0014
2357.0,0.0006
2356.0,0.0005
2355.0,0.0007
2354.0,0.0007
2353.0,0.0002
2352.0,-0.0004
2351.0,-0.0005
2350.0,-0.0004
2349.0,-0.0001
2348.0,0.0
2347.0,0.0001
2346.0,0.0001
2345.0,-0.0
2344.0,-0.0002
2343.0,-0.0005
2342.0,-0.0008
2341.0,-0.0008
2340.0,-0.0002
2339.0,0.0005
2338.0,0.0006
2337.0,-0.0003
2336.0,-0.0016
2335.0,-0.0026
2334.0,-0.003
2333.0,-0.0029
2332.0,-0.0025
2331.0,-0.0019
2330.0,-0.0015
2329.0,-0.0011
2328.0,-0.0006
2327.0,-0.0
2326.0,0.0004
2325.0,0.0004
2324.0,0.0003
2323.0,0.0005
2322.0,0.0006
2321.0,0.0014
2320.0,0.0016
2319.0,0.0033
2318.0,0.0022
2317.0,0.0078
2316.0,0.0146
2315.0,0.0125
2314.0,0.0133
2313.0,0.0126
2312.0,0.0129
2311.0,0.0123
2310.0,0.0126
2309.0,0.0116
2308.0,0.0129
2307.0,0.0084
2306.0,0.003
2305.0,0.005
2304.0,0.0046
2303.0,0.0054
2302.0,0.0055
2301.0,0.0059
2300.0,0.0062
2299.0,0.0064
2298.0,0.0067
2297.0,0.0069
2296.0,0.0072
2295.0,0.0075
2294.0,0.0078
2293.0,0.0081
2292.0,0.0083
2291.0,0.0085
2290.0,0.0087
2289.0,0.0089
2288.0,0.009
2287.0,0.0091
2286.0,0.0092
2285.0,0.0094
2284.0,0.0095
2283.0,0.0096
2282.0,0.0096
2281.0,0.0096
2280.0,0.0095
2279.0,0.0094
2278.0,0.0093
2277.0,0.0091
2276.0,0.009
2275.0,0.0089
2274.0,0.0089
2273.0,0.0089
2272.0,0.009
2271.0,0.009
2270.0,0.009
2269.0,0.009
2268.0,0.009
2267.0,0.0091
2266.0,0.0091
2265.0,0.0091
2264.0,0.0091
2263.0,0.0092
2262.0,0.0092
2261.0,0.0092
2260.0,0.0092
2259.0,0.0092
2258.0,0.0092
2257.0,0.0092
2256.0,0.0093
2255.0,0.0093
2254.0,0.0093
2253.0,0.0093
2252.0,0.0093
2251.0,0.0093
2250.0,0.0093
2249.0,0.0093
2248.0,0.0093
2247.0,0.0093
2246.0,0.0093
2245.0,0.0093
2244.0,0.0093
2243.0,0.0093
2242.0,0.0093
2241.0,0.0093
2240.0,0.0093
2239.0,0.0093
2238.0,0.0094
2237.0,0.0094
2236.0,0.0093
2235.0,0.0093
2234.0,0.0093
2233.0,0.0093
2232.0,0.0093
2231.0,0.0093
2230.0,0.0093
2229.0,0.0092
2228.0,0.0092
2227.0,0.0091
2226.0,0.0091
2225.0,0.0092
2224.0,0.0092
2223.0,0.0092
2222.0,0.0093
2221.0,0.0092
2220.0,0.0092
2219.0,0.0092
2218.0,0.0091
2217.0,0.0091
2216.0,0.0091
2215.0,0.0091
2214.0,0.0091
2213.0,0.0091
2212.0,0.0091
2211.0,0.009
2210.0,0.009
2209.0,0.0089
2208.0,0.0089
2207.0,0.0089
2206.0,0.0089
2205.0,0.0089
2204.0,0.0089
2203.0,0.0088
2202.0,0.0088
2201.0,0.0088
2200.0,0.0088
2199.0,0.0088
2198.0,0.0088
2197.0,0.0088
2196.0,0.0088
2195.0,0.0087
2194.0,0.0087
2193.0,0.0087
2192.0,0.0086
2191.0,0.0086
2190.0,0.0086
2189.0,0.0086
2188.0,0.0085
2187.0,0.0085
2186.0,0.0085
2185.0,0.0086
2184.0,0.0086
2183.0,0.0085
2182.0,0.0085
2181.0,0.0085
2180.0,0.0084
2179.0,0.0084
2178.0,0.0085
2177.0,0.0085
2176.0,0.0085
2175.0,0.0085
2174.0,0.0084
2173.0,0.0084
2172.0,0.0083
2171.0,0.0083
2170.0,0.0083
2169.0,0.0084
2168.0,0.0084
2167.0,0.0085
2166.0,0.0084
2165.0,0.0084
2164.0,0.0084
2163.0,0.0084
2162.0,0.0085
2161.0,0.0084
2160.0,0.0084
2159.0,0.0084
2158.0,0.0084
2157.0,0.0084
2156.0,0.0084
2155.0,0.0085
2154.0,0.0085
2153.0,0.0085
2152.0,0.0085
2151.0,0.0085
2150.0,0.0085
2149.0,0.0084
2148.0,0.0084
2147.0,0.0084
2146.0,0.0085
2145.0,0.0085
2144.0,0.0085
2143.0,0.0084
2142.0,0.0084
2141.0,0.0083
2140.0,0.0083
2139.0,0.0083
2138.0,0.0083
2137.0,0.0083
2136.0,0.0083
2135.0,0.0084
2134.0,0.0084
2133.0,0.0084
2132.0,0.0084
2131.0,0.0084
2130.0,0.0084
2129.0,0.0084
2128.0,0.0084
2127.0,0.0084
2126.0,0.0083
2125.0,0.0083
2124.0,0.0083
2123.0,0.0084
2122.0,0.0084
2121.0,0.0084
2120.0,0.0084
2119.0,0.0084
2118.0,0.0084
2117.0,0.0084
2116.0,0.0084
2115.0,0.0084
2114.0,0.0085
2113.0,0.0084
2112.0,0.0084
2111.0,0.0084
2110.0,0.0083
2109.0,0.0083
2108.0,0.0084
2107.0,0.0084
2106.0,0.0084
2105.0,0.0084
2104.0,0.0084
2103.0,0.0083
2102.0,0.0084
2101.0,0.0084
2100.0,0.0083
2099.0,0.0083
2098.0,0.0083
2097.0,0.0083
2096.0,0.0083
2095.0,0.0083
2094.0,0.0082
2093.0,0.0082
2092.0,0.0081
2091.0,0.0081
2090.0,0.0082
2089.0,0.0082
2088.0,0.0081
2087.0,0.0081
2086.0,0.0081
2085.0,0.0081
2084.0,0.0081
2083.0,0.008
2082.0,0.008
2081.0,0.0079
2080.0,0.0078
2079.0,0.0078
2078.0,0.0077
2077.0,0.0077
2076.0,0.0076
2075.0,0.0076
2074.0,0.0076
2073.0,0.0076
2072.0,0.0076
2071.0,0.0075
2070.0,0.0075
2069.0,0.0075
2068.0,0.0074
2067.0,0.0074
2066.0,0.0074
2065.0,0.0073
2064.0,0.0073
2063.0,0.0072
2062.0,0.0072
2061.0,0.0072
2060.0,0.0072
2059.0,0.0071
2058.0,0.0071
2057.0,0.007
2056.0,0.0069
2055.0,0.0068
2054.0,0.0068
2053.0,0.0068
2052.0,0.0067
2051.0,0.0067
2050.0,0.0067
2049.0,0.0067
2048.0,0.0067
2047.0,0.0067
2046.0,0.0067
2045.0,0.0067
2044.0,0.0067
2043.0,0.0066
2042.0,0.0066
2041.0,0.0066
2040.0,0.0066
2039.0,0.0065
2038.0,0.0065
2037.0,0.0064
2036.0,0.0064
2035.0,0.0064
2034.0,0.0064
2033.0,0.0064
2032.0,0.0064
2031.0,0.0063
2030.0,0.0063
2029.0,0.0062
2028.0,0.0062
2027.0,0.0062
2026.0,0.0062
2025.0,0.0062
2024.0,0.0062
2023.0,0.0062
2022.0,0.0062
2021.0,0.0061
2020.0,0.0061
2019.0,0.0061
2018.0,0.0062
2017.0,0.0061
2016.0,0.0061
2015.0,0.0061
2014.0,0.0061
2013.0,0.0061
2012.0,0.0061
2011.0,0.0061
2010.0,0.0061
2009.0,0.0061
2008.0,0.0061
2007.0,0.0061
2006.0,0.0061
2005.0,0.0061
2004.0,0.006
2003.0,0.006
2002.0,0.006
2001.0,0.006
2000.0,0.006
1999.0,0.006
1998.0,0.006
1997.0,0.006
1996.0,0.006
1995.0,0.006
1994.0,0.006
1993.0,0.006
1992.0,0.006
1991.0,0.0061
1990.0,0.0061
1989.0,0.0061
1988.0,0.0061
1987.0,0.0061
1986.0,0.0061
1985.0,0.0061
1984.0,0.0061
1983.0,0.0061
1982.0,0.0062
1981.0,0.0062
1980.0,0.0062
1979.0,0.0062
1978.0,0.0062
1977.0,0.0062
1976.0,0.0062
1975.0,0.0062
1974.0,0.0062
1973.0,0.0062
1972.0,0.0062
1971.0,0.0063
1970.0,0.0063
1969.0,0.0062
1968.0,0.0062
1967.0,0.0063
1966.0,0.0063
1965.0,0.0064
1964.0,0.0065
1963.0,0.0066
1962.0,0.0066
1961.0,0.0067
1960.0,0.0067
1959.0,0.0067
1958.0,0.0068
1957.0,0.0068
1956.0,0.0069
1955.0,0.0069
1954.0,0.0069
1953.0,0.0069
1952.0,0.007
1951.0,0.007
1950.0,0.0071
1949.0,0.0071
1948.0,0.007
1947.0,0.0069
1946.0,0.0068
1945.0,0.0067
1944.0,0.0065
1943.0,0.0065
1942.0,0.0064
1941.0,0.0063
1940.0,0.0062
1939.0,0.0061
1938.0,0.006
1937.0,0.0059
1936.0,0.0058
1935.0,0.0057
1934.0,0.0056
1933.0,0.0055
1932.0,0.0054
1931.0,0.0053
1930.0,0.0052
1929.0,0.0051
1928.0,0.005
1927.0,0.0049
1926.0,0.0049
1925.0,0.0048
1924.0,0.0047
1923.0,0.0046
1922.0,0.0045
1921.0,0.0044
1920.0,0.0043
1919.0,0.0042
1918.0,0.0042
1917.0,0.0041
1916.0,0.004
1915.0,0.004
1914.0,0.0039
1913.0,0.0039
1912.0,0.0038
1911.0,0.0038
1910.0,0.0037
1909.0,0.0036
1908.0,0.0035
1907.0,0.0034
1906.0,0.0033
1905.0,0.0033
1904.0,0.0032
1903.0,0.0032
1902.0,0.0032
1901.0,0.0031
1900.0,0.003
1899.0,0.0029
1898.0,0.0028
1897.0,0.0028
1896.0,0.0027
1895.0,0.0026
1894.0,0.0025
1893.0,0.0024
1892.0,0.0023
1891.0,0.0022
1890.0,0.0022
1889.0,0.0021
1888.0,0.002
1887.0,0.002
1886.0,0.0019
1885.0,0.0019
1884.0,0.0018
1883.0,0.0018
1882.0,0.0018
1881.0,0.0017
1880.0,0.0016
1879.0,0.0015
1878.0,0.0015
1877.0,0.0014
1876.0,0.0014
1875.0,0.0013
1874.0,0.0013
1873.0,0.0012
1872.0,0.0012
1871.0,0.0011
1870.0,0.0011
1869.0,0.001
1868.0,0.0009
1867.0,0.0009
1866.0,0.0008
1865.0,0.0007
1864.0,0.0007
1863.0,0.0007
1862.0,0.0006
1861.0,0.0006
1860.0,0.0005
1859.0,0.0004
1858.0,0.0004
1857.0,0.0003
1856.0,0.0004
1855.0,0.0004
1854.0,0.0004
1853.0,0.0004
1852.0,0.0003
1851.0,0.0003
1850.0,0.0003
1849.0,0.0002
1848.0,0.0002
1847.0,0.0002
1846.0,0.0002
1845.0,0.0001
1844.0,0.0002
1843.0,0.0002
1842.0,0.0003
1841.0,0.0003
1840.0,0.0003
1839.0,0.0003
1838.0,0.0004
1837.0,0.0003
1836.0,0.0003
1835.0,0.0003
1834.0,0.0003
1833.0,0.0002
1832.0,0.0002
1831.0,0.0003
1830.0,0.0003
1829.0,0.0003
1828.0,0.0002
1827.0,0.0002
1826.0,0.0002
1825.0,0.0001
1824.0,0.0
1823.0,0.0001
1822.0,0.0001
1821.0,0.0001
1820.0,0.0
1819.0,-0.0
1818.0,-0.0001
1817.0,-0.0002
1816.0,-0.0003
1815.0,-0.0004
1814.0,-0.0005
1813.0,-0.0006
1812.0,-0.0008
1811.0,-0.0008
1810.0,-0.0009
1809.0,-0.001
1808.0,-0.0012
1807.0,-0.0012
1806.0,-0.0013
1805.0,-0.0015
1804.0,-0.0016
1803.0,-0.0017
1802.0,-0.0017
1801.0,-0.0018
1800.0,-0.002
1799.0,-0.0022
1798.0,-0.0022
1797.0,-0.0023
1796.0,-0.0024
1795.0,-0.0025
1794.0,-0.0026
1793.0,-0.0027
1792.0,-0.0029
1791.0,-0.003
1790.0,-0.003
1789.0,-0.0031
1788.0,-0.0031
1787.0,-0.0032
1786.0,-0.0032
1785.0,-0.0033
1784.0,-0.0034
1783.0,-0.0035
1782.0,-0.0036
1781.0,-0.0038
1780.0,-0.0039
1779.0,-0.0039
1778.0,-0.0039
1777.0,-0.0039
1776.0,-0.0039
1775.0,-0.0039
1774.0,-0.004
1773.0,-0.0041
1772.0,-0.0043
1771.0,-0.0043
1770.0,-0.0041
1769.0,-0.0039
1768.0,-0.0037
1767.0,-0.0035
1766.0,-0.0032
1765.0,-0.0031
1764.0,-0.0029
1763.0,-0.0025
1762.0,-0.0021
1761.0,-0.0017
1760.0,-0.0013
1759.0,-0.0007
1758.0,0.0001
1757.0,0.001
1756.0,0.0018
1755.0,0.0028
1754.0,0.0039
1753.0,0.0049
1752.0,0.0063
1751.0,0.0083
1750.0,0.0106
1749.0,0.0131
1748.0,0.0158
1747.0,0.0189
1746.0,0.0224
1745.0,0.0262
1744.0,0.0307
1743.0,0.0356
1742.0,0.0408
1741.0,0.0466
1740.0,0.0537
1739.0,0.061
1738.0,0.0668
1737.0,0.0711
1736.0,0.076
1735.0,0.0846
1734.0,0.0963
1733.0,0.1057
1732.0,0.1122
1731.0,0.1188
1730.0,0.1264
1729.0,0.1342
1728.0,0.1416
1727.0,0.1485
1726.0,0.1556
1725.0,0.1631
1724.0,0.1711
1723.0,0.1788
1722.0,0.1854
1721.0,0.1904
1720.0,0.1947
1719.0,0.2004
1718.0,0.2087
1717.0,0.2159
1716.0,0.2193
1715.0,0.2203
1714.0,0.2196
1713.0,0.2166
1712.0,0.2115
1711.0,0.2047
1710.0,0.1969
1709.0,0.1884
1708.0,0.1792
1707.0,0.1689
1706.0,0.1577
1705.0,0.1476
1704.0,0.14
1703.0,0.134
1702.0,0.1276
1701.0,0.1195
1700.0,0.1114
1699.0,0.1058
1698.0,0.102
1697.0,0.098
1696.0,0.0935
1695.0,0.0894
1694.0,0.0866
1693.0,0.0844
1692.0,0.0822
1691.0,0.0797
1690.0,0.0773
1689.0,0.0753
1688.0,0.0737
1687.0,0.072
1686.0,0.0702
1685.0,0.0686
1684.0,0.0675
1683.0,0.0664
1682.0,0.0653
1681.0,0.0641
1680.0,0.0628
1679.0,0.0614
1678.0,0.06
1677.0,0.0587
1676.0,0.0574
1675.0,0.0561
1674.0,0.0549
1673.0,0.0538
1672.0,0.0527
1671.0,0.0515
1670.0,0.0504
1669.0,0.0495
1668.0,0.0486
1667.0,0.0478
1666.0,0.0468
1665.0,0.0458
1664.0,0.0448
1663.0,0.0438
1662.0,0.0429
1661.0,0.0421
1660.0,0.0413
1659.0,0.0405
1658.0,0.0397
1657.0,0.0389
1656.0,0.0381
1655.0,0.0371
1654.0,0.0366
1653.0,0.0365
1652.0,0.0362
1651.0,0.0357
1650.0,0.0352
1649.0,0.0345
1648.0,0.034
1647.0,0.0337
1646.0,0.0335
1645.0,0.0334
1644.0,0.0331
1643.0,0.0327
1642.0,0.0323
1641.0,0.032
1640.0,0.0316
1639.0,0.0311
1638.0,0.0306
1637.0,0.0303
1636.0,0.0301
1635.0,0.0299
1634.0,0.0297
1633.0,0.0296
1632.0,0.0294
1631.0,0.0291
1630.0,0.0287
1629.0,0.0284
1628.0,0.0281
1627.0,0.0279
1626.0,0.0276
1625.0,0.0274
1624.0,0.0272
1623.0,0.0271
1622.0,0.027
1621.0,0.0269
1620.0,0.0268
1619.0,0.0266
1618.0,0.0267
1617.0,0.0273
1616.0,0.028
1615.0,0.0284
1614.0,0.0284
1613.0,0.0284
1612.0,0.0281
1611.0,0.0277
1610.0,0.0272
1609.0,0.0266
1608.0,0.0261
1607.0,0.0256
1606.0,0.0251
1605.0,0.0246
1604.0,0.0241
1603.0,0.0236
1602.0,0.0231
1601.0,0.0227
1600.0,0.0222
1599.0,0.0218
1598.0,0.0213
1597.0,0.021
1596.0,0.0207
1595.0,0.0205
1594.0,0.0203
1593.0,0.0202
1592.0,0.0201
1591.0,0.02
1590.0,0.0199
1589.0,0.0199
1588.0,0.02
1587.0,0.0201
1586.0,0.0204
1585.0,0.0209
1584.0,0.0217
1583.0,0.0227
1582.0,0.0239
1581.0,0.0251
1580.0,0.0261
1579.0,0.0267
1578.0,0.027
1577.0,0.0268
1576.0,0.0262
1575.0,0.0253
1574.0,0.0245
1573.0,0.0237
1572.0,0.0228
1571.0,0.0219
1570.0,0.0209
1569.0,0.0202
1568.0,0.0197
1567.0,0.0193
1566.0,0.0189
1565.0,0.0185
1564.0,0.0181
1563.0,0.0177
1562.0,0.0173
1561.0,0.0167
1560.0,0.0165
1559.0,0.0166
1558.0,0.0163
1557.0,0.0162
1556.0,0.0162
1555.0,0.016
1554.0,0.0158
1553.0,0.0156
1552.0,0.0154
1551.0,0.0152
1550.0,0.015
1549.0,0.0148
1548.0,0.0145
1547.0,0.0143
1546.0,0.0141
1545.0,0.014
1544.0,0.0139
1543.0,0.0136
1542.0,0.0133
1541.0,0.0133
1540.0,0.0132
1539.0,0.0129
1538.0,0.0129
1537.0,0.013
1536.0,0.013
1535.0,0.0128
1534.0,0.0128
1533.0,0.013
1532.0,0.0131
1531.0,0.0131
1530.0,0.0132
1529.0,0.0132
1528.0,0.0132
1527.0,0.0131
1526.0,0.0131
1525.0,0.0129
1524.0,0.0127
1523.0,0.0126
1522.0,0.0125
1521.0,0.0123
1520.0,0.0121
1519.0,0.0117
1518.0,0.0115
1517.0,0.0113
1516.0,0.0112
1515.0,0.0112
1514.0,0.0114
1513.0,0.0117
1512.0,0.0122
1511.0,0.0127
1510.0,0.0136
1509.0,0.0149
1508.0,0.0184
1507.0,0.0243
1506.0,0.0283
1505.0,0.0291
1504.0,0.0282
1503.0,0.0263
1502.0,0.0238
1501.0,0.0211
1500.0,0.0186
1499.0,0.0164
1498.0,0.0145
1497.0,0.0131
1496.0,0.012
1495.0,0.0113
1494.0,0.0107
1493.0,0.0104
1492.0,0.0101
1491.0,0.0099
1490.0,0.0099
1489.0,0.0102
1488.0,0.0106
1487.0,0.0109
1486.0,0.0113
1485.0,0.0118
1484.0,0.0124
1483.0,0.0131
1482.0,0.0138
1481.0,0.0146
1480.0,0.0152
1479.0,0.0158
1478.0,0.0162
1477.0,0.0168
1476.0,0.0174
1475.0,0.0179
1474.0,0.0184
1473.0,0.0192
1472.0,0.02
1471.0,0.0205
1470.0,0.0208
1469.0,0.0211
1468.0,0.0214
1467.0,0.0217
1466.0,0.0222
1465.0,0.0231
1464.0,0.0242
1463.0,0.025
1462.0,0.0257
1461.0,0.0263
1460.0,0.0268
1459.0,0.0275
1458.0,0.0288
1457.0,0.0304
1456.0,0.0313
1455.0,0.0316
1454.0,0.0316
1453.0,0.0315
1452.0,0.0313
1451.0,0.0308
1450.0,0.0303
1449.0,0.0298
1448.0,0.0293
1447.0,0.0289
1446.0,0.0286
1445.0,0.0283
1444.0,0.028
1443.0,0.0277
1442.0,0.0274
1441.0,0.027
1440.0,0.0266
1439.0,0.0261
1438.0,0.0253
1437.0,0.0243
1436.0,0.0231
1435.0,0.0219
1434.0,0.0208
1433.0,0.0196
1432.0,0.0183
1431.0,0.0168
1430.0,0.0153
1429.0,0.0141
1428.0,0.0131
1427.0,0.0123
1426.0,0.0117
1425.0,0.0113
1424.0,0.011
1423.0,0.011
1422.0,0.0112
1421.0,0.0117
1420.0,0.013
1419.0,0.0154
1418.0,0.0186
1417.0,0.0223
1416.0,0.0267
1415.0,0.0322
1414.0,0.0389
1413.0,0.0468
1412.0,0.0554
1411.0,0.0634
1410.0,0.0695
1409.0,0.073
1408.0,0.0738
1407.0,0.0718
1406.0,0.0675
1405.0,0.0618
1404.0,0.0562
1403.0,0.0514
1402.0,0.0474
1401.0,0.0438
1400.0,0.0402
1399.0,0.0369
1398.0,0.0342
1397.0,0.032
1396.0,0.0301
1395.0,0.0281
1394.0,0.0264
1393.0,0.0252
1392.0,0.0242
1391.0,0.0233
1390.0,0.0224
1389.0,0.0217
1388.0,0.0211
1387.0,0.0208
1386.0,0.0206
1385.0,0.0206
1384.0,0.0207
1383.0,0.0209
1382.0,0.0213
1381.0,0.0218
1380.0,0.0225
1379.0,0.0233
1378.0,0.024
1377.0,0.0247
1376.0,0.0256
1375.0,0.0265
1374.0,0.0275
1373.0,0.0282
1372.0,0.0287
1371.0,0.0288
1370.0,0.0285
1369.0,0.0278
1368.0,0.0267
1367.0,0.0252
1366.0,0.0235
1365.0,0.0216
1364.0,0.0196
1363.0,0.0176
1362.0,0.0159
1361.0,0.0147
1360.0,0.0139
1359.0,0.0133
1358.0,0.0129
1357.0,0.0127
1356.0,0.0128
1355.0,0.013
1354.0,0.0135
1353.0,0.0143
1352.0,0.0153
1351.0,0.0167
1350.0,0.0185
1349.0,0.0209
1348.0,0.0238
1347.0,0.0272
1346.0,0.0312
1345.0,0.0357
1344.0,0.0406
1343.0,0.0455
1342.0,0.0503
1341.0,0.0547
1340.0,0.0581
1339.0,0.0595
1338.0,0.0583
1337.0,0.055
1336.0,0.0501
1335.0,0.0442
1334.0,0.0379
1333.0,0.032
1332.0,0.0267
1331.0,0.0225
1330.0,0.0194
1329.0,0.0172
1328.0,0.0158
1327.0,0.015
1326.0,0.0148
1325.0,0.015
1324.0,0.0154
1323.0,0.016
1322.0,0.0168
1321.0,0.0176
1320.0,0.0186
1319.0,0.0195
1318.0,0.0206
1317.0,0.0216
1316.0,0.0227
1315.0,0.0238
1314.0,0.0251
1313.0,0.0266
1312.0,0.0282
1311.0,0.0298
1310.0,0.0315
1309.0,0.0333
1308.0,0.0351
1307.0,0.0368
1306.0,0.0386
1305.0,0.0403
1304.0,0.0421
1303.0,0.0442
1302.0,0.0465
1301.0,0.0494
1300.0,0.0526
1299.0,0.0563
1298.0,0.0601
1297.0,0.0643
1296.0,0.0685
1295.0,0.0727
1294.0,0.0769
1293.0,0.0809
1292.0,0.0849
1291.0,0.0887
1290.0,0.0923
1289.0,0.0958
1288.0,0.0992
1287.0,0.1023
1286.0,0.1052
1285.0,0.1078
1284.0,0.1104
1283.0,0.1127
1282.0,0.1149
1281.0,0.117
1280.0,0.1192
1279.0,0.1213
1278.0,0.1235
1277.0,0.126
1276.0,0.129
1275.0,0.1324
1274.0,0.1363
1273.0,0.141
1272.0,0.1466
1271.0,0.1529
1270.0,0.1596
1269.0,0.1667
1268.0,0.174
1267.0,0.1813
1266.0,0.1884
1265.0,0.1952
1264.0,0.2016
1263.0,0.2072
1262.0,0.2118
1261.0,0.2157
1260.0,0.2188
1259.0,0.221
1258.0,0.2224
1257.0,0.2235
1256.0,0.2247
1255.0,0.2261
1254.0,0.2279
1253.0,0.2303
1252.0,0.2335
1251.0,0.2371
1250.0,0.2411
1249.0,0.2456
1248.0,0.2505
1247.0,0.2554
1246.0,0.2601
1245.0,0.2647
1244.0,0.2689
1243.0,0.2724
1242.0,0.2748
1241.0,0.2762
1240.0,0.2766
1239.0,0.2758
1238.0,0.2735
1237.0,0.27
1236.0,0.2655
1235.0,0.26
1234.0,0.2536
1233.0,0.2467
1232.0,0.2397
1231.0,0.2324
1230.0,0.225
1229.0,0.2178
1228.0,0.2109
1227.0,0.2041
1226.0,0.1973
1225.0,0.1908
1224.0,0.1845
1223.0,0.1783
1222.0,0.1722
1221.0,0.1663
1220.0,0.1606
1219.0,0.1552
1218.0,0.1499
1217.0,0.1449
1216.0,0.1401
1215.0,0.1357
1214.0,0.1314
1213.0,0.1274
1212.0,0.1237
1211.0,0.1202
1210.0,0.1169
1209.0,0.1138
1208.0,0.1109
1207.0,0.1081
1206.0,0.1054
1205.0,0.103
1204.0,0.1007
1203.0,0.0985
1202.0,0.0964
1201.0,0.0944
1200.0,0.0925
1199.0,0.0907
1198.0,0.0889
1197.0,0.0872
1196.0,0.0857
1195.0,0.0842
1194.0,0.0827
1193.0,0.0812
1192.0,0.0799
1191.0,0.0786
1190.0,0.0774
1189.0,0.0763
1188.0,0.0755
1187.0,0.0748
1186.0,0.0742
1185.0,0.0738
1184.0,0.0738
1183.0,0.074
1182.0,0.0744
1181.0,0.075
1180.0,0.0758
1179.0,0.0767
1178.0,0.0776
1177.0,0.0785
1176.0,0.0791
1175.0,0.0795
1174.0,0.0794
1173.0,0.0789
1172.0,0.078
1171.0,0.0765
1170.0,0.0747
1169.0,0.0727
1168.0,0.0706
1167.0,0.0686
1166.0,0.0669
1165.0,0.0654
1164.0,0.0642
1163.0,0.0633
1162.0,0.0626
1161.0,0.062
1160.0,0.0615
1159.0,0.0611
1158.0,0.0607
1157.0,0.0606
1156.0,0.0606
1155.0,0.0609
1154.0,0.0614
1153.0,0.0622
1152.0,0.0632
1151.0,0.0645
1150.0,0.066
1149.0,0.0677
1148.0,0.0697
1147.0,0.0719
1146.0,0.0744
1145.0,0.0771
1144.0,0.0799
1143.0,0.0828
1142.0,0.0859
1141.0,0.089
1140.0,0.0922
1139.0,0.0955
1138.0,0.0987
1137.0,0.1021
1136.0,0.1057
1135.0,0.1095
1134.0,0.1134
1133.0,0.1177
1132.0,0.1222
1131.0,0.127
1130.0,0.1321
1129.0,0.1376
1128.0,0.1435
1127.0,0.1498
1126.0,0.1562
1125.0,0.1629
1124.0,0.1697
1123.0,0.1763
1122.0,0.1825
1121.0,0.1883
1120.0,0.1935
1119.0,0.1976
1118.0,0.2005
1117.0,0.2021
1116.0,0.2022
1115.0,0.201
1114.0,0.1988
1113.0,0.1966
1112.0,0.1951
1111.0,0.195
1110.0,0.1969
1109.0,0.2009
1108.0,0.2071
1107.0,0.2149
1106.0,0.2237
1105.0,0.2332
1104.0,0.2428
1103.0,0.2521
1102.0,0.2608
1101.0,0.2689
1100.0,0.2764
1099.0,0.283
1098.0,0.2884
1097.0,0.2927
1096.0,0.2958
1095.0,0.2975
1094.0,0.2978
1093.0,0.297
1092.0,0.2952
1091.0,0.2923
1090.0,0.2883
1089.0,0.2839
1088.0,0.2792
1087.0,0.2742
1086.0,0.269
1085.0,0.2639
1084.0,0.2588
1083.0,0.2533
1082.0,0.2471
1081.0,0.2406
1080.0,0.2336
1079.0,0.2261
1078.0,0.218
1077.0,0.2098
1076.0,0.2016
1075.0,0.1934
1074.0,0.1855
1073.0,0.1781
1072.0,0.1711
1071.0,0.1646
1070.0,0.1585
1069.0,0.1529
1068.0,0.1477
1067.0,0.1429
1066.0,0.1383
1065.0,0.134
1064.0,0.1301
1063.0,0.1265
1062.0,0.1231
1061.0,0.1201
1060.0,0.1175
1059.0,0.1153
1058.0,0.1133
1057.0,0.1118
1056.0,0.1106
1055.0,0.1099
1054.0,0.1095
1053.0,0.1094
1052.0,0.1096
1051.0,0.1101
1050.0,0.1107
1049.0,0.1115
1048.0,0.1124
1047.0,0.1132
1046.0,0.1139
1045.0,0.1144
1044.0,0.1147
1043.0,0.1146
1042.0,0.1141
1041.0,0.1133
1040.0,0.1122
1039.0,0.1109
1038.0,0.1093
1037.0,0.1077
1036.0,0.106
1035.0,0.1042
1034.0,0.1025
1033.0,0.1007
1032.0,0.0991
1031.0,0.0975
1030.0,0.096
1029.0,0.0948
1028.0,0.0944
1027.0,0.0951
1026.0,0.0975
1025.0,0.1021
1024.0,0.1095
1023.0,0.1197
1022.0,0.1327
1021.0,0.1481
1020.0,0.1646
1019.0,0.1801
1018.0,0.1919
1017.0,0.1977
1016.0,0.1962
1015.0,0.188
1014.0,0.1755
1013.0,0.1616
1012.0,0.1487
1011.0,0.1376
1010.0,0.1286
1009.0,0.1214
1008.0,0.1156
1007.0,0.1108
1006.0,0.1068
1005.0,0.1034
1004.0,0.1006
1003.0,0.0982
1002.0,0.0961
1001.0,0.0942
1000.0,0.0926
999.0,0.0912
998.0,0.0897
997.0,0.0884
996.0,0.0871
995.0,0.086
994.0,0.085
993.0,0.0842
992.0,0.0835
991.0,0.0829
990.0,0.0824
989.0,0.0819
988.0,0.0816
987.0,0.0814
986.0,0.0814
985.0,0.0816
984.0,0.082
983.0,0.0825
982.0,0.0832
981.0,0.084
980.0,0.0849
979.0,0.0859
978.0,0.0868
977.0,0.0879
976.0,0.0889
975.0,0.0898
974.0,0.0904
973.0,0.0908
972.0,0.0909
971.0,0.0907
970.0,0.0901
969.0,0.0893
968.0,0.0883
967.0,0.0871
966.0,0.0858
965.0,0.0844
964.0,0.083
963.0,0.0815
962.0,0.0799
961.0,0.0785
960.0,0.0771
959.0,0.0758
958.0,0.0745
957.0,0.0734
956.0,0.0723
955.0,0.0712
954.0,0.0702
953.0,0.0693
952.0,0.0685
951.0,0.0677
950.0,0.067
949.0,0.0664
948.0,0.0657
947.0,0.0651
946.0,0.0646
945.0,0.0641
944.0,0.0636
943.0,0.0632
942.0,0.0627
941.0,0.0623
940.0,0.0619
939.0,0.0615
938.0,0.0612
937.0,0.0608
936.0,0.0605
935.0,0.0602
934.0,0.0598
933.0,0.0594
932.0,0.059
931.0,0.0586
930.0,0.0583
929.0,0.058
928.0,0.0576
927.0,0.0572
926.0,0.0568
925.0,0.0563
924.0,0.0558
923.0,0.0554
922.0,0.0551
921.0,0.0548
920.0,0.0546
919.0,0.0543
918.0,0.054
917.0,0.0537
916.0,0.0536
915.0,0.0535
914.0,0.0535
913.0,0.0537
912.0,0.054
911.0,0.0544
910.0,0.0549
909.0,0.0556
908.0,0.0566
907.0,0.0577
906.0,0.0588
905.0,0.06
904.0,0.0613
903.0,0.0625
902.0,0.0636
901.0,0.0647
900.0,0.0655
899.0,0.0661
898.0,0.0664
897.0,0.0666
896.0,0.0666
895.0,0.0664
894.0,0.0661
893.0,0.0658
892.0,0.0656
891.0,0.0655
890.0,0.0655
889.0,0.0657
888.0,0.0661
887.0,0.0669
886.0,0.068
885.0,0.0696
884.0,0.0718
883.0,0.0747
882.0,0.0782
881.0,0.0825
880.0,0.0875
879.0,0.0932
878.0,0.0993
877.0,0.1059
876.0,0.1128
875.0,0.1195
874.0,0.1251
873.0,0.1285
872.0,0.1287
871.0,0.1258
870.0,0.1204
869.0,0.1139
868.0,0.1076
867.0,0.1018
866.0,0.0971
865.0,0.0933
864.0,0.0904
863.0,0.0882
862.0,0.0865
861.0,0.0851
860.0,0.084
859.0,0.0831
858.0,0.0825
857.0,0.0822
856.0,0.082
855.0,0.0819
854.0,0.0818
853.0,0.0818
852.0,0.082
851.0,0.0824
850.0,0.083
849.0,0.0836
848.0,0.0842
847.0,0.0845
846.0,0.0845
845.0,0.0843
844.0,0.084
843.0,0.0836
842.0,0.0831
841.0,0.0824
840.0,0.0817
839.0,0.081
838.0,0.0801
837.0,0.0792
836.0,0.0782
835.0,0.077
834.0,0.0757
833.0,0.0744
832.0,0.0732
831.0,0.0721
830.0,0.071
829.0,0.07
828.0,0.0692
827.0,0.0685
826.0,0.0678
825.0,0.0671
824.0,0.0665
823.0,0.0659
822.0,0.0653
821.0,0.0648
820.0,0.0644
819.0,0.0641
818.0,0.0637
817.0,0.0635
816.0,0.0633
815.0,0.0631
814.0,0.0629
813.0,0.0627
812.0,0.0625
811.0,0.0622
810.0,0.0618
809.0,0.0614
808.0,0.0611
807.0,0.0608
806.0,0.0604
805.0,0.06
804.0,0.0595
803.0,0.0591
802.0,0.0585
801.0,0.058
800.0,0.0578
799.0,0.0582
798.0,0.0596
797.0,0.0618
796.0,0.0646
795.0,0.0673
794.0,0.0691
793.0,0.0697
792.0,0.0692
791.0,0.0677
790.0,0.0657
789.0,0.0636
788.0,0.0616
787.0,0.0595
786.0,0.0576
785.0,0.0559
784.0,0.0545
783.0,0.0532
782.0,0.052
781.0,0.0509
780.0,0.05
779.0,0.0491
778.0,0.0481
777.0,0.0472
776.0,0.0463
775.0,0.0454
774.0,0.0445
773.0,0.0437
772.0,0.0428
771.0,0.0418
770.0,0.0408
769.0,0.0398
768.0,0.0389
767.0,0.0379
766.0,0.0368
765.0,0.0358
764.0,0.0347
763.0,0.0337
762.0,0.0327
761.0,0.0318
760.0,0.031
759.0,0.0303
758.0,0.0296
757.0,0.0288
756.0,0.0281
755.0,0.0272
754.0,0.0263
753.0,0.0256
752.0,0.0249
751.0,0.0244
750.0,0.0239
749.0,0.0236
748.0,0.0235
747.0,0.0235
746.0,0.0238
745.0,0.0247
744.0,0.0265
743.0,0.0294
742.0,0.034
741.0,0.0407
740.0,0.0499
739.0,0.0614
738.0,0.0751
737.0,0.0907
736.0,0.1078
735.0,0.1259
734.0,0.1448
733.0,0.1648
732.0,0.1862
731.0,0.2092
730.0,0.2343
729.0,0.2619
728.0,0.2916
727.0,0.3212
726.0,0.3472
725.0,0.3657
724.0,0.3739
723.0,0.3708
722.0,0.3579
721.0,0.3382
720.0,0.3153
719.0,0.2922
718.0,0.2706
717.0,0.251
716.0,0.2336
715.0,0.2186
714.0,0.2061
713.0,0.196
712.0,0.1878
711.0,0.181
710.0,0.1751
709.0,0.1697
708.0,0.1648
707.0,0.1601
706.0,0.1556
705.0,0.1515
704.0,0.1476
703.0,0.1437
702.0,0.1395
701.0,0.135
700.0,0.1303
699.0,0.1254
698.0,0.1204
697.0,0.1158
696.0,0.1123
695.0,0.11
694.0,0.1082
693.0,0.1065
692.0,0.1048
691.0,0.1029
690.0,0.1011
689.0,0.0994
688.0,0.0978
687.0,0.0963
686.0,0.0949
685.0,0.0938
684.0,0.0929
683.0,0.092
682.0,0.0911
681.0,0.0905
680.0,0.0905
679.0,0.091
678.0,0.0912
677.0,0.0907
676.0,0.0897
675.0,0.0885
674.0,0.0876
673.0,0.0868
672.0,0.0856
671.0,0.0841
670.0,0.0825
669.0,0.081
668.0,0.0812
667.0,0.0834
666.0,0.0834
665.0,0.0813
664.0,0.08
663.0,0.0797
662.0,0.0795
661.0,0.0791
660.0,0.0787
659.0,0.0783
658.0,0.0776
657.0,0.0769
656.0,0.0763
655.0,0.0761
654.0,0.0761
653.0,0.0761
652.0,0.076
651.0,0.0756
650.0,0.0751
649.0,0.0746
648.0,0.0741
647.0,0.0736
646.0,0.0731
645.0,0.0729
644.0,0.0729
643.0,0.073
642.0,0.0731
641.0,0.0733
640.0,0.0739
639.0,0.0747
638.0,0.0754
637.0,0.0759
636.0,0.0766
635.0,0.0777
634.0,0.0792
633.0,0.0809
632.0,0.0819
631.0,0.0817
630.0,0.0803
629.0,0.0784
628.0,0.077
627.0,0.0766
626.0,0.0767
625.0,0.0769
624.0,0.0767
623.0,0.0761
622.0,0.0756
621.0,0.0755
620.0,0.0752
619.0,0.0745
618.0,0.0734
617.0,0.0729
616.0,0.0734
615.0,0.0744
614.0,0.075
613.0,0.0752
612.0,0.0753
611.0,0.0756
610.0,0.0761
609.0,0.0763
608.0,0.0759
607.0,0.0748
606.0,0.0737
605.0,0.0731
604.0,0.0729
603.0,0.0726
602.0,0.072
601.0,0.0715
600.0,0.0713
