cm-1,A
4000.0,0.0074
3999.0,0.0073
3998.0,0.0073
3997.0,0.0072
3996.0,0.0072
3995.0,0.0072
3994.0,0.0072
3993.0,0.0072
3992.0,0.0072
3991.0,0.0072
3990.0,0.0071
3989.0,0.0071
3988.0,0.0071
3987.0,0.0071
3986.0,0.0071
3985.0,0.0071
3984.0,0.007
3983.0,0.007
3982.0,0.007
3981.0,0.007
3980.0,0.007
3979.0,0.0071
3978.0,0.0071
3977.0,0.0071
3976.0,0.0071
3975.0,0.0071
3974.0,0.0072
3973.0,0.0072
3972.0,0.0073
3971.0,0.0073
3970.0,0.0073
3969.0,0.0073
3968.0,0.0073
3967.0,0.0073
3966.0,0.0072
3965.0,0.0072
3964.0,0.0072
3963.0,0.0072
3962.0,0.0072
3961.0,0.0072
3960.0,0.0072
3959.0,0.0072
3958.0,0.0071
3957.0,0.0071
3956.0,0.0071
3955.0,0.0072
3954.0,0.0072
3953.0,0.0072
3952.0,0.0071
3951.0,0.007
3950.0,0.007
3949.0,0.007
3948.0,0.0071
3947.0,0.0071
3946.0,0.0071
3945.0,0.0071
3944.0,0.0071
3943.0,0.0072
3942.0,0.0072
3941.0,0.0073
3940.0,0.0073
3939.0,0.0073
3938.0,0.0073
3937.0,0.0072
3936.0,0.0072
3935.0,0.0072
3934.0,0.0073
3933.0,0.0073
3932.0,0.0074
3931.0,0.0074
3930.0,0.0073
3929.0,0.0073
3928.0,0.0073
3927.0,0.0073
3926.0,0.0073
3925.0,0.0072
3924.0,0.0072
3923.0,0.0072
3922.0,0.0073
3921.0,0.0074
3920.0,0.0074
3919.0,0.0075
3918.0,0.0075
3917.0,0.0074
3916.0,0.0074
3915.0,0.0072
3914.0,0.0072
3913.0,0.0071
3912.0,0.0071
3911.0,0.0072
3910.0,0.0072
3909.0,0.0072
3908.0,0.0072
3907.0,0.0072
3906.0,0.0072
3905.0,0.0072
3904.0,0.0073
3903.0,0.0073
3902.0,0.0072
3901.0,0.0072
3900.0,0.0072
3899.0,0.0072
3898.0,0.0073
3897.0,0.0073
3896.0,0.0073
3895.0,0.0072
3894.0,0.0072
3893.0,0.0072
3892.0,0.0072
3891.0,0.0072
3890.0,0.0072
3889.0,0.0072
3888.0,0.0073
3887.0,0.0074
3886.0,0.0075
3885.0,0.0074
3884.0,0.0072
3883.0,0.007
3882.0,0.007
3881.0,0.007
3880.0,0.0071
3879.0,0.007
3878.0,0.007
3877.0,0.0071
3876.0,0.0072
3875.0,0.0071
3874.0,0.0069
3873.0,0.0067
3872.0,0.0067
3871.0,0.0069
3870.0,0.0071
3869.0,0.0072
3868.0,0.0072
3867.0,0.0072
3866.0,0.0072
3865.0,0.0072
3864.0,0.0071
3863.0,0.007
3862.0,0.007
3861.0,0.0071
3860.0,0.0072
3859.0,0.0072
3858.0,0.0072
3857.0,0.0072
3856.0,0.0073
3855.0,0.0074
3854.0,0.0076
3853.0,0.0076
3852.0,0.0074
3851.0,0.0073
3850.0,0.0075
3849.0,0.0076
3848.0,0.0075
3847.0,0.0074
3846.0,0.0074
3845.0,0.0074
3844.0,0.0074
3843.0,0.0073
3842.0,0.0072
3841.0,0.0071
3840.0,0.007
3839.0,0.007
3838.0,0.007
3837.0,0.007
3836.0,0.0069
3835.0,0.007
3834.0,0.0071
3833.0,0.0073
3832.0,0.0074
3831.0,0.0074
3830.0,0.0074
3829.0,0.0074
3828.0,0.0074
3827.0,0.0073
3826.0,0.0072
3825.0,0.007
3824.0,0.0068
3823.0,0.0066
3822.0,0.0066
3821.0,0.0068
3820.0,0.0068
3819.0,0.0068
3818.0,0.007
3817.0,0.0073
3816.0,0.0075
3815.0,0.0075
3814.0,0.0075
3813.0,0.0075
3812.0,0.0076
3811.0,0.0076
3810.0,0.0076
3809.0,0.0076
3808.0,0.0077
3807.0,0.0077
3806.0,0.0076
3805.0,0.0075
3804.0,0.0074
3803.0,0.0075
3802.0,0.0076
3801.0,0.0075
3800.0,0.0073
3799.0,0.0072
3798.0,0.0074
3797.0,0.0076
3796.0,0.0077
3795.0,0.0076
3794.0,0.0075
3793.0,0.0075
3792.0,0.0076
3791.0,0.0077
3790.0,0.0078
3789.0,0.0078
3788.0,0.0077
3787.0,0.0077
3786.0,0.0076
3785.0,0.0076
3784.0,0.0075
3783.0,0.0074
3782.0,0.0074
3781.0,0.0074
3780.0,0.0076
3779.0,0.0077
3778.0,0.0077
3777.0,0.0077
3776.0,0.0078
3775.0,0.0079
3774.0,0.0079
3773.0,0.0078
3772.0,0.0078
3771.0,0.0078
3770.0,0.0078
3769.0,0.0077
3768.0,0.0076
3767.0,0.0077
3766.0,0.0078
3765.0,0.0078
3764.0,0.0078
3763.0,0.0077
3762.0,0.0077
3761.0,0.0077
3760.0,0.0077
3759.0,0.0077
3758.0,0.0076
3757.0,0.0075
3756.0,0.0074
3755.0,0.0072
3754.0,0.0071
3753.0,0.007
3752.0,0.007
3751.0,0.0072
3750.0,0.0073
3749.0,0.0074
3748.0,0.0074
3747.0,0.0074
3746.0,0.0076
3745.0,0.0077
3744.0,0.0077
3743.0,0.0076
3742.0,0.0076
3741.0,0.0077
3740.0,0.0077
3739.0,0.0075
3738.0,0.0072
3737.0,0.007
3736.0,0.007
3735.0,0.007
3734.0,0.0071
3733.0,0.0072
3732.0,0.0073
3731.0,0.0075
3730.0,0.0077
3729.0,0.0078
3728.0,0.0078
3727.0,0.0079
3726.0,0.0079
3725.0,0.0079
3724.0,0.0079
3723.0,0.0078
3722.0,0.0078
3721.0,0.0077
3720.0,0.0077
3719.0,0.0078
3718.0,0.0079
3717.0,0.0079
3716.0,0.0078
3715.0,0.0077
3714.0,0.0075
3713.0,0.0074
3712.0,0.0075
3711.0,0.0077
3710.0,0.0078
3709.0,0.0079
3708.0,0.0079
3707.0,0.0079
3706.0,0.0079
3705.0,0.0079
3704.0,0.0079
3703.0,0.008
3702.0,0.0082
3701.0,0.0082
3700.0,0.0081
3699.0,0.0081
3698.0,0.008
3697.0,0.008
3696.0,0.0079
3695.0,0.0078
3694.0,0.0077
3693.0,0.0076
3692.0,0.0076
3691.0,0.0076
3690.0,0.0077
3689.0,0.0078
3688.0,0.0078
3687.0,0.0078
3686.0,0.0079
3685.0,0.008
3684.0,0.0081
3683.0,0.0081
3682.0,0.0081
3681.0,0.008
3680.0,0.0079
3679.0,0.0078
3678.0,0.0077
3677.0,0.0076
3676.0,0.0076
3675.0,0.0076
3674.0,0.0074
3673.0,0.0073
3672.0,0.0075
3671.0,0.0077
3670.0,0.0079
3669.0,0.0079
3668.0,0.0078
3667.0,0.0079
3666.0,0.008
3665.0,0.0082
3664.0,0.0082
3663.0,0.0082
3662.0,0.0082
3661.0,0.0081
3660.0,0.008
3659.0,0.0079
3658.0,0.0079
3657.0,0.0079
3656.0,0.008
3655.0,0.008
3654.0,0.0079
3653.0,0.0078
3652.0,0.0077
3651.0,0.0076
3650.0,0.0076
3649.0,0.0077
3648.0,0.0076
3647.0,0.0076
3646.0,0.0077
3645.0,0.008
3644.0,0.0082
3643.0,0.0084
3642.0,0.0085
3641.0,0.0085
3640.0,0.0084
3639.0,0.0084
3638.0,0.0084
3637.0,0.0084
3636.0,0.0084
3635.0,0.0083
3634.0,0.0083
3633.0,0.0083
3632.0,0.0084
3631.0,0.0087
3630.0,0.009
3629.0,0.0092
3628.0,0.0091
3627.0,0.0089
3626.0,0.0087
3625.0,0.0088
3624.0,0.0087
3623.0,0.0087
3622.0,0.0087
3621.0,0.0087
3620.0,0.0088
3619.0,0.0088
3618.0,0.0088
3617.0,0.0087
3616.0,0.0088
3615.0,0.0089
3614.0,0.0089
3613.0,0.0088
3612.0,0.0087
3611.0,0.0087
3610.0,0.0088
3609.0,0.0091
3608.0,0.0093
3607.0,0.0095
3606.0,0.0095
3605.0,0.0095
3604.0,0.0094
3603.0,0.0094
3602.0,0.0093
3601.0,0.0091
3600.0,0.0091
3599.0,0.009
3598.0,0.0091
3597.0,0.0092
3596.0,0.0094
3595.0,0.0095
3594.0,0.0095
3593.0,0.0094
3592.0,0.0093
3591.0,0.0092
3590.0,0.0092
3589.0,0.0093
3588.0,0.0096
3587.0,0.0099
3586.0,0.01
3585.0,0.0101
3584.0,0.0101
3583.0,0.0101
3582.0,0.0101
3581.0,0.0101
3580.0,0.0101
3579.0,0.0101
3578.0,0.0101
3577.0,0.0101
3576.0,0.01
3575.0,0.0101
3574.0,0.0101
3573.0,0.0102
3572.0,0.0101
3571.0,0.0101
3570.0,0.01
3569.0,0.01
3568.0,0.0101
3567.0,0.0102
3566.0,0.0102
3565.0,0.0102
3564.0,0.0103
3563.0,0.0104
3562.0,0.0106
3561.0,0.0107
3560.0,0.0107
3559.0,0.0108
3558.0,0.0108
3557.0,0.0108
3556.0,0.0108
3555.0,0.0108
3554.0,0.0109
3553.0,0.011
3552.0,0.0111
3551.0,0.0111
3550.0,0.0111
3549.0,0.0111
3548.0,0.0111
3547.0,0.0112
3546.0,0.0113
3545.0,0.0113
3544.0,0.0113
3543.0,0.0114
3542.0,0.0114
3541.0,0.0115
3540.0,0.0115
3539.0,0.0116
3538.0,0.0116
3537.0,0.0117
3536.0,0.0118
3535.0,0.0118
3534.0,0.0118
3533.0,0.0118
3532.0,0.0118
3531.0,0.0118
3530.0,0.0118
3529.0,0.0118
3528.0,0.0118
3527.0,0.0118
3526.0,0.0118
3525.0,0.0118
3524.0,0.0118
3523.0,0.0118
3522.0,0.0118
3521.0,0.0118
3520.0,0.0119
3519.0,0.012
3518.0,0.0121
3517.0,0.0122
3516.0,0.0122
3515.0,0.0122
3514.0,0.0122
3513.0,0.0122
3512.0,0.0122
3511.0,0.0121
3510.0,0.0121
3509.0,0.0121
3508.0,0.0121
3507.0,0.012
3506.0,0.0121
3505.0,0.012
3504.0,0.012
3503.0,0.012
3502.0,0.012
3501.0,0.0121
3500.0,0.0121
3499.0,0.0122
3498.0,0.0122
3497.0,0.0122
3496.0,0.0123
3495.0,0.0123
3494.0,0.0124
3493.0,0.0124
3492.0,0.0123
3491.0,0.0122
3490.0,0.0122
3489.0,0.0121
3488.0,0.0121
3487.0,0.012
3486.0,0.012
3485.0,0.012
3484.0,0.012
3483.0,0.0119
3482.0,0.0119
3481.0,0.0119
3480.0,0.0119
3479.0,0.0119
3478.0,0.012
3477.0,0.012
3476.0,0.0121
3475.0,0.0121
3474.0,0.0121
3473.0,0.0121
3472.0,0.0121
3471.0,0.012
3470.0,0.012
3469.0,0.0121
3468.0,0.0121
3467.0,0.0121
3466.0,0.0121
3465.0,0.012
3464.0,0.012
3463.0,0.012
3462.0,0.012
3461.0,0.012
3460.0,0.0121
3459.0,0.0121
3458.0,0.0121
3457.0,0.012
3456.0,0.012
3455.0,0.0119
3454.0,0.0118
3453.0,0.0118
3452.0,0.0118
3451.0,0.0118
3450.0,0.0119
3449.0,0.0119
3448.0,0.0119
3447.0,0.0119
3446.0,0.0119
3445.0,0.0119
3444.0,0.0119
3443.0,0.012
3442.0,0.0121
3441.0,0.0121
3440.0,0.0121
3439.0,0.0121
3438.0,0.0121
3437.0,0.0121
3436.0,0.0121
3435.0,0.0121
3434.0,0.0121
3433.0,0.0122
3432.0,0.0122
3431.0,0.0123
3430.0,0.0124
3429.0,0.0125
3428.0,0.0125
3427.0,0.0125
3426.0,0.0125
3425.0,0.0125
3424.0,0.0124
3423.0,0.0124
3422.0,0.0124
3421.0,0.0123
3420.0,0.0123
3419.0,0.0124
3418.0,0.0125
3417.0,0.0126
3416.0,0.0126
3415.0,0.0126
3414.0,0.0126
3413.0,0.0126
3412.0,0.0126
3411.0,0.0127
3410.0,0.0128
3409.0,0.0129
3408.0,0.0129
3407.0,0.0129
3406.0,0.0129
3405.0,0.013
3404.0,0.0129
3403.0,0.0128
3402.0,0.0127
3401.0,0.0126
3400.0,0.0126
3399.0,0.0127
3398.0,0.0128
3397.0,0.0129
3396.0,0.0129
3395.0,0.0128
3394.0,0.0127
3393.0,0.0126
3392.0,0.0126
3391.0,0.0126
3390.0,0.0126
3389.0,0.0126
3388.0,0.0127
3387.0,0.0127
3386.0,0.0127
3385.0,0.0126
3384.0,0.0125
3383.0,0.0125
3382.0,0.0125
3381.0,0.0126
3380.0,0.0126
3379.0,0.0127
3378.0,0.0127
3377.0,0.0126
3376.0,0.0126
3375.0,0.0125
3374.0,0.0125
3373.0,0.0125
3372.0,0.0124
3371.0,0.0124
3370.0,0.0123
3369.0,0.0122
3368.0,0.0122
3367.0,0.0122
3366.0,0.0123
3365.0,0.0124
3364.0,0.0124
3363.0,0.0124
3362.0,0.0124
3361.0,0.0124
3360.0,0.0123
3359.0,0.0122
3358.0,0.0122
3357.0,0.0122
3356.0,0.0122
3355.0,0.0123
3354.0,0.0123
3353.0,0.0123
3352.0,0.0123
3351.0,0.0123
3350.0,0.0123
3349.0,0.0123
3348.0,0.0123
3347.0,0.0123
3346.0,0.0123
3345.0,0.0123
3344.0,0.0124
3343.0,0.0123
3342.0,0.0122
3341.0,0.0121
3340.0,0.0121
3339.0,0.0122
3338.0,0.0122
3337.0,0.0122
3336.0,0.0121
3335.0,0.012
3334.0,0.012
3333.0,0.012
3332.0,0.0121
3331.0,0.0121
3330.0,0.012
3329.0,0.012
3328.0,0.0119
3327.0,0.0119
3326.0,0.012
3325.0,0.012
3324.0,0.012
3323.0,0.012
3322.0,0.012
3321.0,0.012
3320.0,0.012
3319.0,0.012
3318.0,0.012
3317.0,0.012
3316.0,0.012
3315.0,0.012
3314.0,0.012
3313.0,0.0121
3312.0,0.012
3311.0,0.012
3310.0,0.0119
3309.0,0.0119
3308.0,0.0119
3307.0,0.012
3306.0,0.0121
3305.0,0.0121
3304.0,0.0121
3303.0,0.012
3302.0,0.012
3301.0,0.012
3300.0,0.012
3299.0,0.012
3298.0,0.0119
3297.0,0.0119
3296.0,0.0118
3295.0,0.0117
3294.0,0.0117
3293.0,0.0117
3292.0,0.0117
3291.0,0.0117
3290.0,0.0118
3289.0,0.0118
3288.0,0.0119
3287.0,0.012
3286.0,0.012
3285.0,0.012
3284.0,0.012
3283.0,0.0119
3282.0,0.0119
3281.0,0.0118
3280.0,0.0118
3279.0,0.0117
3278.0,0.0117
3277.0,0.0116
3276.0,0.0115
3275.0,0.0115
3274.0,0.0114
3273.0,0.0114
3272.0,0.0114
3271.0,0.0114
3270.0,0.0114
3269.0,0.0114
3268.0,0.0114
3267.0,0.0115
3266.0,0.0115
3265.0,0.0115
3264.0,0.0115
3263.0,0.0114
3262.0,0.0114
3261.0,0.0114
3260.0,0.0114
3259.0,0.0114
3258.0,0.0113
3257.0,0.0113
3256.0,0.0113
3255.0,0.0113
3254.0,0.0114
3253.0,0.0114
3252.0,0.0114
3251.0,0.0114
3250.0,0.0115
3249.0,0.0115
3248.0,0.0114
3247.0,0.0113
3246.0,0.0112
3245.0,0.0112
3244.0,0.0112
3243.0,0.0112
3242.0,0.0112
3241.0,0.0112
3240.0,0.0111
3239.0,0.0111
3238.0,0.011
3237.0,0.011
3236.0,0.011
3235.0,0.0111
3234.0,0.0113
3233.0,0.0113
3232.0,0.0113
3231.0,0.0112
3230.0,0.0111
3229.0,0.011
3228.0,0.011
3227.0,0.011
3226.0,0.0109
3225.0,0.0108
3224.0,0.0108
3223.0,0.0108
3222.0,0.0109
3221.0,0.0109
3220.0,0.011
3219.0,0.011
3218.0,0.011
3217.0,0.0109
3216.0,0.0109
3215.0,0.0108
3214.0,0.0108
3213.0,0.0108
3212.0,0.0109
3211.0,0.011
3210.0,0.0111
3209.0,0.0112
3208.0,0.0112
3207.0,0.0111
3206.0,0.011
3205.0,0.0109
3204.0,0.0108
3203.0,0.0108
3202.0,0.0107
3201.0,0.0107
3200.0,0.0107
3199.0,0.0107
3198.0,0.0107
3197.0,0.0108
3196.0,0.0108
3195.0,0.0108
3194.0,0.0108
3193.0,0.0108
3192.0,0.0108
3191.0,0.0108
3190.0,0.0108
3189.0,0.0108
3188.0,0.0108
3187.0,0.0107
3186.0,0.0107
3185.0,0.0106
3184.0,0.0106
3183.0,0.0106
3182.0,0.0105
3181.0,0.0104
3180.0,0.0104
3179.0,0.0103
3178.0,0.0103
3177.0,0.0103
3176.0,0.0102
3175.0,0.0102
3174.0,0.0102
3173.0,0.0103
3172.0,0.0103
3171.0,0.0102
3170.0,0.0102
3169.0,0.0101
3168.0,0.0101
3167.0,0.0101
3166.0,0.0101
3165.0,0.0102
3164.0,0.0102
3163.0,0.0102
3162.0,0.0102
3161.0,0.0101
3160.0,0.0101
3159.0,0.01
3158.0,0.0101
3157.0,0.0101
3156.0,0.0101
3155.0,0.01
3154.0,0.01
3153.0,0.0099
3152.0,0.0099
3151.0,0.0099
3150.0,0.01
3149.0,0.01
3148.0,0.01
3147.0,0.0099
3146.0,0.0099
3145.0,0.0098
3144.0,0.0098
3143.0,0.0098
3142.0,0.0097
3141.0,0.0097
3140.0,0.0096
3139.0,0.0096
3138.0,0.0096
3137.0,0.0096
3136.0,0.0096
3135.0,0.0096
3134.0,0.0095
3133.0,0.0095
3132.0,0.0096
3131.0,0.0096
3130.0,0.0096
3129.0,0.0095
3128.0,0.0095
3127.0,0.0095
3126.0,0.0095
3125.0,0.0095
3124.0,0.0094
3123.0,0.0094
3122.0,0.0093
3121.0,0.0092
3120.0,0.0092
3119.0,0.0091
3118.0,0.0091
3117.0,0.0091
3116.0,0.0091
3115.0,0.0091
3114.0,0.0091
3113.0,0.009
3112.0,0.009
3111.0,0.009
3110.0,0.0089
3109.0,0.0089
3108.0,0.0089
3107.0,0.0089
3106.0,0.0088
3105.0,0.0087
3104.0,0.0086
3103.0,0.0086
3102.0,0.0086
3101.0,0.0086
3100.0,0.0086
3099.0,0.0087
3098.0,0.0087
3097.0,0.0086
3096.0,0.0086
3095.0,0.0085
3094.0,0.0085
3093.0,0.0084
3092.0,0.0085
3091.0,0.0086
3090.0,0.0086
3089.0,0.0086
3088.0,0.0085
3087.0,0.0084
3086.0,0.0083
3085.0,0.0083
3084.0,0.0083
3083.0,0.0082
3082.0,0.0082
3081.0,0.0082
3080.0,0.0082
3079.0,0.0082
3078.0,0.0082
3077.0,0.0082
3076.0,0.0082
3075.0,0.0082
3074.0,0.0082
3073.0,0.0081
3072.0,0.008
3071.0,0.008
3070.0,0.008
3069.0,0.008
3068.0,0.0079
3067.0,0.0079
3066.0,0.0078
3065.0,0.0078
3064.0,0.0078
3063.0,0.0077
3062.0,0.0076
3061.0,0.0075
3060.0,0.0075
3059.0,0.0074
3058.0,0.0074
3057.0,0.0074
3056.0,0.0074
3055.0,0.0074
3054.0,0.0073
3053.0,0.0073
3052.0,0.0072
3051.0,0.0072
3050.0,0.0071
3049.0,0.0071
3048.0,0.0071
3047.0,0.007
3046.0,0.007
3045.0,0.0069
3044.0,0.0068
3043.0,0.0068
3042.0,0.0067
3041.0,0.0067
3040.0,0.0066
3039.0,0.0066
3038.0,0.0066
3037.0,0.0066
3036.0,0.0065
3035.0,0.0065
3034.0,0.0064
3033.0,0.0063
3032.0,0.0063
3031.0,0.0062
3030.0,0.0062
3029.0,0.0062
3028.0,0.0062
3027.0,0.0062
3026.0,0.0061
3025.0,0.0061
3024.0,0.006
3023.0,0.0059
3022.0,0.0058
3021.0,0.0056
3020.0,0.0054
3019.0,0.0053
3018.0,0.0052
3017.0,0.0051
3016.0,0.005
3015.0,0.0049
3014.0,0.0049
3013.0,0.0048
3012.0,0.0048
3011.0,0.0048
3010.0,0.0047
3009.0,0.0046
3008.0,0.0045
3007.0,0.0045
3006.0,0.0044
3005.0,0.0044
3004.0,0.0043
3003.0,0.0041
3002.0,0.004
3001.0,0.0039
3000.0,0.0038
2999.0,0.0038
2998.0,0.0038
2997.0,0.0038
2996.0,0.0038
2995.0,0.0037
2994.0,0.0037
2993.0,0.0037
2992.0,0.0037
2991.0,0.0037
2990.0,0.0037
2989.0,0.0038
2988.0,0.004
2987.0,0.0042
2986.0,0.0045
2985.0,0.0048
2984.0,0.0051
2983.0,0.0055
2982.0,0.0059
2981.0,0.0064
2980.0,0.0071
2979.0,0.0079
2978.0,0.0089
2977.0,0.0101
2976.0,0.0114
2975.0,0.013
2974.0,0.0148
2973.0,0.0168
2972.0,0.019
2971.0,0.0215
2970.0,0.0244
2969.0,0.0276
2968.0,0.0311
2967.0,0.0348
2966.0,0.0388
2965.0,0.043
2964.0,0.0471
2963.0,0.051
2962.0,0.0545
2961.0,0.0574
2960.0,0.0597
2959.0,0.0614
2958.0,0.0627
2957.0,0.0637
2956.0,0.0648
2955.0,0.066
2954.0,0.0675
2953.0,0.069
2952.0,0.0703
2951.0,0.0712
2950.0,0.0712
2949.0,0.0701
2948.0,0.0679
2947.0,0.0648
2946.0,0.0609
2945.0,0.0568
2944.0,0.0528
2943.0,0.0493
2942.0,0.0464
2941.0,0.0443
2940.0,0.043
2939.0,0.0423
2938.0,0.0423
2937.0,0.043
2936.0,0.0441
2935.0,0.0459
2934.0,0.0481
2933.0,0.0509
2932.0,0.0541
2931.0,0.0576
2930.0,0.0614
2929.0,0.0651
2928.0,0.0688
2927.0,0.0724
2926.0,0.0758
2925.0,0.0791
2924.0,0.0823
2923.0,0.0856
2922.0,0.0887
2921.0,0.0918
2920.0,0.0945
2919.0,0.0966
2918.0,0.0978
2917.0,0.098
2916.0,0.0971
2915.0,0.0953
2914.0,0.0929
2913.0,0.0903
2912.0,0.0877
2911.0,0.0853
2910.0,0.0831
2909.0,0.0813
2908.0,0.0796
2907.0,0.078
2906.0,0.0763
2905.0,0.0746
2904.0,0.0728
2903.0,0.071
2902.0,0.0691
2901.0,0.0672
2900.0,0.0653
2899.0,0.0634
2898.0,0.0616
2897.0,0.0599
2896.0,0.0583
2895.0,0.0569
2894.0,0.0557
2893.0,0.0546
2892.0,0.0536
2891.0,0.0529
2890.0,0.0522
2889.0,0.0518
2888.0,0.0514
2887.0,0.0512
2886.0,0.0512
2885.0,0.0513
2884.0,0.0516
2883.0,0.052
2882.0,0.0526
2881.0,0.0533
2880.0,0.0539
2879.0,0.0546
2878.0,0.055
2877.0,0.0551
2876.0,0.055
2875.0,0.0548
2874.0,0.0545
2873.0,0.0544
2872.0,0.0545
2871.0,0.0549
2870.0,0.0554
2869.0,0.0561
2868.0,0.0566
2867.0,0.0566
2866.0,0.056
2865.0,0.0547
2864.0,0.0527
2863.0,0.0505
2862.0,0.0483
2861.0,0.0463
2860.0,0.0447
2859.0,0.0436
2858.0,0.043
2857.0,0.043
2856.0,0.0434
2855.0,0.0443
2854.0,0.0454
2853.0,0.0466
2852.0,0.0477
2851.0,0.0485
2850.0,0.0489
2849.0,0.049
2848.0,0.0488
2847.0,0.0487
2846.0,0.049
2845.0,0.0498
2844.0,0.0511
2843.0,0.053
2842.0,0.0551
2841.0,0.0572
2840.0,0.0591
2839.0,0.0605
2838.0,0.0612
2837.0,0.061
2836.0,0.0596
2835.0,0.0574
2834.0,0.0545
2833.0,0.0513
2832.0,0.0481
2831.0,0.0451
2830.0,0.0425
2829.0,0.0403
2828.0,0.0385
2827.0,0.037
2826.0,0.0357
2825.0,0.0346
2824.0,0.0337
2823.0,0.0329
2822.0,0.0322
2821.0,0.0315
2820.0,0.0309
2819.0,0.0304
2818.0,0.0299
2817.0,0.0296
2816.0,0.0292
2815.0,0.0289
2814.0,0.0285
2813.0,0.0282
2812.0,0.0279
2811.0,0.0276
2810.0,0.0273
2809.0,0.0271
2808.0,0.0268
2807.0,0.0265
2806.0,0.0262
2805.0,0.0259
2804.0,0.0255
2803.0,0.0252
2802.0,0.025
2801.0,0.0247
2800.0,0.0245
2799.0,0.0243
2798.0,0.0242
2797.0,0.024
2796.0,0.0238
2795.0,0.0236
2794.0,0.0234
2793.0,0.0233
2792.0,0.0232
2791.0,0.0231
2790.0,0.023
2789.0,0.0228
2788.0,0.0225
2787.0,0.0223
2786.0,0.022
2785.0,0.0218
2784.0,0.0217
2783.0,0.0215
2782.0,0.0214
2781.0,0.0212
2780.0,0.0211
2779.0,0.021
2778.0,0.0209
2777.0,0.0208
2776.0,0.0207
2775.0,0.0206
2774.0,0.0205
2773.0,0.0205
2772.0,0.0204
2771.0,0.0202
2770.0,0.0201
2769.0,0.02
2768.0,0.02
2767.0,0.0199
2766.0,0.0199
2765.0,0.0199
2764.0,0.0198
2763.0,0.0197
2762.0,0.0197
2761.0,0.0196
2760.0,0.0196
2759.0,0.0195
2758.0,0.0194
2757.0,0.0193
2756.0,0.0192
2755.0,0.0191
2754.0,0.019
2753.0,0.019
2752.0,0.019
2751.0,0.0191
2750.0,0.0191
2749.0,0.019
2748.0,0.019
2747.0,0.0189
2746.0,0.0188
2745.0,0.0187
2744.0,0.0187
2743.0,0.0187
2742.0,0.0187
2741.0,0.0187
2740.0,0.0188
2739.0,0.0188
2738.0,0.0188
2737.0,0.0188
2736.0,0.0187
2735.0,0.0187
2734.0,0.0187
2733.0,0.0187
2732.0,0.0187
2731.0,0.0188
2730.0,0.0189
2729.0,0.0191
2728.0,0.0192
2727.0,0.0193
2726.0,0.0195
2725.0,0.0195
2724.0,0.0196
2723.0,0.0195
2722.0,0.0195
2721.0,0.0194
2720.0,0.0193
2719.0,0.0192
2718.0,0.0191
2717.0,0.019
2716.0,0.0189
2715.0,0.0188
2714.0,0.0187
2713.0,0.0186
2712.0,0.0186
2711.0,0.0185
2710.0,0.0184
2709.0,0.0183
2708.0,0.0181
2707.0,0.018
2706.0,0.0179
2705.0,0.0179
2704.0,0.0179
2703.0,0.0178
2702.0,0.0178
2701.0,0.0178
2700.0,0.0177
2699.0,0.0177
2698.0,0.0176
2697.0,0.0176
2696.0,0.0175
2695.0,0.0175
2694.0,0.0175
2693.0,0.0175
2692.0,0.0175
2691.0,0.0176
2690.0,0.0175
2689.0,0.0175
2688.0,0.0174
2687.0,0.0173
2686.0,0.0173
2685.0,0.0173
2684.0,0.0173
2683.0,0.0173
2682.0,0.0172
2681.0,0.0172
2680.0,0.0173
2679.0,0.0173
2678.0,0.0174
2677.0,0.0174
2676.0,0.0174
2675.0,0.0173
2674.0,0.0172
2673.0,0.0171
2672.0,0.017
2671.0,0.017
2670.0,0.017
2669.0,0.017
2668.0,0.017
2667.0,0.017
2666.0,0.017
2665.0,0.017
2664.0,0.0169
2663.0,0.017
2662.0,0.0171
2661.0,0.0171
2660.0,0.0171
2659.0,0.0171
2658.0,0.017
2657.0,0.0169
2656.0,0.0169
2655.0,0.0169
2654.0,0.0169
2653.0,0.0169
2652.0,0.0168
2651.0,0.0168
2650.0,0.0167
2649.0,0.0167
2648.0,0.0167
2647.0,0.0167
2646.0,0.0167
2645.0,0.0167
2644.0,0.0167
2643.0,0.0167
2642.0,0.0167
2641.0,0.0166
2640.0,0.0166
2639.0,0.0165
2638.0,0.0164
2637.0,0.0164
2636.0,0.0163
2635.0,0.0163
2634.0,0.0164
2633.0,0.0165
2632.0,0.0165
2631.0,0.0165
2630.0,0.0165
2629.0,0.0164
2628.0,0.0163
2627.0,0.0163
2626.0,0.0162
2625.0,0.0163
2624.0,0.0163
2623.0,0.0163
2622.0,0.0164
2621.0,0.0164
2620.0,0.0163
2619.0,0.0163
2618.0,0.0163
2617.0,0.0163
2616.0,0.0163
2615.0,0.0163
2614.0,0.0163
2613.0,0.0162
2612.0,0.0162
2611.0,0.0161
2610.0,0.016
2609.0,0.016
2608.0,0.0159
2607.0,0.0159
2606.0,0.0159
2605.0,0.016
2604.0,0.016
2603.0,0.016
2602.0,0.0159
2601.0,0.0159
2600.0,0.0159
2599.0,0.0159
2598.0,0.0159
2597.0,0.0159
2596.0,0.0159
2595.0,0.0159
2594.0,0.0159
2593.0,0.0159
2592.0,0.0159
2591.0,0.016
2590.0,0.016
2589.0,0.016
2588.0,0.016
2587.0,0.0159
2586.0,0.0159
2585.0,0.0159
2584.0,0.0159
2583.0,0.0159
2582.0,0.016
2581.0,0.016
2580.0,0.016
2579.0,0.016
2578.0,0.0159
2577.0,0.0159
2576.0,0.0159
2575.0,0.016
2574.0,0.016
2573.0,0.0159
2572.0,0.0159
2571.0,0.0158
2570.0,0.0158
2569.0,0.0157
2568.0,0.0157
2567.0,0.0157
2566.0,0.0157
2565.0,0.0156
2564.0,0.0156
2563.0,0.0156
2562.0,0.0156
2561.0,0.0155
2560.0,0.0155
2559.0,0.0155
2558.0,0.0155
2557.0,0.0155
2556.0,0.0154
2555.0,0.0154
2554.0,0.0154
2553.0,0.0154
2552.0,0.0154
2551.0,0.0155
2550.0,0.0154
2549.0,0.0154
2548.0,0.0154
2547.0,0.0154
2546.0,0.0153
2545.0,0.0153
2544.0,0.0152
2543.0,0.0152
2542.0,0.0153
2541.0,0.0153
2540.0,0.0153
2539.0,0.0153
2538.0,0.0153
2537.0,0.0153
2536.0,0.0152
2535.0,0.0152
2534.0,0.0151
2533.0,0.0151
2532.0,0.0151
2531.0,0.0151
2530.0,0.0151
2529.0,0.0151
2528.0,0.015
2527.0,0.0149
2526.0,0.0149
2525.0,0.0148
2524.0,0.0148
2523.0,0.0149
2522.0,0.0149
2521.0,0.0149
2520.0,0.0148
2519.0,0.0148
2518.0,0.0148
2517.0,0.0148
2516.0,0.0148
2515.0,0.0147
2514.0,0.0147
2513.0,0.0147
2512.0,0.0147
2511.0,0.0147
2510.0,0.0147
2509.0,0.0147
2508.0,0.0147
2507.0,0.0147
2506.0,0.0146
2505.0,0.0146
2504.0,0.0146
2503.0,0.0146
2502.0,0.0146
2501.0,0.0147
2500.0,0.0147
2499.0,0.0147
2498.0,0.0147
2497.0,0.0148
2496.0,0.0148
2495.0,0.0148
2494.0,0.0147
2493.0,0.0147
2492.0,0.0147
2491.0,0.0147
2490.0,0.0147
2489.0,0.0147
2488.0,0.0146
2487.0,0.0146
2486.0,0.0146
2485.0,0.0146
2484.0,0.0146
2483.0,0.0146
2482.0,0.0146
2481.0,0.0146
2480.0,0.0147
2479.0,0.0147
2478.0,0.0146
2477.0,0.0146
2476.0,0.0145
2475.0,0.0145
2474.0,0.0145
2473.0,0.0145
2472.0,0.0145
2471.0,0.0145
2470.0,0.0145
2469.0,0.0144
2468.0,0.0144
2467.0,0.0145
2466.0,0.0145
2465.0,0.0146
2464.0,0.0146
2463.0,0.0146
2462.0,0.0145
2461.0,0.0145
2460.0,0.0145
2459.0,0.0145
2458.0,0.0146
2457.0,0.0146
2456.0,0.0146
2455.0,0.0146
2454.0,0.0146
2453.0,0.0146
2452.0,0.0146
2451.0,0.0146
2450.0,0.0145
2449.0,0.0145
2448.0,0.0144
2447.0,0.0144
2446.0,0.0144
2445.0,0.0144
2444.0,0.0144
2443.0,0.0144
2442.0,0.0144
2441.0,0.0144
2440.0,0.0144
2439.0,0.0144
2438.0,0.0144
2437.0,0.0145
2436.0,0.0145
2435.0,0.0144
2434.0,0.0144
2433.0,0.0144
2432.0,0.0144
2431.0,0.0144
2430.0,0.0145
2429.0,0.0145
2428.0,0.0145
2427.0,0.0145
2426.0,0.0145
2425.0,0.0145
2424.0,0.0145
2423.0,0.0145
2422.0,0.0145
2421.0,0.0145
2420.0,0.0145
2419.0,0.0145
2418.0,0.0145
2417.0,0.0145
2416.0,0.0145
2415.0,0.0145
2414.0,0.0144
2413.0,0.0144
2412.0,0.0143
2411.0,0.0143
2410.0,0.0143
2409.0,0.0144
2408.0,0.0144
2407.0,0.0144
2406.0,0.0144
2405.0,0.0144
2404.0,0.0144
2403.0,0.0144
2402.0,0.0144
2401.0,0.0144
2400.0,0.0145
2399.0,0.0145
2398.0,0.0145
2397.0,0.0145
2396.0,0.0145
2395.0,0.0145
2394.0,0.0145
2393.0,0.0144
2392.0,0.0144
2391.0,0.0144
2390.0,0.0144
2389.0,0.0144
2388.0,0.0143
2387.0,0.0141
2386.0,0.014
2385.0,0.0138
2384.0,0.0137
2383.0,0.0135
2382.0,0.0134
2381.0,0.0132
2380.0,0.013
2379.0,0.0128
2378.0,0.0128
2377.0,0.0128
2376.0,0.0129
2375.0,0.0129
2374.0,0.013
2373.0,0.0131
2372.0,0.013
2371.0,0.0128
2370.0,0.0128
2369.0,0.0138
2368.0,0.0156
2367.0,0.0173
2366.0,0.0181
2365.0,0.0176
2364.0,0.0158
2363.0,0.0132
2362.0,0.0113
2361.0,0.0112
2360.0,0.0125
2359.0,0.0133
2358.0,0.0131
2357.0,0.0127
2356.0,0.0128
2355.0,0.013
2354.0,0.0133
2353.0,0.0138
2352.0,0.0144
2351.0,0.0147
2350.0,0.0146
2349.0,0.0141
2348.0,0.0134
2347.0,0.0126
2346.0,0.0122
2345.0,0.0122
2344.0,0.0124
2343.0,0.0124
2342.0,0.0122
2341.0,0.0118
2340.0,0.0113
2339.0,0.0107
2338.0,0.0105
2337.0,0.0107
2336.0,0.011
2335.0,0.011
2334.0,0.0108
2333.0,0.0109
2332.0,0.0114
2331.0,0.0119
2330.0,0.0124
2329.0,0.0127
2328.0,0.0128
2327.0,0.0128
2326.0,0.0124
2325.0,0.012
2324.0,0.0117
2323.0,0.0117
2322.0,0.0119
2321.0,0.0123
2320.0,0.0126
2319.0,0.0126
2318.0,0.0125
2317.0,0.0124
2316.0,0.0124
2315.0,0.0125
2314.0,0.0126
2313.0,0.0128
2312.0,0.013
2311.0,0.0132
2310.0,0.0133
2309.0,0.0133
2308.0,0.0133
2307.0,0.0132
2306.0,0.0132
2305.0,0.0132
2304.0,0.0133
2303.0,0.0134
2302.0,0.0135
2301.0,0.0136
2300.0,0.0137
2299.0,0.0138
2298.0,0.0138
2297.0,0.0139
2296.0,0.0139
2295.0,0.014
2294.0,0.014
2293.0,0.0141
2292.0,0.0142
2291.0,0.0143
2290.0,0.0144
2289.0,0.0144
2288.0,0.0144
2287.0,0.0144
2286.0,0.0144
2285.0,0.0144
2284.0,0.0143
2283.0,0.0142
2282.0,0.0141
2281.0,0.014
2280.0,0.0141
2279.0,0.0141
2278.0,0.0142
2277.0,0.0142
2276.0,0.0142
2275.0,0.0143
2274.0,0.0143
2273.0,0.0143
2272.0,0.0143
2271.0,0.0144
2270.0,0.0144
2269.0,0.0145
2268.0,0.0145
2267.0,0.0144
2266.0,0.0144
2265.0,0.0143
2264.0,0.0143
2263.0,0.0143
2262.0,0.0143
2261.0,0.0143
2260.0,0.0143
2259.0,0.0144
2258.0,0.0144
2257.0,0.0144
2256.0,0.0145
2255.0,0.0144
2254.0,0.0144
2253.0,0.0144
2252.0,0.0144
2251.0,0.0144
2250.0,0.0144
2249.0,0.0144
2248.0,0.0144
2247.0,0.0144
2246.0,0.0143
2245.0,0.0143
2244.0,0.0143
2243.0,0.0143
2242.0,0.0144
2241.0,0.0144
2240.0,0.0143
2239.0,0.0143
2238.0,0.0143
2237.0,0.0143
2236.0,0.0143
2235.0,0.0143
2234.0,0.0144
2233.0,0.0144
2232.0,0.0144
2231.0,0.0144
2230.0,0.0145
2229.0,0.0145
2228.0,0.0145
2227.0,0.0144
2226.0,0.0144
2225.0,0.0144
2224.0,0.0143
2223.0,0.0143
2222.0,0.0143
2221.0,0.0142
2220.0,0.0141
2219.0,0.0141
2218.0,0.0141
2217.0,0.0142
2216.0,0.0142
2215.0,0.0142
2214.0,0.0142
2213.0,0.0142
2212.0,0.0143
2211.0,0.0142
2210.0,0.0143
2209.0,0.0143
2208.0,0.0143
2207.0,0.0144
2206.0,0.0144
2205.0,0.0144
2204.0,0.0144
2203.0,0.0144
2202.0,0.0144
2201.0,0.0144
2200.0,0.0144
2199.0,0.0144
2198.0,0.0144
2197.0,0.0144
2196.0,0.0144
2195.0,0.0144
2194.0,0.0144
2193.0,0.0144
2192.0,0.0144
2191.0,0.0143
2190.0,0.0143
2189.0,0.0143
2188.0,0.0144
2187.0,0.0144
2186.0,0.0144
2185.0,0.0144
2184.0,0.0144
2183.0,0.0144
2182.0,0.0144
2181.0,0.0144
2180.0,0.0144
2179.0,0.0144
2178.0,0.0144
2177.0,0.0144
2176.0,0.0144
2175.0,0.0144
2174.0,0.0144
2173.0,0.0144
2172.0,0.0144
2171.0,0.0144
2170.0,0.0145
2169.0,0.0145
2168.0,0.0145
2167.0,0.0145
2166.0,0.0145
2165.0,0.0145
2164.0,0.0144
2163.0,0.0144
2162.0,0.0144
2161.0,0.0144
2160.0,0.0144
2159.0,0.0143
2158.0,0.0143
2157.0,0.0143
2156.0,0.0143
2155.0,0.0144
2154.0,0.0144
2153.0,0.0144
2152.0,0.0144
2151.0,0.0143
2150.0,0.0143
2149.0,0.0143
2148.0,0.0143
2147.0,0.0144
2146.0,0.0144
2145.0,0.0144
2144.0,0.0143
2143.0,0.0143
2142.0,0.0143
2141.0,0.0144
2140.0,0.0144
2139.0,0.0144
2138.0,0.0144
2137.0,0.0144
2136.0,0.0144
2135.0,0.0144
2134.0,0.0144
2133.0,0.0145
2132.0,0.0145
2131.0,0.0145
2130.0,0.0144
2129.0,0.0144
2128.0,0.0143
2127.0,0.0143
2126.0,0.0143
2125.0,0.0143
2124.0,0.0144
2123.0,0.0144
2122.0,0.0144
2121.0,0.0144
2120.0,0.0144
2119.0,0.0144
2118.0,0.0144
2117.0,0.0143
2116.0,0.0143
2115.0,0.0142
2114.0,0.0142
2113.0,0.0142
2112.0,0.0143
2111.0,0.0143
2110.0,0.0143
2109.0,0.0144
2108.0,0.0144
2107.0,0.0144
2106.0,0.0143
2105.0,0.0143
2104.0,0.0143
2103.0,0.0143
2102.0,0.0143
2101.0,0.0143
2100.0,0.0142
2099.0,0.0142
2098.0,0.0143
2097.0,0.0143
2096.0,0.0143
2095.0,0.0142
2094.0,0.0142
2093.0,0.0142
2092.0,0.0142
2091.0,0.0142
2090.0,0.0142
2089.0,0.0142
2088.0,0.0142
2087.0,0.0142
2086.0,0.0142
2085.0,0.0142
2084.0,0.0142
2083.0,0.0142
2082.0,0.0142
2081.0,0.0142
2080.0,0.0143
2079.0,0.0143
2078.0,0.0144
2077.0,0.0143
2076.0,0.0143
2075.0,0.0143
2074.0,0.0142
2073.0,0.0142
2072.0,0.0142
2071.0,0.0142
2070.0,0.0142
2069.0,0.0142
2068.0,0.0141
2067.0,0.0141
2066.0,0.0142
2065.0,0.0142
2064.0,0.0142
2063.0,0.0142
2062.0,0.0142
2061.0,0.0142
2060.0,0.0142
2059.0,0.0142
2058.0,0.0143
2057.0,0.0143
2056.0,0.0143
2055.0,0.0143
2054.0,0.0142
2053.0,0.0143
2052.0,0.0143
2051.0,0.0143
2050.0,0.0143
2049.0,0.0142
2048.0,0.0142
2047.0,0.0142
2046.0,0.0142
2045.0,0.0142
2044.0,0.0142
2043.0,0.0142
2042.0,0.0142
2041.0,0.0142
2040.0,0.0142
2039.0,0.0142
2038.0,0.0142
2037.0,0.0142
2036.0,0.0142
2035.0,0.0142
2034.0,0.0142
2033.0,0.0143
2032.0,0.0143
2031.0,0.0142
2030.0,0.0142
2029.0,0.0141
2028.0,0.0141
2027.0,0.0142
2026.0,0.0142
2025.0,0.0143
2024.0,0.0143
2023.0,0.0143
2022.0,0.0143
2021.0,0.0143
2020.0,0.0143
2019.0,0.0143
2018.0,0.0142
2017.0,0.0141
2016.0,0.0141
2015.0,0.0141
2014.0,0.0142
2013.0,0.0142
2012.0,0.0142
2011.0,0.0142
2010.0,0.0142
2009.0,0.0142
2008.0,0.0143
2007.0,0.0143
2006.0,0.0143
2005.0,0.0143
2004.0,0.0143
2003.0,0.0143
2002.0,0.0142
2001.0,0.0142
2000.0,0.0142
1999.0,0.0142
1998.0,0.0142
1997.0,0.0142
1996.0,0.0142
1995.0,0.0142
1994.0,0.0142
1993.0,0.0141
1992.0,0.0141
1991.0,0.0141
1990.0,0.0141
1989.0,0.0141
1988.0,0.0142
1987.0,0.0142
1986.0,0.0142
1985.0,0.0142
1984.0,0.0142
1983.0,0.0142
1982.0,0.0142
1981.0,0.0142
1980.0,0.0142
1979.0,0.0142
1978.0,0.0142
1977.0,0.0142
1976.0,0.0142
1975.0,0.0142
1974.0,0.0142
1973.0,0.0142
1972.0,0.0142
1971.0,0.0143
1970.0,0.0143
1969.0,0.0143
1968.0,0.0142
1967.0,0.0142
1966.0,0.0142
1965.0,0.0142
1964.0,0.0141
1963.0,0.0141
1962.0,0.0141
1961.0,0.0141
1960.0,0.0141
1959.0,0.0141
1958.0,0.0141
1957.0,0.0142
1956.0,0.0142
1955.0,0.0142
1954.0,0.0142
1953.0,0.0142
1952.0,0.0142
1951.0,0.0142
1950.0,0.0142
1949.0,0.0142
1948.0,0.0141
1947.0,0.0141
1946.0,0.0141
1945.0,0.0141
1944.0,0.0141
1943.0,0.0142
1942.0,0.0142
1941.0,0.0142
1940.0,0.0142
1939.0,0.0142
1938.0,0.0142
1937.0,0.0141
1936.0,0.0141
1935.0,0.0141
1934.0,0.0141
1933.0,0.0141
1932.0,0.0141
1931.0,0.0142
1930.0,0.0142
1929.0,0.0143
1928.0,0.0143
1927.0,0.0143
1926.0,0.0142
1925.0,0.0142
1924.0,0.0142
1923.0,0.0142
1922.0,0.0142
1921.0,0.0142
1920.0,0.0142
1919.0,0.0142
1918.0,0.0142
1917.0,0.0142
1916.0,0.0142
1915.0,0.0142
1914.0,0.0142
1913.0,0.0142
1912.0,0.0142
1911.0,0.0141
1910.0,0.0141
1909.0,0.0141
1908.0,0.0141
1907.0,0.0141
1906.0,0.0141
1905.0,0.0141
1904.0,0.0141
1903.0,0.0141
1902.0,0.0141
1901.0,0.0141
1900.0,0.0141
1899.0,0.0141
1898.0,0.0141
1897.0,0.0141
1896.0,0.0141
1895.0,0.0141
1894.0,0.0141
1893.0,0.0142
1892.0,0.0142
1891.0,0.0142
1890.0,0.0142
1889.0,0.0142
1888.0,0.0142
1887.0,0.0142
1886.0,0.0142
1885.0,0.0143
1884.0,0.0143
1883.0,0.0142
1882.0,0.0142
1881.0,0.0142
1880.0,0.0142
1879.0,0.0142
1878.0,0.0141
1877.0,0.0141
1876.0,0.0141
1875.0,0.0141
1874.0,0.0141
1873.0,0.0141
1872.0,0.0141
1871.0,0.0141
1870.0,0.0141
1869.0,0.0141
1868.0,0.0141
1867.0,0.0141
1866.0,0.0142
1865.0,0.0142
1864.0,0.0142
1863.0,0.0142
1862.0,0.0142
1861.0,0.0142
1860.0,0.0142
1859.0,0.0141
1858.0,0.0141
1857.0,0.0142
1856.0,0.0142
1855.0,0.0142
1854.0,0.0142
1853.0,0.0142
1852.0,0.0142
1851.0,0.0142
1850.0,0.0142
1849.0,0.0141
1848.0,0.0141
1847.0,0.0141
1846.0,0.0142
1845.0,0.0142
1844.0,0.0143
1843.0,0.0142
1842.0,0.0142
1841.0,0.0142
1840.0,0.0143
1839.0,0.0142
1838.0,0.0142
1837.0,0.0142
1836.0,0.0142
1835.0,0.0142
1834.0,0.0142
1833.0,0.0141
1832.0,0.0141
1831.0,0.0142
1830.0,0.0142
1829.0,0.0142
1828.0,0.0142
1827.0,0.0142
1826.0,0.0142
1825.0,0.0142
1824.0,0.0142
1823.0,0.0142
1822.0,0.0141
1821.0,0.0141
1820.0,0.0141
1819.0,0.0141
1818.0,0.0141
1817.0,0.0141
1816.0,0.0141
1815.0,0.0141
1814.0,0.0141
1813.0,0.0141
1812.0,0.0141
1811.0,0.0141
1810.0,0.014
1809.0,0.014
1808.0,0.0141
1807.0,0.0141
1806.0,0.0141
1805.0,0.0142
1804.0,0.0142
1803.0,0.0141
1802.0,0.0141
1801.0,0.0141
1800.0,0.0141
1799.0,0.0141
1798.0,0.0141
1797.0,0.0141
1796.0,0.0141
1795.0,0.0141
1794.0,0.0141
1793.0,0.0141
1792.0,0.0142
1791.0,0.0142
1790.0,0.0142
1789.0,0.0142
1788.0,0.0142
1787.0,0.0142
1786.0,0.0142
1785.0,0.0142
1784.0,0.0143
1783.0,0.0143
1782.0,0.0142
1781.0,0.0142
1780.0,0.0142
1779.0,0.0142
1778.0,0.0142
1777.0,0.0142
1776.0,0.0142
1775.0,0.0142
1774.0,0.0142
1773.0,0.0142
1772.0,0.0142
1771.0,0.0142
1770.0,0.0142
1769.0,0.0143
1768.0,0.0144
1767.0,0.0144
1766.0,0.0143
1765.0,0.0143
1764.0,0.0144
1763.0,0.0144
1762.0,0.0144
1761.0,0.0144
1760.0,0.0145
1759.0,0.0147
1758.0,0.0148
1757.0,0.0149
1756.0,0.015
1755.0,0.0151
1754.0,0.0153
1753.0,0.0154
1752.0,0.0156
1751.0,0.0159
1750.0,0.016
1749.0,0.0162
1748.0,0.0165
1747.0,0.0167
1746.0,0.0168
1745.0,0.0169
1744.0,0.0171
1743.0,0.0172
1742.0,0.0174
1741.0,0.0175
1740.0,0.0176
1739.0,0.0176
1738.0,0.0175
1737.0,0.0175
1736.0,0.0175
1735.0,0.0174
1734.0,0.0173
1733.0,0.0171
1732.0,0.017
1731.0,0.0169
1730.0,0.0169
1729.0,0.0168
1728.0,0.0168
1727.0,0.0167
1726.0,0.0167
1725.0,0.0167
1724.0,0.0167
1723.0,0.0166
1722.0,0.0165
1721.0,0.0165
1720.0,0.0164
1719.0,0.0163
1718.0,0.0163
1717.0,0.0164
1716.0,0.0165
1715.0,0.0166
1714.0,0.0167
1713.0,0.0167
1712.0,0.0167
1711.0,0.0166
1710.0,0.0166
1709.0,0.0165
1708.0,0.0165
1707.0,0.0164
1706.0,0.0163
1705.0,0.0162
1704.0,0.0162
1703.0,0.0164
1702.0,0.0165
1701.0,0.0166
1700.0,0.0165
1699.0,0.0164
1698.0,0.0163
1697.0,0.0164
1696.0,0.0166
1695.0,0.0166
1694.0,0.0166
1693.0,0.0166
1692.0,0.0166
1691.0,0.0166
1690.0,0.0166
1689.0,0.0167
1688.0,0.0169
1687.0,0.017
1686.0,0.0171
1685.0,0.0171
1684.0,0.0172
1683.0,0.0171
1682.0,0.0171
1681.0,0.0171
1680.0,0.0172
1679.0,0.0172
1678.0,0.0172
1677.0,0.0172
1676.0,0.0172
1675.0,0.0172
1674.0,0.0171
1673.0,0.0171
1672.0,0.0171
1671.0,0.017
1670.0,0.017
1669.0,0.0171
1668.0,0.0171
1667.0,0.0172
1666.0,0.0172
1665.0,0.0172
1664.0,0.0173
1663.0,0.0173
1662.0,0.0174
1661.0,0.0174
1660.0,0.0174
1659.0,0.0175
1658.0,0.0174
1657.0,0.0174
1656.0,0.0174
1655.0,0.0173
1654.0,0.0174
1653.0,0.0176
1652.0,0.0175
1651.0,0.0174
1650.0,0.0174
1649.0,0.0174
1648.0,0.0175
1647.0,0.0176
1646.0,0.0177
1645.0,0.0177
1644.0,0.0177
1643.0,0.0177
1642.0,0.0177
1641.0,0.0176
1640.0,0.0176
1639.0,0.0175
1638.0,0.0175
1637.0,0.0174
1636.0,0.0174
1635.0,0.0174
1634.0,0.0173
1633.0,0.0173
1632.0,0.0173
1631.0,0.0173
1630.0,0.0172
1629.0,0.0172
1628.0,0.0171
1627.0,0.0171
1626.0,0.017
1625.0,0.017
1624.0,0.017
1623.0,0.0171
1622.0,0.0171
1621.0,0.017
1620.0,0.017
1619.0,0.017
1618.0,0.0168
1617.0,0.0167
1616.0,0.0165
1615.0,0.0164
1614.0,0.0164
1613.0,0.0165
1612.0,0.0164
1611.0,0.0164
1610.0,0.0164
1609.0,0.0163
1608.0,0.0163
1607.0,0.0163
1606.0,0.0163
1605.0,0.0163
1604.0,0.0163
1603.0,0.0164
1602.0,0.0164
1601.0,0.0164
1600.0,0.0163
1599.0,0.0162
1598.0,0.0161
1597.0,0.016
1596.0,0.0159
1595.0,0.0159
1594.0,0.0158
1593.0,0.0158
1592.0,0.0158
1591.0,0.0158
1590.0,0.0157
1589.0,0.0157
1588.0,0.0156
1587.0,0.0156
1586.0,0.0155
1585.0,0.0155
1584.0,0.0155
1583.0,0.0155
1582.0,0.0155
1581.0,0.0155
1580.0,0.0155
1579.0,0.0155
1578.0,0.0155
1577.0,0.0155
1576.0,0.0154
1575.0,0.0153
1574.0,0.0153
1573.0,0.0153
1572.0,0.0154
1571.0,0.0153
1570.0,0.0153
1569.0,0.0153
1568.0,0.0153
1567.0,0.0154
1566.0,0.0154
1565.0,0.0153
1564.0,0.0153
1563.0,0.0153
1562.0,0.0154
1561.0,0.0153
1560.0,0.0151
1559.0,0.0153
1558.0,0.0153
1557.0,0.0154
1556.0,0.0155
1555.0,0.0155
1554.0,0.0155
1553.0,0.0154
1552.0,0.0154
1551.0,0.0154
1550.0,0.0155
1549.0,0.0155
1548.0,0.0155
1547.0,0.0154
1546.0,0.0154
1545.0,0.0154
1544.0,0.0154
1543.0,0.0155
1542.0,0.0155
1541.0,0.0155
1540.0,0.0155
1539.0,0.0153
1538.0,0.0151
1537.0,0.0151
1536.0,0.0151
1535.0,0.015
1534.0,0.0149
1533.0,0.0148
1532.0,0.0148
1531.0,0.0147
1530.0,0.0147
1529.0,0.0147
1528.0,0.0147
1527.0,0.0146
1526.0,0.0145
1525.0,0.0144
1524.0,0.0143
1523.0,0.0142
1522.0,0.0142
1521.0,0.0142
1520.0,0.0142
1519.0,0.0142
1518.0,0.0141
1517.0,0.014
1516.0,0.014
1515.0,0.014
1514.0,0.014
1513.0,0.014
1512.0,0.014
1511.0,0.0139
1510.0,0.0137
1509.0,0.0136
1508.0,0.0135
1507.0,0.0136
1506.0,0.0137
1505.0,0.0136
1504.0,0.0136
1503.0,0.0135
1502.0,0.0134
1501.0,0.0134
1500.0,0.0135
1499.0,0.0136
1498.0,0.0137
1497.0,0.0139
1496.0,0.0143
1495.0,0.0145
1494.0,0.0145
1493.0,0.0146
1492.0,0.0145
1491.0,0.0142
1490.0,0.0138
1489.0,0.0136
1488.0,0.0136
1487.0,0.0136
1486.0,0.0136
1485.0,0.0137
1484.0,0.0138
1483.0,0.0139
1482.0,0.014
1481.0,0.0142
1480.0,0.0145
1479.0,0.0149
1478.0,0.0153
1477.0,0.0162
1476.0,0.0175
1475.0,0.019
1474.0,0.0212
1473.0,0.0243
1472.0,0.0276
1471.0,0.0301
1470.0,0.0324
1469.0,0.035
1468.0,0.0379
1467.0,0.0413
1466.0,0.0455
1465.0,0.0506
1464.0,0.0551
1463.0,0.058
1462.0,0.0598
1461.0,0.061
1460.0,0.0618
1459.0,0.0625
1458.0,0.0637
1457.0,0.0654
1456.0,0.0666
1455.0,0.0669
1454.0,0.067
1453.0,0.0669
1452.0,0.0664
1451.0,0.0654
1450.0,0.0638
1449.0,0.0614
1448.0,0.0581
1447.0,0.0545
1446.0,0.0512
1445.0,0.0482
1444.0,0.0456
1443.0,0.0432
1442.0,0.0414
1441.0,0.04
1440.0,0.0391
1439.0,0.0385
1438.0,0.0384
1437.0,0.0385
1436.0,0.0382
1435.0,0.0372
1434.0,0.0358
1433.0,0.034
1432.0,0.032
1431.0,0.0301
1430.0,0.0285
1429.0,0.0273
1428.0,0.0264
1427.0,0.0257
1426.0,0.0251
1425.0,0.0246
1424.0,0.0242
1423.0,0.0239
1422.0,0.0237
1421.0,0.0234
1420.0,0.023
1419.0,0.0226
1418.0,0.0223
1417.0,0.022
1416.0,0.0218
1415.0,0.0216
1414.0,0.0214
1413.0,0.0211
1412.0,0.0209
1411.0,0.0207
1410.0,0.0206
1409.0,0.0204
1408.0,0.0201
1407.0,0.0199
1406.0,0.0197
1405.0,0.0195
1404.0,0.0193
1403.0,0.0192
1402.0,0.0191
1401.0,0.0189
1400.0,0.0187
1399.0,0.0186
1398.0,0.0185
1397.0,0.0183
1396.0,0.0181
1395.0,0.0179
1394.0,0.0178
1393.0,0.0178
1392.0,0.0177
1391.0,0.0178
1390.0,0.018
1389.0,0.0182
1388.0,0.0186
1387.0,0.0196
1386.0,0.021
1385.0,0.0231
1384.0,0.0263
1383.0,0.0312
1382.0,0.038
1381.0,0.047
1380.0,0.0581
1379.0,0.0704
1378.0,0.0816
1377.0,0.0895
1376.0,0.0923
1375.0,0.0892
1374.0,0.0811
1373.0,0.0718
1372.0,0.0635
1371.0,0.0565
1370.0,0.0506
1369.0,0.0456
1368.0,0.0419
1367.0,0.0395
1366.0,0.0378
1365.0,0.0369
1364.0,0.0365
1363.0,0.0367
1362.0,0.0374
1361.0,0.0382
1360.0,0.0389
1359.0,0.0391
1358.0,0.0389
1357.0,0.0381
1356.0,0.0369
1355.0,0.0355
1354.0,0.034
1353.0,0.0326
1352.0,0.0315
1351.0,0.0305
1350.0,0.0296
1349.0,0.0289
1348.0,0.0283
1347.0,0.0278
1346.0,0.0273
1345.0,0.0268
1344.0,0.0264
1343.0,0.026
1342.0,0.0256
1341.0,0.0254
1340.0,0.0252
1339.0,0.0251
1338.0,0.025
1337.0,0.0248
1336.0,0.0248
1335.0,0.0247
1334.0,0.0248
1333.0,0.0249
1332.0,0.0251
1331.0,0.0252
1330.0,0.0252
1329.0,0.0251
1328.0,0.025
1327.0,0.0248
1326.0,0.0245
1325.0,0.0243
1324.0,0.024
1323.0,0.0238
1322.0,0.0235
1321.0,0.0234
1320.0,0.0233
1319.0,0.0231
1318.0,0.0231
1317.0,0.023
1316.0,0.0229
1315.0,0.0228
1314.0,0.0227
1313.0,0.0227
1312.0,0.0227
1311.0,0.0227
1310.0,0.0229
1309.0,0.0231
1308.0,0.0236
1307.0,0.0242
1306.0,0.0248
1305.0,0.0253
1304.0,0.0255
1303.0,0.0254
1302.0,0.0251
1301.0,0.0248
1300.0,0.0246
1299.0,0.0245
1298.0,0.0245
1297.0,0.0245
1296.0,0.0245
1295.0,0.0244
1294.0,0.0243
1293.0,0.0241
1292.0,0.0239
1291.0,0.0237
1290.0,0.0235
1289.0,0.0233
1288.0,0.0231
1287.0,0.023
1286.0,0.0229
1285.0,0.0228
1284.0,0.0227
1283.0,0.0226
1282.0,0.0226
1281.0,0.0225
1280.0,0.0224
1279.0,0.0224
1278.0,0.0224
1277.0,0.0224
1276.0,0.0224
1275.0,0.0224
1274.0,0.0224
1273.0,0.0224
1272.0,0.0223
1271.0,0.0224
1270.0,0.0224
1269.0,0.0225
1268.0,0.0226
1267.0,0.0226
1266.0,0.0227
1265.0,0.0228
1264.0,0.0229
1263.0,0.023
1262.0,0.0232
1261.0,0.0234
1260.0,0.0237
1259.0,0.0241
1258.0,0.0245
1257.0,0.0249
1256.0,0.0251
1255.0,0.0252
1254.0,0.0249
1253.0,0.0245
1252.0,0.0241
1251.0,0.0237
1250.0,0.0234
1249.0,0.0232
1248.0,0.0231
1247.0,0.023
1246.0,0.0228
1245.0,0.0227
1244.0,0.0226
1243.0,0.0226
1242.0,0.0225
1241.0,0.0225
1240.0,0.0226
1239.0,0.0225
1238.0,0.0225
1237.0,0.0224
1236.0,0.0224
1235.0,0.0223
1234.0,0.0223
1233.0,0.0223
1232.0,0.0223
1231.0,0.0223
1230.0,0.0222
1229.0,0.0222
1228.0,0.0222
1227.0,0.0222
1226.0,0.0222
1225.0,0.0223
1224.0,0.0224
1223.0,0.0225
1222.0,0.0227
1221.0,0.0228
1220.0,0.0229
1219.0,0.0229
1218.0,0.0229
1217.0,0.0229
1216.0,0.0229
1215.0,0.0229
1214.0,0.0229
1213.0,0.0228
1212.0,0.0227
1211.0,0.0226
1210.0,0.0225
1209.0,0.0224
1208.0,0.0224
1207.0,0.0224
1206.0,0.0224
1205.0,0.0224
1204.0,0.0224
1203.0,0.0224
1202.0,0.0224
1201.0,0.0225
1200.0,0.0225
1199.0,0.0225
1198.0,0.0226
1197.0,0.0227
1196.0,0.0227
1195.0,0.0227
1194.0,0.0228
1193.0,0.0228
1192.0,0.0229
1191.0,0.023
1190.0,0.0231
1189.0,0.0232
1188.0,0.0233
1187.0,0.0234
1186.0,0.0235
1185.0,0.0236
1184.0,0.0237
1183.0,0.0239
1182.0,0.0241
1181.0,0.0243
1180.0,0.0246
1179.0,0.0249
1178.0,0.0254
1177.0,0.0259
1176.0,0.0265
1175.0,0.0273
1174.0,0.0284
1173.0,0.0299
1172.0,0.0318
1171.0,0.0338
1170.0,0.0358
1169.0,0.0374
1168.0,0.0385
1167.0,0.039
1166.0,0.039
1165.0,0.0385
1164.0,0.0378
1163.0,0.037
1162.0,0.0363
1161.0,0.0357
1160.0,0.0353
1159.0,0.035
1158.0,0.0347
1157.0,0.0346
1156.0,0.0345
1155.0,0.0344
1154.0,0.0344
1153.0,0.0343
1152.0,0.0342
1151.0,0.034
1150.0,0.0337
1149.0,0.0333
1148.0,0.033
1147.0,0.0326
1146.0,0.0322
1145.0,0.0318
1144.0,0.0315
1143.0,0.0312
1142.0,0.031
1141.0,0.0307
1140.0,0.0305
1139.0,0.0303
1138.0,0.03
1137.0,0.0298
1136.0,0.0296
1135.0,0.0294
1134.0,0.0291
1133.0,0.0289
1132.0,0.0287
1131.0,0.0286
1130.0,0.0285
1129.0,0.0283
1128.0,0.0282
1127.0,0.0281
1126.0,0.028
1125.0,0.0279
1124.0,0.0278
1123.0,0.0277
1122.0,0.0277
1121.0,0.0277
1120.0,0.0277
1119.0,0.0277
1118.0,0.0277
1117.0,0.0276
1116.0,0.0276
1115.0,0.0275
1114.0,0.0275
1113.0,0.0275
1112.0,0.0274
1111.0,0.0274
1110.0,0.0274
1109.0,0.0274
1108.0,0.0275
1107.0,0.0276
1106.0,0.0278
1105.0,0.0279
1104.0,0.028
1103.0,0.0281
1102.0,0.0281
1101.0,0.0279
1100.0,0.0277
1099.0,0.0273
1098.0,0.0269
1097.0,0.0266
1096.0,0.0263
1095.0,0.026
1094.0,0.0258
1093.0,0.0256
1092.0,0.0255
1091.0,0.0253
1090.0,0.0251
1089.0,0.0249
1088.0,0.0248
1087.0,0.0246
1086.0,0.0245
1085.0,0.0243
1084.0,0.0242
1083.0,0.0241
1082.0,0.024
1081.0,0.0239
1080.0,0.0238
1079.0,0.0237
1078.0,0.0236
1077.0,0.0236
1076.0,0.0235
1075.0,0.0235
1074.0,0.0234
1073.0,0.0234
1072.0,0.0235
1071.0,0.0235
1070.0,0.0235
1069.0,0.0235
1068.0,0.0233
1067.0,0.0232
1066.0,0.0231
1065.0,0.0231
1064.0,0.0232
1063.0,0.0232
1062.0,0.0232
1061.0,0.0233
1060.0,0.0233
1059.0,0.0232
1058.0,0.0232
1057.0,0.0231
1056.0,0.0232
1055.0,0.0232
1054.0,0.0233
1053.0,0.0234
1052.0,0.0236
1051.0,0.0238
1050.0,0.024
1049.0,0.0243
1048.0,0.0245
1047.0,0.0247
1046.0,0.0249
1045.0,0.0251
1044.0,0.0252
1043.0,0.0253
1042.0,0.0253
1041.0,0.0252
1040.0,0.025
1039.0,0.0247
1038.0,0.0245
1037.0,0.0244
1036.0,0.0244
1035.0,0.0245
1034.0,0.0246
1033.0,0.0246
1032.0,0.0247
1031.0,0.0246
1030.0,0.0246
1029.0,0.0247
1028.0,0.0247
1027.0,0.0248
1026.0,0.0249
1025.0,0.0249
1024.0,0.025
1023.0,0.025
1022.0,0.0251
1021.0,0.0252
1020.0,0.0253
1019.0,0.0253
1018.0,0.0253
1017.0,0.0252
1016.0,0.0251
1015.0,0.025
1014.0,0.0249
1013.0,0.0248
1012.0,0.0247
1011.0,0.0247
1010.0,0.0247
1009.0,0.0247
1008.0,0.0248
1007.0,0.0251
1006.0,0.0254
1005.0,0.0259
1004.0,0.0267
1003.0,0.0278
1002.0,0.0295
1001.0,0.0317
1000.0,0.0343
999.0,0.0366
998.0,0.0382
997.0,0.0385
996.0,0.0375
995.0,0.0356
994.0,0.0334
993.0,0.0314
992.0,0.0298
991.0,0.0285
990.0,0.0276
989.0,0.0269
988.0,0.0263
987.0,0.0258
986.0,0.0255
985.0,0.0253
984.0,0.0253
983.0,0.0255
982.0,0.026
981.0,0.0267
980.0,0.0278
979.0,0.0293
978.0,0.0313
977.0,0.0337
976.0,0.0364
975.0,0.0391
974.0,0.0414
973.0,0.0426
972.0,0.0424
971.0,0.0407
970.0,0.0383
969.0,0.0356
968.0,0.0334
967.0,0.0316
966.0,0.0302
965.0,0.0292
964.0,0.0283
963.0,0.0277
962.0,0.0272
961.0,0.0268
960.0,0.0265
959.0,0.0262
958.0,0.0259
957.0,0.0257
956.0,0.0254
955.0,0.0251
954.0,0.0249
953.0,0.0247
952.0,0.0246
951.0,0.0245
950.0,0.0245
949.0,0.0245
948.0,0.0245
947.0,0.0245
946.0,0.0245
945.0,0.0246
944.0,0.0247
943.0,0.0249
942.0,0.025
941.0,0.0251
940.0,0.0251
939.0,0.0249
938.0,0.0246
937.0,0.0243
936.0,0.0241
935.0,0.0239
934.0,0.0238
933.0,0.0237
932.0,0.0236
931.0,0.0235
930.0,0.0234
929.0,0.0234
928.0,0.0233
927.0,0.0232
926.0,0.0232
925.0,0.0231
924.0,0.023
923.0,0.0229
922.0,0.0229
921.0,0.0228
920.0,0.0228
919.0,0.0229
918.0,0.0229
917.0,0.023
916.0,0.023
915.0,0.023
914.0,0.023
913.0,0.023
912.0,0.023
911.0,0.0231
910.0,0.0231
909.0,0.0231
908.0,0.0232
907.0,0.0233
906.0,0.0236
905.0,0.024
904.0,0.0246
903.0,0.0254
902.0,0.0263
901.0,0.0273
900.0,0.0281
899.0,0.0286
898.0,0.0286
897.0,0.0282
896.0,0.0275
895.0,0.0266
894.0,0.0258
893.0,0.0252
892.0,0.0247
891.0,0.0244
890.0,0.0241
889.0,0.0239
888.0,0.0237
887.0,0.0236
886.0,0.0235
885.0,0.0234
884.0,0.0234
883.0,0.0234
882.0,0.0234
881.0,0.0234
880.0,0.0234
879.0,0.0234
878.0,0.0234
877.0,0.0233
876.0,0.0233
875.0,0.0233
874.0,0.0233
873.0,0.0234
872.0,0.0234
871.0,0.0234
870.0,0.0235
869.0,0.0236
868.0,0.0236
867.0,0.0235
866.0,0.0235
865.0,0.0234
864.0,0.0234
863.0,0.0235
862.0,0.0236
861.0,0.0237
860.0,0.0238
859.0,0.0238
858.0,0.0238
857.0,0.0238
856.0,0.0237
855.0,0.0237
854.0,0.0237
853.0,0.0238
852.0,0.0239
851.0,0.024
850.0,0.0242
849.0,0.0246
848.0,0.025
847.0,0.0256
846.0,0.0266
845.0,0.0283
844.0,0.0309
843.0,0.034
842.0,0.0369
841.0,0.0383
840.0,0.0378
839.0,0.0357
838.0,0.0331
837.0,0.0308
836.0,0.0292
835.0,0.0281
834.0,0.0273
833.0,0.0268
832.0,0.0264
831.0,0.0261
830.0,0.0259
829.0,0.0258
828.0,0.0256
827.0,0.0255
826.0,0.0254
825.0,0.0252
824.0,0.025
823.0,0.0249
822.0,0.0248
821.0,0.0248
820.0,0.0249
819.0,0.025
818.0,0.0252
817.0,0.0254
816.0,0.0257
815.0,0.0261
814.0,0.0267
813.0,0.0276
812.0,0.0287
811.0,0.0296
810.0,0.0304
809.0,0.0309
808.0,0.031
807.0,0.0308
806.0,0.0303
805.0,0.0295
804.0,0.0287
803.0,0.0279
802.0,0.0273
801.0,0.0269
800.0,0.0267
799.0,0.0266
798.0,0.0265
797.0,0.0265
796.0,0.0265
795.0,0.0264
794.0,0.0263
793.0,0.0262
792.0,0.026
791.0,0.0258
790.0,0.0256
789.0,0.0254
788.0,0.0253
787.0,0.0251
786.0,0.025
785.0,0.0248
784.0,0.0246
783.0,0.0245
782.0,0.0244
781.0,0.0245
780.0,0.0245
779.0,0.0246
778.0,0.0246
777.0,0.0247
776.0,0.0248
775.0,0.0249
774.0,0.0249
773.0,0.0249
772.0,0.0249
771.0,0.025
770.0,0.0251
769.0,0.0254
768.0,0.0256
767.0,0.0259
766.0,0.0261
765.0,0.0261
764.0,0.0261
763.0,0.0261
762.0,0.0262
761.0,0.0263
760.0,0.0265
759.0,0.0267
758.0,0.027
757.0,0.0272
756.0,0.0273
755.0,0.0274
754.0,0.0274
753.0,0.0273
752.0,0.0272
751.0,0.0273
750.0,0.0275
749.0,0.0276
748.0,0.0277
747.0,0.0277
746.0,0.0277
745.0,0.0279
744.0,0.028
743.0,0.0282
742.0,0.0282
741.0,0.0281
740.0,0.028
739.0,0.028
738.0,0.0281
737.0,0.0281
736.0,0.0283
735.0,0.0286
734.0,0.0292
733.0,0.0301
732.0,0.0314
731.0,0.0326
730.0,0.0333
729.0,0.0335
728.0,0.0331
727.0,0.0327
726.0,0.0324
725.0,0.0325
724.0,0.0329
723.0,0.0335
722.0,0.0345
721.0,0.0356
720.0,0.0364
719.0,0.0366
718.0,0.0361
717.0,0.0353
716.0,0.0344
715.0,0.0336
714.0,0.033
713.0,0.0324
712.0,0.0319
711.0,0.0317
710.0,0.0317
709.0,0.032
708.0,0.0324
707.0,0.0329
706.0,0.0337
705.0,0.0346
704.0,0.0357
703.0,0.0369
702.0,0.0379
701.0,0.0389
700.0,0.0397
699.0,0.0403
698.0,0.0405
697.0,0.0402
696.0,0.0393
695.0,0.0379
694.0,0.0364
693.0,0.0352
692.0,0.0345
691.0,0.0343
690.0,0.0345
689.0,0.0346
688.0,0.0345
687.0,0.0343
686.0,0.034
685.0,0.0338
684.0,0.0337
683.0,0.0338
682.0,0.0341
681.0,0.0345
680.0,0.0347
679.0,0.0346
678.0,0.0344
677.0,0.0343
676.0,0.0344
675.0,0.0344
674.0,0.0345
673.0,0.0347
672.0,0.0349
671.0,0.0351
670.0,0.0352
669.0,0.0352
668.0,0.0345
667.0,0.0333
666.0,0.0325
665.0,0.0323
664.0,0.0325
663.0,0.0327
662.0,0.0328
661.0,0.0329
660.0,0.0332
659.0,0.0336
658.0,0.034
657.0,0.0341
656.0,0.0338
655.0,0.0332
654.0,0.033
653.0,0.0332
652.0,0.0335
651.0,0.0335
650.0,0.0332
649.0,0.0327
648.0,0.0324
647.0,0.0323
646.0,0.0322
645.0,0.0323
644.0,0.0324
643.0,0.0325
642.0,0.0325
641.0,0.0325
640.0,0.0327
639.0,0.033
638.0,0.0336
637.0,0.0345
636.0,0.0354
635.0,0.0361
634.0,0.0361
633.0,0.0356
632.0,0.0351
631.0,0.0351
630.0,0.0354
629.0,0.0355
628.0,0.0353
627.0,0.0348
626.0,0.0345
625.0,0.0346
624.0,0.0349
623.0,0.0351
622.0,0.0352
621.0,0.0351
620.0,0.0352
619.0,0.0355
618.0,0.0357
617.0,0.0358
616.0,0.0357
615.0,0.0355
614.0,0.0353
613.0,0.0351
612.0,0.0348
611.0,0.0346
610.0,0.0347
609.0,0.0354
608.0,0.0366
607.0,0.0377
606.0,0.0384
605.0,0.0385
604.0,0.0379
603.0,0.037
602.0,0.0363
601.0,0.0361
600.0,0.0363
