cm-1,A
4000.0,0.0107
3999.0,0.0108
3998.0,0.0108
3997.0,0.0108
3996.0,0.0107
3995.0,0.0107
3994.0,0.0106
3993.0,0.0107
3992.0,0.0107
3991.0,0.0108
3990.0,0.0108
3989.0,0.0108
3988.0,0.0108
3987.0,0.0108
3986.0,0.0108
3985.0,0.0108
3984.0,0.0108
3983.0,0.0108
3982.0,0.0108
3981.0,0.0108
3980.0,0.0107
3979.0,0.0107
3978.0,0.0107
3977.0,0.0108
3976.0,0.0108
3975.0,0.0109
3974.0,0.0109
3973.0,0.0109
3972.0,0.0109
3971.0,0.0108
3970.0,0.0107
3969.0,0.0107
3968.0,0.0107
3967.0,0.0108
3966.0,0.0108
3965.0,0.0109
3964.0,0.011
3963.0,0.011
3962.0,0.011
3961.0,0.0111
3960.0,0.0112
3959.0,0.0112
3958.0,0.0111
3957.0,0.0111
3956.0,0.011
3955.0,0.011
3954.0,0.0109
3953.0,0.011
3952.0,0.011
3951.0,0.0111
3950.0,0.0111
3949.0,0.0112
3948.0,0.0112
3947.0,0.0113
3946.0,0.0114
3945.0,0.0114
3944.0,0.0114
3943.0,0.0113
3942.0,0.0112
3941.0,0.0112
3940.0,0.0111
3939.0,0.0111
3938.0,0.011
3937.0,0.011
3936.0,0.011
3935.0,0.011
3934.0,0.011
3933.0,0.011
3932.0,0.0111
3931.0,0.0112
3930.0,0.0113
3929.0,0.0113
3928.0,0.0114
3927.0,0.0114
3926.0,0.0113
3925.0,0.0112
3924.0,0.0113
3923.0,0.0114
3922.0,0.0114
3921.0,0.0113
3920.0,0.0113
3919.0,0.0112
3918.0,0.0112
3917.0,0.0112
3916.0,0.0112
3915.0,0.0113
3914.0,0.0113
3913.0,0.0112
3912.0,0.0112
3911.0,0.0112
3910.0,0.0112
3909.0,0.0112
3908.0,0.0113
3907.0,0.0113
3906.0,0.0111
3905.0,0.011
3904.0,0.011
3903.0,0.0113
3902.0,0.0115
3901.0,0.0115
3900.0,0.0115
3899.0,0.0115
3898.0,0.0116
3897.0,0.0117
3896.0,0.0117
3895.0,0.0117
3894.0,0.0116
3893.0,0.0114
3892.0,0.0112
3891.0,0.0111
3890.0,0.0112
3889.0,0.0114
3888.0,0.0114
3887.0,0.0111
3886.0,0.011
3885.0,0.0112
3884.0,0.0117
3883.0,0.0119
3882.0,0.0118
3881.0,0.0116
3880.0,0.0115
3879.0,0.0116
3878.0,0.0118
3877.0,0.0118
3876.0,0.0116
3875.0,0.0115
3874.0,0.0116
3873.0,0.012
3872.0,0.0121
3871.0,0.0118
3870.0,0.0114
3869.0,0.0114
3868.0,0.0117
3867.0,0.0119
3866.0,0.0117
3865.0,0.0116
3864.0,0.0117
3863.0,0.0118
3862.0,0.0118
3861.0,0.0116
3860.0,0.0114
3859.0,0.0113
3858.0,0.0113
3857.0,0.0115
3856.0,0.0115
3855.0,0.0112
3854.0,0.0111
3853.0,0.0114
3852.0,0.0117
3851.0,0.0119
3850.0,0.0119
3849.0,0.0119
3848.0,0.0119
3847.0,0.0119
3846.0,0.012
3845.0,0.0119
3844.0,0.0119
3843.0,0.0118
3842.0,0.0118
3841.0,0.0119
3840.0,0.0119
3839.0,0.0119
3838.0,0.012
3837.0,0.012
3836.0,0.0122
3835.0,0.0123
3834.0,0.0123
3833.0,0.0122
3832.0,0.012
3831.0,0.012
3830.0,0.012
3829.0,0.012
3828.0,0.0119
3827.0,0.0117
3826.0,0.0118
3825.0,0.0121
3824.0,0.0123
3823.0,0.0122
3822.0,0.0117
3821.0,0.0116
3820.0,0.0119
3819.0,0.0123
3818.0,0.0123
3817.0,0.012
3816.0,0.0117
3815.0,0.0118
3814.0,0.012
3813.0,0.012
3812.0,0.0118
3811.0,0.0118
3810.0,0.012
3809.0,0.012
3808.0,0.0118
3807.0,0.0117
3806.0,0.0119
3805.0,0.0124
3804.0,0.0127
3803.0,0.0125
3802.0,0.0122
3801.0,0.0122
3800.0,0.0124
3799.0,0.0125
3798.0,0.0124
3797.0,0.0121
3796.0,0.0121
3795.0,0.0122
3794.0,0.0123
3793.0,0.0123
3792.0,0.0122
3791.0,0.0122
3790.0,0.0122
3789.0,0.0123
3788.0,0.0123
3787.0,0.0123
3786.0,0.0123
3785.0,0.0123
3784.0,0.0123
3783.0,0.0124
3782.0,0.0125
3781.0,0.0124
3780.0,0.0123
3779.0,0.0123
3778.0,0.0124
3777.0,0.0125
3776.0,0.0123
3775.0,0.0122
3774.0,0.0122
3773.0,0.0123
3772.0,0.0123
3771.0,0.0122
3770.0,0.0123
3769.0,0.0125
3768.0,0.0126
3767.0,0.0126
3766.0,0.0124
3765.0,0.0123
3764.0,0.0124
3763.0,0.0126
3762.0,0.0126
3761.0,0.0125
3760.0,0.0125
3759.0,0.0126
3758.0,0.0126
3757.0,0.0125
3756.0,0.0125
3755.0,0.0124
3754.0,0.0123
3753.0,0.0122
3752.0,0.0122
3751.0,0.0122
3750.0,0.012
3749.0,0.0118
3748.0,0.012
3747.0,0.0122
3746.0,0.0119
3745.0,0.0116
3744.0,0.0116
3743.0,0.0118
3742.0,0.0119
3741.0,0.0118
3740.0,0.0117
3739.0,0.0117
3738.0,0.0117
3737.0,0.0116
3736.0,0.0117
3735.0,0.0119
3734.0,0.0118
3733.0,0.0114
3732.0,0.011
3731.0,0.0108
3730.0,0.0108
3729.0,0.0108
3728.0,0.0107
3727.0,0.0108
3726.0,0.011
3725.0,0.0113
3724.0,0.0114
3723.0,0.0114
3722.0,0.0115
3721.0,0.0117
3720.0,0.0119
3719.0,0.012
3718.0,0.012
3717.0,0.012
3716.0,0.012
3715.0,0.012
3714.0,0.0118
3713.0,0.0116
3712.0,0.0115
3711.0,0.0116
3710.0,0.0117
3709.0,0.0116
3708.0,0.0114
3707.0,0.0113
3706.0,0.0112
3705.0,0.0113
3704.0,0.0114
3703.0,0.0114
3702.0,0.0115
3701.0,0.0116
3700.0,0.0117
3699.0,0.0118
3698.0,0.0118
3697.0,0.0118
3696.0,0.0118
3695.0,0.0119
3694.0,0.0121
3693.0,0.0122
3692.0,0.0124
3691.0,0.0126
3690.0,0.0127
3689.0,0.0126
3688.0,0.0126
3687.0,0.0127
3686.0,0.0128
3685.0,0.0129
3684.0,0.013
3683.0,0.013
3682.0,0.0131
3681.0,0.013
3680.0,0.0131
3679.0,0.0133
3678.0,0.0134
3677.0,0.0132
3676.0,0.013
3675.0,0.0131
3674.0,0.0134
3673.0,0.0136
3672.0,0.0136
3671.0,0.0133
3670.0,0.0134
3669.0,0.0138
3668.0,0.014
3667.0,0.0141
3666.0,0.0141
3665.0,0.014
3664.0,0.014
3663.0,0.014
3662.0,0.0139
3661.0,0.0139
3660.0,0.014
3659.0,0.0141
3658.0,0.0141
3657.0,0.014
3656.0,0.014
3655.0,0.0141
3654.0,0.0143
3653.0,0.0144
3652.0,0.0145
3651.0,0.0147
3650.0,0.0153
3649.0,0.0157
3648.0,0.0156
3647.0,0.0154
3646.0,0.0152
3645.0,0.0151
3644.0,0.015
3643.0,0.0149
3642.0,0.0148
3641.0,0.0147
3640.0,0.0146
3639.0,0.0145
3638.0,0.0145
3637.0,0.0144
3636.0,0.0143
3635.0,0.0141
3634.0,0.0138
3633.0,0.0138
3632.0,0.014
3631.0,0.014
3630.0,0.0139
3629.0,0.014
3628.0,0.0143
3627.0,0.0144
3626.0,0.0144
3625.0,0.0143
3624.0,0.0143
3623.0,0.0145
3622.0,0.0148
3621.0,0.0149
3620.0,0.015
3619.0,0.0151
3618.0,0.0153
3617.0,0.0155
3616.0,0.0157
3615.0,0.0157
3614.0,0.0157
3613.0,0.0156
3612.0,0.0155
3611.0,0.0154
3610.0,0.0153
3609.0,0.0152
3608.0,0.0152
3607.0,0.0152
3606.0,0.0153
3605.0,0.0152
3604.0,0.0151
3603.0,0.015
3602.0,0.0149
3601.0,0.0148
3600.0,0.0149
3599.0,0.015
3598.0,0.015
3597.0,0.015
3596.0,0.015
3595.0,0.015
3594.0,0.015
3593.0,0.0151
3592.0,0.0152
3591.0,0.0154
3590.0,0.0155
3589.0,0.0156
3588.0,0.0159
3587.0,0.0161
3586.0,0.0163
3585.0,0.0162
3584.0,0.0162
3583.0,0.0161
3582.0,0.0161
3581.0,0.0161
3580.0,0.0162
3579.0,0.0162
3578.0,0.0163
3577.0,0.0163
3576.0,0.0164
3575.0,0.0165
3574.0,0.0165
3573.0,0.0166
3572.0,0.0166
3571.0,0.0167
3570.0,0.0168
3569.0,0.0169
3568.0,0.017
3567.0,0.0172
3566.0,0.0173
3565.0,0.0172
3564.0,0.0171
3563.0,0.0171
3562.0,0.0172
3561.0,0.0174
3560.0,0.0175
3559.0,0.0176
3558.0,0.0175
3557.0,0.0175
3556.0,0.0174
3555.0,0.0174
3554.0,0.0174
3553.0,0.0174
3552.0,0.0175
3551.0,0.0176
3550.0,0.0176
3549.0,0.0177
3548.0,0.0177
3547.0,0.0177
3546.0,0.0178
3545.0,0.0179
3544.0,0.0181
3543.0,0.0181
3542.0,0.0181
3541.0,0.018
3540.0,0.018
3539.0,0.0179
3538.0,0.018
3537.0,0.018
3536.0,0.0179
3535.0,0.0179
3534.0,0.0178
3533.0,0.0178
3532.0,0.0178
3531.0,0.0178
3530.0,0.0178
3529.0,0.0177
3528.0,0.0177
3527.0,0.0177
3526.0,0.0177
3525.0,0.0178
3524.0,0.0178
3523.0,0.0178
3522.0,0.0177
3521.0,0.0176
3520.0,0.0175
3519.0,0.0175
3518.0,0.0175
3517.0,0.0175
3516.0,0.0176
3515.0,0.0176
3514.0,0.0176
3513.0,0.0176
3512.0,0.0176
3511.0,0.0175
3510.0,0.0174
3509.0,0.0173
3508.0,0.0173
3507.0,0.0173
3506.0,0.0174
3505.0,0.0176
3504.0,0.0177
3503.0,0.0177
3502.0,0.0177
3501.0,0.0176
3500.0,0.0175
3499.0,0.0173
3498.0,0.0171
3497.0,0.017
3496.0,0.0169
3495.0,0.017
3494.0,0.0171
3493.0,0.0172
3492.0,0.0172
3491.0,0.0172
3490.0,0.0172
3489.0,0.0172
3488.0,0.0172
3487.0,0.0172
3486.0,0.0172
3485.0,0.0172
3484.0,0.0172
3483.0,0.0171
3482.0,0.0171
3481.0,0.0171
3480.0,0.0171
3479.0,0.0171
3478.0,0.0171
3477.0,0.017
3476.0,0.017
3475.0,0.017
3474.0,0.017
3473.0,0.017
3472.0,0.017
3471.0,0.017
3470.0,0.017
3469.0,0.017
3468.0,0.0171
3467.0,0.0171
3466.0,0.0172
3465.0,0.0173
3464.0,0.0174
3463.0,0.0175
3462.0,0.0175
3461.0,0.0176
3460.0,0.0176
3459.0,0.0176
3458.0,0.0177
3457.0,0.0178
3456.0,0.0179
3455.0,0.018
3454.0,0.0181
3453.0,0.018
3452.0,0.018
3451.0,0.018
3450.0,0.0181
3449.0,0.0183
3448.0,0.0186
3447.0,0.0187
3446.0,0.0188
3445.0,0.0189
3444.0,0.0189
3443.0,0.019
3442.0,0.019
3441.0,0.0191
3440.0,0.0191
3439.0,0.0191
3438.0,0.0191
3437.0,0.0192
3436.0,0.0193
3435.0,0.0194
3434.0,0.0195
3433.0,0.0196
3432.0,0.0196
3431.0,0.0197
3430.0,0.0196
3429.0,0.0196
3428.0,0.0196
3427.0,0.0196
3426.0,0.0196
3425.0,0.0197
3424.0,0.0197
3423.0,0.0195
3422.0,0.0193
3421.0,0.019
3420.0,0.0189
3419.0,0.0188
3418.0,0.0188
3417.0,0.0187
3416.0,0.0186
3415.0,0.0186
3414.0,0.0185
3413.0,0.0184
3412.0,0.0184
3411.0,0.0185
3410.0,0.0184
3409.0,0.0184
3408.0,0.0183
3407.0,0.0181
3406.0,0.018
3405.0,0.0179
3404.0,0.0179
3403.0,0.0177
3402.0,0.0176
3401.0,0.0175
3400.0,0.0175
3399.0,0.0175
3398.0,0.0175
3397.0,0.0175
3396.0,0.0175
3395.0,0.0175
3394.0,0.0174
3393.0,0.0175
3392.0,0.0175
3391.0,0.0175
3390.0,0.0174
3389.0,0.0173
3388.0,0.0172
3387.0,0.0171
3386.0,0.0171
3385.0,0.017
3384.0,0.017
3383.0,0.0169
3382.0,0.0169
3381.0,0.0169
3380.0,0.0169
3379.0,0.0169
3378.0,0.0169
3377.0,0.017
3376.0,0.017
3375.0,0.0171
3374.0,0.0171
3373.0,0.017
3372.0,0.017
3371.0,0.0169
3370.0,0.017
3369.0,0.017
3368.0,0.017
3367.0,0.0169
3366.0,0.0169
3365.0,0.0168
3364.0,0.0169
3363.0,0.0169
3362.0,0.0169
3361.0,0.0169
3360.0,0.017
3359.0,0.017
3358.0,0.017
3357.0,0.017
3356.0,0.0169
3355.0,0.0169
3354.0,0.0169
3353.0,0.0169
3352.0,0.0169
3351.0,0.0167
3350.0,0.0166
3349.0,0.0165
3348.0,0.0165
3347.0,0.0165
3346.0,0.0166
3345.0,0.0166
3344.0,0.0167
3343.0,0.0167
3342.0,0.0167
3341.0,0.0168
3340.0,0.0169
3339.0,0.0171
3338.0,0.0172
3337.0,0.0172
3336.0,0.0172
3335.0,0.0171
3334.0,0.017
3333.0,0.0169
3332.0,0.0167
3331.0,0.0165
3330.0,0.0164
3329.0,0.0164
3328.0,0.0165
3327.0,0.0166
3326.0,0.0167
3325.0,0.0167
3324.0,0.0167
3323.0,0.0167
3322.0,0.0167
3321.0,0.0167
3320.0,0.0167
3319.0,0.0167
3318.0,0.0167
3317.0,0.0167
3316.0,0.0167
3315.0,0.0168
3314.0,0.0168
3313.0,0.0168
3312.0,0.0168
3311.0,0.0169
3310.0,0.0168
3309.0,0.0167
3308.0,0.0166
3307.0,0.0165
3306.0,0.0164
3305.0,0.0164
3304.0,0.0163
3303.0,0.0163
3302.0,0.0163
3301.0,0.0163
3300.0,0.0163
3299.0,0.0163
3298.0,0.0163
3297.0,0.0163
3296.0,0.0164
3295.0,0.0165
3294.0,0.0165
3293.0,0.0165
3292.0,0.0165
3291.0,0.0164
3290.0,0.0164
3289.0,0.0164
3288.0,0.0164
3287.0,0.0164
3286.0,0.0164
3285.0,0.0163
3284.0,0.0163
3283.0,0.0163
3282.0,0.0162
3281.0,0.0161
3280.0,0.016
3279.0,0.0161
3278.0,0.0162
3277.0,0.0163
3276.0,0.0164
3275.0,0.0164
3274.0,0.0163
3273.0,0.0162
3272.0,0.016
3271.0,0.016
3270.0,0.016
3269.0,0.016
3268.0,0.0161
3267.0,0.0162
3266.0,0.0162
3265.0,0.0161
3264.0,0.0162
3263.0,0.0161
3262.0,0.0161
3261.0,0.016
3260.0,0.0159
3259.0,0.0159
3258.0,0.016
3257.0,0.0159
3256.0,0.0159
3255.0,0.0159
3254.0,0.0159
3253.0,0.0159
3252.0,0.016
3251.0,0.016
3250.0,0.016
3249.0,0.0159
3248.0,0.0159
3247.0,0.016
3246.0,0.0161
3245.0,0.0162
3244.0,0.0162
3243.0,0.0162
3242.0,0.0161
3241.0,0.016
3240.0,0.016
3239.0,0.0161
3238.0,0.0162
3237.0,0.0163
3236.0,0.0163
3235.0,0.0163
3234.0,0.0162
3233.0,0.0162
3232.0,0.0161
3231.0,0.016
3230.0,0.0159
3229.0,0.0158
3228.0,0.0157
3227.0,0.0158
3226.0,0.0159
3225.0,0.016
3224.0,0.0162
3223.0,0.0162
3222.0,0.0162
3221.0,0.0161
3220.0,0.016
3219.0,0.0159
3218.0,0.0159
3217.0,0.0158
3216.0,0.0157
3215.0,0.0156
3214.0,0.0156
3213.0,0.0156
3212.0,0.0157
3211.0,0.0158
3210.0,0.0159
3209.0,0.0159
3208.0,0.0158
3207.0,0.0158
3206.0,0.0158
3205.0,0.0158
3204.0,0.0158
3203.0,0.0158
3202.0,0.0158
3201.0,0.0157
3200.0,0.0157
3199.0,0.0157
3198.0,0.0157
3197.0,0.0157
3196.0,0.0157
3195.0,0.0157
3194.0,0.0156
3193.0,0.0156
3192.0,0.0155
3191.0,0.0154
3190.0,0.0154
3189.0,0.0154
3188.0,0.0153
3187.0,0.0153
3186.0,0.0153
3185.0,0.0153
3184.0,0.0153
3183.0,0.0154
3182.0,0.0155
3181.0,0.0155
3180.0,0.0155
3179.0,0.0154
3178.0,0.0153
3177.0,0.0153
3176.0,0.0154
3175.0,0.0154
3174.0,0.0155
3173.0,0.0154
3172.0,0.0154
3171.0,0.0153
3170.0,0.0152
3169.0,0.0152
3168.0,0.0152
3167.0,0.0153
3166.0,0.0153
3165.0,0.0153
3164.0,0.0152
3163.0,0.0152
3162.0,0.0151
3161.0,0.0151
3160.0,0.0151
3159.0,0.0151
3158.0,0.0151
3157.0,0.0152
3156.0,0.0152
3155.0,0.0152
3154.0,0.0152
3153.0,0.0151
3152.0,0.0152
3151.0,0.0152
3150.0,0.0152
3149.0,0.0153
3148.0,0.0153
3147.0,0.0152
3146.0,0.0152
3145.0,0.0152
3144.0,0.0152
3143.0,0.0153
3142.0,0.0152
3141.0,0.0152
3140.0,0.0151
3139.0,0.0152
3138.0,0.0153
3137.0,0.0154
3136.0,0.0156
3135.0,0.0158
3134.0,0.0159
3133.0,0.0159
3132.0,0.0158
3131.0,0.0157
3130.0,0.0156
3129.0,0.0156
3128.0,0.0156
3127.0,0.0156
3126.0,0.0156
3125.0,0.0156
3124.0,0.0156
3123.0,0.0156
3122.0,0.0156
3121.0,0.0157
3120.0,0.0158
3119.0,0.016
3118.0,0.016
3117.0,0.0159
3116.0,0.0158
3115.0,0.0157
3114.0,0.0158
3113.0,0.0159
3112.0,0.0161
3111.0,0.0163
3110.0,0.0165
3109.0,0.0166
3108.0,0.0167
3107.0,0.0168
3106.0,0.0168
3105.0,0.0169
3104.0,0.0169
3103.0,0.0169
3102.0,0.0169
3101.0,0.0168
3100.0,0.0167
3099.0,0.0166
3098.0,0.0166
3097.0,0.0166
3096.0,0.0166
3095.0,0.0165
3094.0,0.0164
3093.0,0.0164
3092.0,0.0164
3091.0,0.0164
3090.0,0.0166
3089.0,0.0167
3088.0,0.0169
3087.0,0.0171
3086.0,0.0172
3085.0,0.0173
3084.0,0.0173
3083.0,0.0174
3082.0,0.0174
3081.0,0.0175
3080.0,0.0175
3079.0,0.0175
3078.0,0.0176
3077.0,0.0177
3076.0,0.0177
3075.0,0.0177
3074.0,0.0177
3073.0,0.0176
3072.0,0.0176
3071.0,0.0176
3070.0,0.0176
3069.0,0.0177
3068.0,0.0177
3067.0,0.0178
3066.0,0.0178
3065.0,0.0178
3064.0,0.0177
3063.0,0.0176
3062.0,0.0175
3061.0,0.0175
3060.0,0.0175
3059.0,0.0176
3058.0,0.0177
3057.0,0.0178
3056.0,0.0179
3055.0,0.0179
3054.0,0.0179
3053.0,0.0178
3052.0,0.0177
3051.0,0.0176
3050.0,0.0175
3049.0,0.0173
3048.0,0.017
3047.0,0.0167
3046.0,0.0165
3045.0,0.0162
3044.0,0.0161
3043.0,0.016
3042.0,0.0158
3041.0,0.0157
3040.0,0.0156
3039.0,0.0155
3038.0,0.0154
3037.0,0.0154
3036.0,0.0154
3035.0,0.0155
3034.0,0.0155
3033.0,0.0155
3032.0,0.0155
3031.0,0.0155
3030.0,0.0156
3029.0,0.0157
3028.0,0.0157
3027.0,0.0158
3026.0,0.0158
3025.0,0.0159
3024.0,0.0159
3023.0,0.0159
3022.0,0.016
3021.0,0.016
3020.0,0.0161
3019.0,0.0163
3018.0,0.0165
3017.0,0.0167
3016.0,0.0169
3015.0,0.017
3014.0,0.0172
3013.0,0.0173
3012.0,0.0174
3011.0,0.0175
3010.0,0.0177
3009.0,0.0178
3008.0,0.0179
3007.0,0.018
3006.0,0.0182
3005.0,0.0183
3004.0,0.0185
3003.0,0.0186
3002.0,0.0187
3001.0,0.0188
3000.0,0.0189
2999.0,0.019
2998.0,0.0191
2997.0,0.0192
2996.0,0.0194
2995.0,0.0197
2994.0,0.0199
2993.0,0.0201
2992.0,0.0203
2991.0,0.0204
2990.0,0.0206
2989.0,0.0207
2988.0,0.0209
2987.0,0.0212
2986.0,0.0215
2985.0,0.0217
2984.0,0.022
2983.0,0.0223
2982.0,0.0226
2981.0,0.0229
2980.0,0.0232
2979.0,0.0236
2978.0,0.0239
2977.0,0.0243
2976.0,0.0247
2975.0,0.0251
2974.0,0.0256
2973.0,0.026
2972.0,0.0265
2971.0,0.027
2970.0,0.0275
2969.0,0.0279
2968.0,0.0284
2967.0,0.0289
2966.0,0.0294
2965.0,0.0299
2964.0,0.0303
2963.0,0.0307
2962.0,0.0311
2961.0,0.0314
2960.0,0.0317
2959.0,0.0319
2958.0,0.0318
2957.0,0.0317
2956.0,0.0316
2955.0,0.0314
2954.0,0.0312
2953.0,0.0308
2952.0,0.0304
2951.0,0.0299
2950.0,0.0293
2949.0,0.0288
2948.0,0.0282
2947.0,0.0276
2946.0,0.027
2945.0,0.0263
2944.0,0.0258
2943.0,0.0252
2942.0,0.0248
2941.0,0.0243
2940.0,0.0238
2939.0,0.0234
2938.0,0.0231
2937.0,0.0227
2936.0,0.0225
2935.0,0.0222
2934.0,0.022
2933.0,0.0219
2932.0,0.0218
2931.0,0.0217
2930.0,0.0217
2929.0,0.0216
2928.0,0.0216
2927.0,0.0215
2926.0,0.0215
2925.0,0.0214
2924.0,0.0213
2923.0,0.0212
2922.0,0.0211
2921.0,0.021
2920.0,0.0209
2919.0,0.0207
2918.0,0.0206
2917.0,0.0205
2916.0,0.0205
2915.0,0.0205
2914.0,0.0205
2913.0,0.0205
2912.0,0.0205
2911.0,0.0205
2910.0,0.0205
2909.0,0.0205
2908.0,0.0205
2907.0,0.0205
2906.0,0.0205
2905.0,0.0206
2904.0,0.0206
2903.0,0.0207
2902.0,0.0207
2901.0,0.0207
2900.0,0.0208
2899.0,0.0208
2898.0,0.0208
2897.0,0.0209
2896.0,0.021
2895.0,0.0211
2894.0,0.0213
2893.0,0.0214
2892.0,0.0215
2891.0,0.0216
2890.0,0.0216
2889.0,0.0216
2888.0,0.0215
2887.0,0.0215
2886.0,0.0214
2885.0,0.0214
2884.0,0.0212
2883.0,0.0211
2882.0,0.021
2881.0,0.0208
2880.0,0.0206
2879.0,0.0205
2878.0,0.0204
2877.0,0.0203
2876.0,0.0202
2875.0,0.0202
2874.0,0.0201
2873.0,0.0201
2872.0,0.0201
2871.0,0.0201
2870.0,0.02
2869.0,0.0199
2868.0,0.0198
2867.0,0.0198
2866.0,0.0198
2865.0,0.0197
2864.0,0.0197
2863.0,0.0197
2862.0,0.0196
2861.0,0.0196
2860.0,0.0196
2859.0,0.0196
2858.0,0.0196
2857.0,0.0196
2856.0,0.0196
2855.0,0.0196
2854.0,0.0195
2853.0,0.0193
2852.0,0.0192
2851.0,0.019
2850.0,0.0189
2849.0,0.0187
2848.0,0.0186
2847.0,0.0184
2846.0,0.0182
2845.0,0.018
2844.0,0.0179
2843.0,0.0178
2842.0,0.0177
2841.0,0.0176
2840.0,0.0175
2839.0,0.0174
2838.0,0.0173
2837.0,0.0172
2836.0,0.0171
2835.0,0.0171
2834.0,0.0171
2833.0,0.0171
2832.0,0.0171
2831.0,0.0171
2830.0,0.017
2829.0,0.0169
2828.0,0.0168
2827.0,0.0167
2826.0,0.0167
2825.0,0.0167
2824.0,0.0166
2823.0,0.0166
2822.0,0.0165
2821.0,0.0165
2820.0,0.0164
2819.0,0.0164
2818.0,0.0164
2817.0,0.0163
2816.0,0.0163
2815.0,0.0163
2814.0,0.0163
2813.0,0.0164
2812.0,0.0164
2811.0,0.0164
2810.0,0.0163
2809.0,0.0162
2808.0,0.0162
2807.0,0.0162
2806.0,0.0161
2805.0,0.0161
2804.0,0.0161
2803.0,0.0161
2802.0,0.0161
2801.0,0.0161
2800.0,0.0161
2799.0,0.0161
2798.0,0.0161
2797.0,0.0161
2796.0,0.016
2795.0,0.016
2794.0,0.0159
2793.0,0.0159
2792.0,0.0159
2791.0,0.0158
2790.0,0.0158
2789.0,0.0157
2788.0,0.0157
2787.0,0.0157
2786.0,0.0157
2785.0,0.0157
2784.0,0.0157
2783.0,0.0158
2782.0,0.0158
2781.0,0.0157
2780.0,0.0157
2779.0,0.0157
2778.0,0.0156
2777.0,0.0156
2776.0,0.0155
2775.0,0.0155
2774.0,0.0155
2773.0,0.0155
2772.0,0.0155
2771.0,0.0155
2770.0,0.0155
2769.0,0.0155
2768.0,0.0156
2767.0,0.0156
2766.0,0.0156
2765.0,0.0156
2764.0,0.0156
2763.0,0.0155
2762.0,0.0155
2761.0,0.0154
2760.0,0.0154
2759.0,0.0154
2758.0,0.0154
2757.0,0.0154
2756.0,0.0154
2755.0,0.0155
2754.0,0.0155
2753.0,0.0155
2752.0,0.0154
2751.0,0.0153
2750.0,0.0152
2749.0,0.0152
2748.0,0.0152
2747.0,0.0152
2746.0,0.0152
2745.0,0.0151
2744.0,0.0151
2743.0,0.0151
2742.0,0.0151
2741.0,0.015
2740.0,0.015
2739.0,0.015
2738.0,0.0151
2737.0,0.0151
2736.0,0.015
2735.0,0.015
2734.0,0.0149
2733.0,0.0149
2732.0,0.0148
2731.0,0.0148
2730.0,0.0149
2729.0,0.0149
2728.0,0.0149
2727.0,0.0149
2726.0,0.0148
2725.0,0.0147
2724.0,0.0147
2723.0,0.0147
2722.0,0.0147
2721.0,0.0148
2720.0,0.0148
2719.0,0.0147
2718.0,0.0147
2717.0,0.0147
2716.0,0.0147
2715.0,0.0147
2714.0,0.0147
2713.0,0.0147
2712.0,0.0146
2711.0,0.0146
2710.0,0.0145
2709.0,0.0145
2708.0,0.0145
2707.0,0.0145
2706.0,0.0145
2705.0,0.0145
2704.0,0.0145
2703.0,0.0145
2702.0,0.0145
2701.0,0.0144
2700.0,0.0144
2699.0,0.0144
2698.0,0.0144
2697.0,0.0144
2696.0,0.0143
2695.0,0.0143
2694.0,0.0143
2693.0,0.0143
2692.0,0.0143
2691.0,0.0143
2690.0,0.0144
2689.0,0.0144
2688.0,0.0144
2687.0,0.0144
2686.0,0.0144
2685.0,0.0144
2684.0,0.0143
2683.0,0.0143
2682.0,0.0144
2681.0,0.0144
2680.0,0.0145
2679.0,0.0145
2678.0,0.0144
2677.0,0.0144
2676.0,0.0143
2675.0,0.0142
2674.0,0.0142
2673.0,0.0142
2672.0,0.0141
2671.0,0.0141
2670.0,0.0141
2669.0,0.0141
2668.0,0.0141
2667.0,0.014
2666.0,0.014
2665.0,0.014
2664.0,0.014
2663.0,0.0141
2662.0,0.0141
2661.0,0.0141
2660.0,0.0141
2659.0,0.0141
2658.0,0.014
2657.0,0.014
2656.0,0.014
2655.0,0.0139
2654.0,0.0139
2653.0,0.0139
2652.0,0.0139
2651.0,0.0139
2650.0,0.0139
2649.0,0.0139
2648.0,0.014
2647.0,0.014
2646.0,0.014
2645.0,0.014
2644.0,0.0141
2643.0,0.0141
2642.0,0.0141
2641.0,0.0141
2640.0,0.0141
2639.0,0.0141
2638.0,0.0141
2637.0,0.0141
2636.0,0.0141
2635.0,0.0142
2634.0,0.0142
2633.0,0.0142
2632.0,0.0143
2631.0,0.0143
2630.0,0.0142
2629.0,0.0142
2628.0,0.0142
2627.0,0.0141
2626.0,0.0141
2625.0,0.0141
2624.0,0.0141
2623.0,0.0142
2622.0,0.0142
2621.0,0.0142
2620.0,0.0141
2619.0,0.0141
2618.0,0.014
2617.0,0.014
2616.0,0.0139
2615.0,0.0138
2614.0,0.0138
2613.0,0.0138
2612.0,0.0138
2611.0,0.0138
2610.0,0.0138
2609.0,0.0138
2608.0,0.0138
2607.0,0.0138
2606.0,0.0138
2605.0,0.0138
2604.0,0.0138
2603.0,0.0137
2602.0,0.0137
2601.0,0.0137
2600.0,0.0138
2599.0,0.0139
2598.0,0.0139
2597.0,0.0139
2596.0,0.0139
2595.0,0.0139
2594.0,0.0139
2593.0,0.0139
2592.0,0.0139
2591.0,0.0139
2590.0,0.0139
2589.0,0.0139
2588.0,0.014
2587.0,0.014
2586.0,0.014
2585.0,0.014
2584.0,0.014
2583.0,0.014
2582.0,0.014
2581.0,0.014
2580.0,0.014
2579.0,0.0139
2578.0,0.0139
2577.0,0.0139
2576.0,0.0139
2575.0,0.014
2574.0,0.0141
2573.0,0.0141
2572.0,0.0141
2571.0,0.0141
2570.0,0.014
2569.0,0.014
2568.0,0.0139
2567.0,0.0139
2566.0,0.0139
2565.0,0.014
2564.0,0.014
2563.0,0.0141
2562.0,0.0141
2561.0,0.0141
2560.0,0.0141
2559.0,0.0141
2558.0,0.0141
2557.0,0.014
2556.0,0.014
2555.0,0.0141
2554.0,0.0141
2553.0,0.014
2552.0,0.014
2551.0,0.014
2550.0,0.014
2549.0,0.014
2548.0,0.014
2547.0,0.014
2546.0,0.014
2545.0,0.0139
2544.0,0.0139
2543.0,0.0139
2542.0,0.0139
2541.0,0.0139
2540.0,0.0139
2539.0,0.0139
2538.0,0.0139
2537.0,0.0139
2536.0,0.0139
2535.0,0.0139
2534.0,0.0139
2533.0,0.0139
2532.0,0.0139
2531.0,0.0139
2530.0,0.0139
2529.0,0.0139
2528.0,0.0138
2527.0,0.0138
2526.0,0.0138
2525.0,0.0138
2524.0,0.0137
2523.0,0.0137
2522.0,0.0137
2521.0,0.0137
2520.0,0.0137
2519.0,0.0138
2518.0,0.0138
2517.0,0.0138
2516.0,0.0137
2515.0,0.0137
2514.0,0.0136
2513.0,0.0136
2512.0,0.0135
2511.0,0.0135
2510.0,0.0135
2509.0,0.0135
2508.0,0.0135
2507.0,0.0135
2506.0,0.0135
2505.0,0.0135
2504.0,0.0135
2503.0,0.0135
2502.0,0.0134
2501.0,0.0134
2500.0,0.0134
2499.0,0.0133
2498.0,0.0133
2497.0,0.0133
2496.0,0.0132
2495.0,0.0132
2494.0,0.0131
2493.0,0.0131
2492.0,0.0131
2491.0,0.0131
2490.0,0.0131
2489.0,0.0131
2488.0,0.0131
2487.0,0.013
2486.0,0.0129
2485.0,0.0129
2484.0,0.0128
2483.0,0.0129
2482.0,0.0129
2481.0,0.0129
2480.0,0.0128
2479.0,0.0128
2478.0,0.0127
2477.0,0.0127
2476.0,0.0127
2475.0,0.0127
2474.0,0.0127
2473.0,0.0127
2472.0,0.0127
2471.0,0.0127
2470.0,0.0127
2469.0,0.0127
2468.0,0.0127
2467.0,0.0127
2466.0,0.0126
2465.0,0.0125
2464.0,0.0124
2463.0,0.0124
2462.0,0.0124
2461.0,0.0125
2460.0,0.0125
2459.0,0.0125
2458.0,0.0125
2457.0,0.0125
2456.0,0.0124
2455.0,0.0124
2454.0,0.0123
2453.0,0.0123
2452.0,0.0123
2451.0,0.0123
2450.0,0.0123
2449.0,0.0123
2448.0,0.0123
2447.0,0.0123
2446.0,0.0122
2445.0,0.0122
2444.0,0.0122
2443.0,0.0122
2442.0,0.0122
2441.0,0.0122
2440.0,0.0122
2439.0,0.0123
2438.0,0.0122
2437.0,0.0122
2436.0,0.0121
2435.0,0.0121
2434.0,0.0122
2433.0,0.0122
2432.0,0.0122
2431.0,0.0122
2430.0,0.0123
2429.0,0.0123
2428.0,0.0124
2427.0,0.0124
2426.0,0.0124
2425.0,0.0124
2424.0,0.0124
2423.0,0.0124
2422.0,0.0124
2421.0,0.0124
2420.0,0.0124
2419.0,0.0124
2418.0,0.0124
2417.0,0.0124
2416.0,0.0124
2415.0,0.0124
2414.0,0.0125
2413.0,0.0125
2412.0,0.0125
2411.0,0.0125
2410.0,0.0125
2409.0,0.0126
2408.0,0.0126
2407.0,0.0127
2406.0,0.0127
2405.0,0.0127
2404.0,0.0127
2403.0,0.0127
2402.0,0.0126
2401.0,0.0126
2400.0,0.0126
2399.0,0.0127
2398.0,0.0127
2397.0,0.0127
2396.0,0.0127
2395.0,0.0127
2394.0,0.0126
2393.0,0.0126
2392.0,0.0126
2391.0,0.0126
2390.0,0.0125
2389.0,0.0124
2388.0,0.0122
2387.0,0.0119
2386.0,0.0114
2385.0,0.0108
2384.0,0.01
2383.0,0.0092
2382.0,0.0085
2381.0,0.0078
2380.0,0.0073
2379.0,0.0069
2378.0,0.0066
2377.0,0.0065
2376.0,0.0066
2375.0,0.0067
2374.0,0.0069
2373.0,0.0067
2372.0,0.0062
2371.0,0.0056
2370.0,0.005
2369.0,0.0046
2368.0,0.0043
2367.0,0.0044
2366.0,0.0047
2365.0,0.005
2364.0,0.0054
2363.0,0.0056
2362.0,0.0052
2361.0,0.0043
2360.0,0.0037
2359.0,0.0041
2358.0,0.0051
2357.0,0.0055
2356.0,0.0052
2355.0,0.0043
2354.0,0.0034
2353.0,0.0028
2352.0,0.0027
2351.0,0.0028
2350.0,0.0027
2349.0,0.0027
2348.0,0.0026
2347.0,0.0025
2346.0,0.0026
2345.0,0.0026
2344.0,0.0025
2343.0,0.0023
2342.0,0.0023
2341.0,0.0025
2340.0,0.0026
2339.0,0.0027
2338.0,0.0026
2337.0,0.0025
2336.0,0.0023
2335.0,0.002
2334.0,0.0016
2333.0,0.0013
2332.0,0.0015
2331.0,0.0019
2330.0,0.0022
2329.0,0.0023
2328.0,0.0026
2327.0,0.0031
2326.0,0.0039
2325.0,0.0046
2324.0,0.0051
2323.0,0.0055
2322.0,0.0057
2321.0,0.0058
2320.0,0.0058
2319.0,0.0058
2318.0,0.0059
2317.0,0.0059
2316.0,0.0059
2315.0,0.0056
2314.0,0.0051
2313.0,0.0047
2312.0,0.0045
2311.0,0.0045
2310.0,0.0046
2309.0,0.0048
2308.0,0.0051
2307.0,0.0054
2306.0,0.0058
2305.0,0.0061
2304.0,0.0063
2303.0,0.0065
2302.0,0.0066
2301.0,0.0068
2300.0,0.007
2299.0,0.0072
2298.0,0.0075
2297.0,0.0077
2296.0,0.0079
2295.0,0.0082
2294.0,0.0085
2293.0,0.0088
2292.0,0.009
2291.0,0.0093
2290.0,0.0096
2289.0,0.0098
2288.0,0.01
2287.0,0.0102
2286.0,0.0104
2285.0,0.0106
2284.0,0.0106
2283.0,0.0106
2282.0,0.0105
2281.0,0.0103
2280.0,0.0102
2279.0,0.0101
2278.0,0.0101
2277.0,0.01
2276.0,0.0099
2275.0,0.0099
2274.0,0.0099
2273.0,0.0099
2272.0,0.0099
2271.0,0.0098
2270.0,0.0097
2269.0,0.0097
2268.0,0.0097
2267.0,0.0097
2266.0,0.0097
2265.0,0.0098
2264.0,0.0099
2263.0,0.01
2262.0,0.01
2261.0,0.01
2260.0,0.01
2259.0,0.01
2258.0,0.0101
2257.0,0.0101
2256.0,0.0101
2255.0,0.0101
2254.0,0.0101
2253.0,0.0101
2252.0,0.0101
2251.0,0.0101
2250.0,0.0101
2249.0,0.0101
2248.0,0.01
2247.0,0.01
2246.0,0.01
2245.0,0.01
2244.0,0.01
2243.0,0.01
2242.0,0.01
2241.0,0.0101
2240.0,0.0101
2239.0,0.0101
2238.0,0.0101
2237.0,0.0101
2236.0,0.0101
2235.0,0.0101
2234.0,0.0101
2233.0,0.01
2232.0,0.01
2231.0,0.01
2230.0,0.0099
2229.0,0.0099
2228.0,0.0099
2227.0,0.0099
2226.0,0.0099
2225.0,0.0099
2224.0,0.0098
2223.0,0.0098
2222.0,0.0098
2221.0,0.0097
2220.0,0.0098
2219.0,0.0098
2218.0,0.0099
2217.0,0.0099
2216.0,0.0099
2215.0,0.0098
2214.0,0.0098
2213.0,0.0097
2212.0,0.0097
2211.0,0.0097
2210.0,0.0096
2209.0,0.0095
2208.0,0.0095
2207.0,0.0094
2206.0,0.0094
2205.0,0.0094
2204.0,0.0094
2203.0,0.0094
2202.0,0.0094
2201.0,0.0093
2200.0,0.0092
2199.0,0.0092
2198.0,0.0092
2197.0,0.0092
2196.0,0.0092
2195.0,0.0092
2194.0,0.0092
2193.0,0.0092
2192.0,0.0092
2191.0,0.0092
2190.0,0.0092
2189.0,0.0092
2188.0,0.0092
2187.0,0.0091
2186.0,0.0091
2185.0,0.0091
2184.0,0.009
2183.0,0.009
2182.0,0.009
2181.0,0.009
2180.0,0.009
2179.0,0.009
2178.0,0.009
2177.0,0.009
2176.0,0.009
2175.0,0.0091
2174.0,0.0091
2173.0,0.0091
2172.0,0.0091
2171.0,0.0092
2170.0,0.0092
2169.0,0.0092
2168.0,0.0092
2167.0,0.0091
2166.0,0.0091
2165.0,0.0091
2164.0,0.0091
2163.0,0.0092
2162.0,0.0092
2161.0,0.0092
2160.0,0.0092
2159.0,0.0092
2158.0,0.0093
2157.0,0.0093
2156.0,0.0094
2155.0,0.0094
2154.0,0.0094
2153.0,0.0094
2152.0,0.0094
2151.0,0.0094
2150.0,0.0094
2149.0,0.0094
2148.0,0.0094
2147.0,0.0094
2146.0,0.0094
2145.0,0.0094
2144.0,0.0094
2143.0,0.0094
2142.0,0.0094
2141.0,0.0094
2140.0,0.0093
2139.0,0.0093
2138.0,0.0093
2137.0,0.0093
2136.0,0.0093
2135.0,0.0093
2134.0,0.0093
2133.0,0.0093
2132.0,0.0093
2131.0,0.0093
2130.0,0.0093
2129.0,0.0093
2128.0,0.0092
2127.0,0.0091
2126.0,0.0091
2125.0,0.0091
2124.0,0.0092
2123.0,0.0092
2122.0,0.0092
2121.0,0.0092
2120.0,0.0092
2119.0,0.0091
2118.0,0.0091
2117.0,0.0091
2116.0,0.0091
2115.0,0.0091
2114.0,0.0091
2113.0,0.0091
2112.0,0.009
2111.0,0.009
2110.0,0.009
2109.0,0.009
2108.0,0.009
2107.0,0.009
2106.0,0.009
2105.0,0.009
2104.0,0.009
2103.0,0.009
2102.0,0.0089
2101.0,0.0089
2100.0,0.0088
2099.0,0.0087
2098.0,0.0087
2097.0,0.0086
2096.0,0.0087
2095.0,0.0087
2094.0,0.0087
2093.0,0.0086
2092.0,0.0086
2091.0,0.0085
2090.0,0.0084
2089.0,0.0083
2088.0,0.0083
2087.0,0.0082
2086.0,0.0082
2085.0,0.0082
2084.0,0.0082
2083.0,0.0082
2082.0,0.0081
2081.0,0.0081
2080.0,0.0081
2079.0,0.008
2078.0,0.008
2077.0,0.0079
2076.0,0.0079
2075.0,0.0079
2074.0,0.0079
2073.0,0.0078
2072.0,0.0078
2071.0,0.0077
2070.0,0.0076
2069.0,0.0076
2068.0,0.0075
2067.0,0.0075
2066.0,0.0075
2065.0,0.0075
2064.0,0.0074
2063.0,0.0073
2062.0,0.0072
2061.0,0.0071
2060.0,0.007
2059.0,0.007
2058.0,0.007
2057.0,0.007
2056.0,0.007
2055.0,0.007
2054.0,0.0069
2053.0,0.0068
2052.0,0.0067
2051.0,0.0067
2050.0,0.0066
2049.0,0.0066
2048.0,0.0065
2047.0,0.0065
2046.0,0.0065
2045.0,0.0065
2044.0,0.0064
2043.0,0.0064
2042.0,0.0063
2041.0,0.0063
2040.0,0.0062
2039.0,0.0061
2038.0,0.0061
2037.0,0.0062
2036.0,0.0062
2035.0,0.0062
2034.0,0.0062
2033.0,0.0061
2032.0,0.0061
2031.0,0.0061
2030.0,0.0061
2029.0,0.0061
2028.0,0.006
2027.0,0.006
2026.0,0.006
2025.0,0.006
2024.0,0.006
2023.0,0.006
2022.0,0.006
2021.0,0.006
2020.0,0.006
2019.0,0.006
2018.0,0.006
2017.0,0.006
2016.0,0.006
2015.0,0.006
2014.0,0.006
2013.0,0.006
2012.0,0.0059
2011.0,0.006
2010.0,0.006
2009.0,0.006
2008.0,0.006
2007.0,0.006
2006.0,0.006
2005.0,0.006
2004.0,0.006
2003.0,0.006
2002.0,0.006
2001.0,0.0061
2000.0,0.0061
1999.0,0.0062
1998.0,0.0062
1997.0,0.0063
1996.0,0.0063
1995.0,0.0064
1994.0,0.0065
1993.0,0.0065
1992.0,0.0066
1991.0,0.0066
1990.0,0.0066
1989.0,0.0066
1988.0,0.0065
1987.0,0.0065
1986.0,0.0065
1985.0,0.0065
1984.0,0.0066
1983.0,0.0066
1982.0,0.0066
1981.0,0.0066
1980.0,0.0066
1979.0,0.0066
1978.0,0.0066
1977.0,0.0066
1976.0,0.0066
1975.0,0.0066
1974.0,0.0067
1973.0,0.0067
1972.0,0.0068
1971.0,0.0069
1970.0,0.007
1969.0,0.007
1968.0,0.0071
1967.0,0.0072
1966.0,0.0073
1965.0,0.0073
1964.0,0.0073
1963.0,0.0074
1962.0,0.0076
1961.0,0.0077
1960.0,0.0077
1959.0,0.0079
1958.0,0.008
1957.0,0.008
1956.0,0.0081
1955.0,0.0082
1954.0,0.0082
1953.0,0.0083
1952.0,0.0083
1951.0,0.0083
1950.0,0.0084
1949.0,0.0083
1948.0,0.0083
1947.0,0.0083
1946.0,0.0082
1945.0,0.0082
1944.0,0.0081
1943.0,0.0079
1942.0,0.0077
1941.0,0.0075
1940.0,0.0073
1939.0,0.0071
1938.0,0.0069
1937.0,0.0067
1936.0,0.0065
1935.0,0.0064
1934.0,0.0063
1933.0,0.0061
1932.0,0.0059
1931.0,0.0058
1930.0,0.0056
1929.0,0.0055
1928.0,0.0053
1927.0,0.0052
1926.0,0.0052
1925.0,0.0051
1924.0,0.0051
1923.0,0.005
1922.0,0.0048
1921.0,0.0046
1920.0,0.0043
1919.0,0.0041
1918.0,0.004
1917.0,0.0039
1916.0,0.0039
1915.0,0.0038
1914.0,0.0037
1913.0,0.0036
1912.0,0.0035
1911.0,0.0034
1910.0,0.0033
1909.0,0.0032
1908.0,0.003
1907.0,0.0029
1906.0,0.0028
1905.0,0.0027
1904.0,0.0026
1903.0,0.0024
1902.0,0.0023
1901.0,0.0022
1900.0,0.0021
1899.0,0.002
1898.0,0.0019
1897.0,0.0018
1896.0,0.0016
1895.0,0.0015
1894.0,0.0014
1893.0,0.0013
1892.0,0.0013
1891.0,0.0012
1890.0,0.0011
1889.0,0.001
1888.0,0.0008
1887.0,0.0007
1886.0,0.0006
1885.0,0.0005
1884.0,0.0003
1883.0,0.0002
1882.0,0.0001
1881.0,0.0
1880.0,-0.0001
1879.0,-0.0002
1878.0,-0.0002
1877.0,-0.0003
1876.0,-0.0004
1875.0,-0.0005
1874.0,-0.0005
1873.0,-0.0005
1872.0,-0.0006
1871.0,-0.0006
1870.0,-0.0006
1869.0,-0.0006
1868.0,-0.0006
1867.0,-0.0007
1866.0,-0.0008
1865.0,-0.001
1864.0,-0.0011
1863.0,-0.0011
1862.0,-0.0012
1861.0,-0.0012
1860.0,-0.0013
1859.0,-0.0014
1858.0,-0.0014
1857.0,-0.0015
1856.0,-0.0015
1855.0,-0.0015
1854.0,-0.0015
1853.0,-0.0015
1852.0,-0.0015
1851.0,-0.0014
1850.0,-0.0013
1849.0,-0.0012
1848.0,-0.0012
1847.0,-0.0013
1846.0,-0.0014
1845.0,-0.0015
1844.0,-0.0015
1843.0,-0.0014
1842.0,-0.0013
1841.0,-0.0012
1840.0,-0.0013
1839.0,-0.0012
1838.0,-0.0011
1837.0,-0.0011
1836.0,-0.0011
1835.0,-0.001
1834.0,-0.001
1833.0,-0.0009
1832.0,-0.0009
1831.0,-0.0008
1830.0,-0.0007
1829.0,-0.0007
1828.0,-0.0007
1827.0,-0.0007
1826.0,-0.0007
1825.0,-0.0009
1824.0,-0.001
1823.0,-0.0011
1822.0,-0.0013
1821.0,-0.0014
1820.0,-0.0016
1819.0,-0.0017
1818.0,-0.0018
1817.0,-0.002
1816.0,-0.0021
1815.0,-0.0022
1814.0,-0.0022
1813.0,-0.0023
1812.0,-0.0025
1811.0,-0.0027
1810.0,-0.0029
1809.0,-0.0031
1808.0,-0.0034
1807.0,-0.0035
1806.0,-0.0036
1805.0,-0.0037
1804.0,-0.0038
1803.0,-0.0038
1802.0,-0.0039
1801.0,-0.0042
1800.0,-0.0045
1799.0,-0.0046
1798.0,-0.0047
1797.0,-0.0048
1796.0,-0.0049
1795.0,-0.005
1794.0,-0.0052
1793.0,-0.0055
1792.0,-0.0058
1791.0,-0.006
1790.0,-0.0061
1789.0,-0.0063
1788.0,-0.0065
1787.0,-0.0066
1786.0,-0.0066
1785.0,-0.0068
1784.0,-0.0069
1783.0,-0.0068
1782.0,-0.0068
1781.0,-0.0069
1780.0,-0.0071
1779.0,-0.0072
1778.0,-0.0072
1777.0,-0.0073
1776.0,-0.0075
1775.0,-0.0075
1774.0,-0.0075
1773.0,-0.0077
1772.0,-0.0079
1771.0,-0.0078
1770.0,-0.0077
1769.0,-0.0077
1768.0,-0.0077
1767.0,-0.0073
1766.0,-0.0069
1765.0,-0.0066
1764.0,-0.0063
1763.0,-0.0057
1762.0,-0.005
1761.0,-0.0045
1760.0,-0.0039
1759.0,-0.0031
1758.0,-0.002
1757.0,-0.001
1756.0,0.0002
1755.0,0.0017
1754.0,0.0033
1753.0,0.005
1752.0,0.0073
1751.0,0.0107
1750.0,0.0147
1749.0,0.019
1748.0,0.0236
1747.0,0.0288
1746.0,0.0347
1745.0,0.0413
1744.0,0.0492
1743.0,0.0581
1742.0,0.0675
1741.0,0.0785
1740.0,0.0921
1739.0,0.1064
1738.0,0.118
1737.0,0.1267
1736.0,0.1366
1735.0,0.1543
1734.0,0.1792
1733.0,0.2001
1732.0,0.2147
1731.0,0.2294
1730.0,0.2463
1729.0,0.2643
1728.0,0.2816
1727.0,0.2984
1726.0,0.3158
1725.0,0.3346
1724.0,0.355
1723.0,0.3753
1722.0,0.3927
1721.0,0.4058
1720.0,0.4168
1719.0,0.4315
1718.0,0.4521
1717.0,0.4695
1716.0,0.4763
1715.0,0.4766
1714.0,0.4725
1713.0,0.4627
1712.0,0.4474
1711.0,0.4283
1710.0,0.4072
1709.0,0.3846
1708.0,0.3603
1707.0,0.3336
1706.0,0.3052
1705.0,0.2801
1704.0,0.2613
1703.0,0.2464
1702.0,0.2311
1701.0,0.2122
1700.0,0.1938
1699.0,0.1816
1698.0,0.1733
1697.0,0.1644
1696.0,0.1544
1695.0,0.1459
1694.0,0.1403
1693.0,0.136
1692.0,0.1317
1691.0,0.127
1690.0,0.1225
1689.0,0.1188
1688.0,0.1157
1687.0,0.1126
1686.0,0.1094
1685.0,0.1064
1684.0,0.1039
1683.0,0.1017
1682.0,0.0995
1681.0,0.0971
1680.0,0.0946
1679.0,0.0919
1678.0,0.0892
1677.0,0.0866
1676.0,0.084
1675.0,0.0816
1674.0,0.0797
1673.0,0.078
1672.0,0.0762
1671.0,0.0741
1670.0,0.0719
1669.0,0.07
1668.0,0.0684
1667.0,0.0667
1666.0,0.065
1665.0,0.0634
1664.0,0.0616
1663.0,0.0598
1662.0,0.0582
1661.0,0.0569
1660.0,0.0557
1659.0,0.0545
1658.0,0.0534
1657.0,0.0522
1656.0,0.0509
1655.0,0.0494
1654.0,0.0481
1653.0,0.0476
1652.0,0.0474
1651.0,0.0472
1650.0,0.0468
1649.0,0.0461
1648.0,0.0454
1647.0,0.0446
1646.0,0.0439
1645.0,0.0434
1644.0,0.0429
1643.0,0.0423
1642.0,0.0417
1641.0,0.0412
1640.0,0.0408
1639.0,0.0402
1638.0,0.0395
1637.0,0.039
1636.0,0.0387
1635.0,0.0383
1634.0,0.038
1633.0,0.0377
1632.0,0.0373
1631.0,0.0369
1630.0,0.0364
1629.0,0.0361
1628.0,0.0358
1627.0,0.0354
1626.0,0.035
1625.0,0.0346
1624.0,0.0345
1623.0,0.0345
1622.0,0.0346
1621.0,0.0346
1620.0,0.0346
1619.0,0.0346
1618.0,0.0352
1617.0,0.0366
1616.0,0.0381
1615.0,0.0387
1614.0,0.0387
1613.0,0.0383
1612.0,0.0377
1611.0,0.0369
1610.0,0.036
1609.0,0.0351
1608.0,0.0341
1607.0,0.0331
1606.0,0.0321
1605.0,0.0311
1604.0,0.0302
1603.0,0.0293
1602.0,0.0284
1601.0,0.0277
1600.0,0.027
1599.0,0.0264
1598.0,0.0258
1597.0,0.0254
1596.0,0.0251
1595.0,0.0249
1594.0,0.0247
1593.0,0.0245
1592.0,0.0244
1591.0,0.0243
1590.0,0.0243
1589.0,0.0245
1588.0,0.0249
1587.0,0.0256
1586.0,0.0267
1585.0,0.0285
1584.0,0.0309
1583.0,0.0338
1582.0,0.0371
1581.0,0.0402
1580.0,0.0426
1579.0,0.044
1578.0,0.0441
1577.0,0.0427
1576.0,0.0403
1575.0,0.0379
1574.0,0.0359
1573.0,0.0342
1572.0,0.0324
1571.0,0.0306
1570.0,0.0288
1569.0,0.0274
1568.0,0.0264
1567.0,0.0257
1566.0,0.025
1565.0,0.0243
1564.0,0.0237
1563.0,0.023
1562.0,0.0221
1561.0,0.0214
1560.0,0.0212
1559.0,0.0212
1558.0,0.0207
1557.0,0.0204
1556.0,0.0201
1555.0,0.0198
1554.0,0.0195
1553.0,0.0193
1552.0,0.0192
1551.0,0.0189
1550.0,0.0185
1549.0,0.0181
1548.0,0.0178
1547.0,0.0176
1546.0,0.0174
1545.0,0.0173
1544.0,0.0171
1543.0,0.0169
1542.0,0.0166
1541.0,0.0165
1540.0,0.0163
1539.0,0.016
1538.0,0.0159
1537.0,0.016
1536.0,0.0161
1535.0,0.0161
1534.0,0.0162
1533.0,0.0165
1532.0,0.0167
1531.0,0.0167
1530.0,0.0167
1529.0,0.0168
1528.0,0.0168
1527.0,0.0168
1526.0,0.0167
1525.0,0.0166
1524.0,0.0163
1523.0,0.0159
1522.0,0.0155
1521.0,0.0153
1520.0,0.0153
1519.0,0.0152
1518.0,0.0152
1517.0,0.0151
1516.0,0.015
1515.0,0.015
1514.0,0.0151
1513.0,0.0157
1512.0,0.0168
1511.0,0.0184
1510.0,0.0203
1509.0,0.0232
1508.0,0.029
1507.0,0.0384
1506.0,0.0444
1505.0,0.0452
1504.0,0.0433
1503.0,0.0398
1502.0,0.0353
1501.0,0.0304
1500.0,0.0258
1499.0,0.0217
1498.0,0.0181
1497.0,0.0153
1496.0,0.0134
1495.0,0.0122
1494.0,0.0114
1493.0,0.0109
1492.0,0.0106
1491.0,0.0103
1490.0,0.01
1489.0,0.0098
1488.0,0.0097
1487.0,0.0096
1486.0,0.0095
1485.0,0.0096
1484.0,0.0099
1483.0,0.0101
1482.0,0.0103
1481.0,0.0107
1480.0,0.0112
1479.0,0.0116
1478.0,0.012
1477.0,0.0125
1476.0,0.013
1475.0,0.0134
1474.0,0.0137
1473.0,0.0143
1472.0,0.0151
1471.0,0.0158
1470.0,0.0165
1469.0,0.0174
1468.0,0.0185
1467.0,0.0199
1466.0,0.0219
1465.0,0.0248
1464.0,0.0279
1463.0,0.0305
1462.0,0.0327
1461.0,0.0349
1460.0,0.0371
1459.0,0.0396
1458.0,0.0431
1457.0,0.0472
1456.0,0.05
1455.0,0.0513
1454.0,0.0519
1453.0,0.0523
1452.0,0.0524
1451.0,0.0521
1450.0,0.0517
1449.0,0.0513
1448.0,0.0508
1447.0,0.0504
1446.0,0.05
1445.0,0.0498
1444.0,0.0496
1443.0,0.0492
1442.0,0.0487
1441.0,0.0481
1440.0,0.0473
1439.0,0.046
1438.0,0.044
1437.0,0.0414
1436.0,0.0385
1435.0,0.0359
1434.0,0.0335
1433.0,0.0309
1432.0,0.028
1431.0,0.025
1430.0,0.0221
1429.0,0.0196
1428.0,0.0177
1427.0,0.0164
1426.0,0.0154
1425.0,0.0147
1424.0,0.0143
1423.0,0.0143
1422.0,0.0145
1421.0,0.0154
1420.0,0.0178
1419.0,0.0223
1418.0,0.0283
1417.0,0.0354
1416.0,0.044
1415.0,0.0547
1414.0,0.068
1413.0,0.0838
1412.0,0.1008
1411.0,0.1161
1410.0,0.127
1409.0,0.1321
1408.0,0.1315
1407.0,0.1257
1406.0,0.116
1405.0,0.1049
1404.0,0.0948
1403.0,0.0867
1402.0,0.0803
1401.0,0.0747
1400.0,0.0693
1399.0,0.0643
1398.0,0.0601
1397.0,0.0568
1396.0,0.0535
1395.0,0.05
1394.0,0.0468
1393.0,0.0442
1392.0,0.0421
1391.0,0.0401
1390.0,0.0383
1389.0,0.0365
1388.0,0.035
1387.0,0.0338
1386.0,0.033
1385.0,0.0327
1384.0,0.0328
1383.0,0.0333
1382.0,0.0343
1381.0,0.0358
1380.0,0.0377
1379.0,0.0401
1378.0,0.0426
1377.0,0.0452
1376.0,0.0481
1375.0,0.0514
1374.0,0.0546
1373.0,0.0572
1372.0,0.0589
1371.0,0.0596
1370.0,0.0594
1369.0,0.0579
1368.0,0.0552
1367.0,0.0515
1366.0,0.0472
1365.0,0.0423
1364.0,0.0369
1363.0,0.0312
1362.0,0.026
1361.0,0.0221
1360.0,0.0193
1359.0,0.0171
1358.0,0.0154
1357.0,0.0141
1356.0,0.013
1355.0,0.0123
1354.0,0.0118
1353.0,0.0118
1352.0,0.0121
1351.0,0.0127
1350.0,0.0138
1349.0,0.0152
1348.0,0.017
1347.0,0.0192
1346.0,0.0217
1345.0,0.0244
1344.0,0.0272
1343.0,0.0297
1342.0,0.0319
1341.0,0.0334
1340.0,0.0338
1339.0,0.0329
1338.0,0.0309
1337.0,0.028
1336.0,0.0249
1335.0,0.0217
1334.0,0.0189
1333.0,0.0166
1332.0,0.0151
1331.0,0.0142
1330.0,0.0139
1329.0,0.0143
1328.0,0.0151
1327.0,0.0164
1326.0,0.018
1325.0,0.0199
1324.0,0.0221
1323.0,0.0243
1322.0,0.0266
1321.0,0.0289
1320.0,0.0313
1319.0,0.0337
1318.0,0.0359
1317.0,0.0381
1316.0,0.0404
1315.0,0.0428
1314.0,0.0455
1313.0,0.0484
1312.0,0.0515
1311.0,0.0548
1310.0,0.0583
1309.0,0.062
1308.0,0.0658
1307.0,0.0696
1306.0,0.0732
1305.0,0.0768
1304.0,0.0808
1303.0,0.0852
1302.0,0.0903
1301.0,0.0963
1300.0,0.1034
1299.0,0.1113
1298.0,0.1198
1297.0,0.1288
1296.0,0.1381
1295.0,0.1474
1294.0,0.1565
1293.0,0.1656
1292.0,0.1745
1291.0,0.1831
1290.0,0.1912
1289.0,0.1992
1288.0,0.2068
1287.0,0.2139
1286.0,0.2202
1285.0,0.2259
1284.0,0.2312
1283.0,0.2358
1282.0,0.2397
1281.0,0.2432
1280.0,0.2464
1279.0,0.2491
1278.0,0.2516
1277.0,0.2543
1276.0,0.2578
1275.0,0.262
1274.0,0.2674
1273.0,0.2745
1272.0,0.2837
1271.0,0.2947
1270.0,0.3072
1269.0,0.3211
1268.0,0.3363
1267.0,0.3521
1266.0,0.3679
1265.0,0.3839
1264.0,0.3996
1263.0,0.414
1262.0,0.4265
1261.0,0.4374
1260.0,0.4463
1259.0,0.4526
1258.0,0.4564
1257.0,0.4591
1256.0,0.4616
1255.0,0.464
1254.0,0.4668
1253.0,0.4709
1252.0,0.4766
1251.0,0.4832
1250.0,0.4905
1249.0,0.4991
1248.0,0.5088
1247.0,0.5186
1246.0,0.5281
1245.0,0.5376
1244.0,0.5466
1243.0,0.5539
1242.0,0.5586
1241.0,0.561
1240.0,0.5606
1239.0,0.556
1238.0,0.5469
1237.0,0.5339
1236.0,0.5173
1235.0,0.497
1234.0,0.4739
1233.0,0.4498
1232.0,0.4256
1231.0,0.4015
1230.0,0.3781
1229.0,0.3563
1228.0,0.336
1227.0,0.3168
1226.0,0.2988
1225.0,0.2821
1224.0,0.2667
1223.0,0.2522
1222.0,0.2388
1221.0,0.2265
1220.0,0.2153
1219.0,0.205
1218.0,0.1954
1217.0,0.1866
1216.0,0.1787
1215.0,0.1713
1214.0,0.1645
1213.0,0.1582
1212.0,0.1525
1211.0,0.1472
1210.0,0.1422
1209.0,0.1376
1208.0,0.1332
1207.0,0.1291
1206.0,0.1251
1205.0,0.1214
1204.0,0.1178
1203.0,0.1144
1202.0,0.111
1201.0,0.1078
1200.0,0.1049
1199.0,0.102
1198.0,0.0991
1197.0,0.0963
1196.0,0.0936
1195.0,0.0909
1194.0,0.0883
1193.0,0.0858
1192.0,0.0836
1191.0,0.0815
1190.0,0.0796
1189.0,0.0781
1188.0,0.0768
1187.0,0.0759
1186.0,0.0754
1185.0,0.0754
1184.0,0.0759
1183.0,0.0769
1182.0,0.0784
1181.0,0.0802
1180.0,0.0824
1179.0,0.0845
1178.0,0.0865
1177.0,0.0882
1176.0,0.0895
1175.0,0.0902
1174.0,0.0901
1173.0,0.089
1172.0,0.0869
1171.0,0.084
1170.0,0.0804
1169.0,0.0765
1168.0,0.0725
1167.0,0.0688
1166.0,0.0654
1165.0,0.0627
1164.0,0.0605
1163.0,0.0588
1162.0,0.0574
1161.0,0.0563
1160.0,0.0556
1159.0,0.0553
1158.0,0.0554
1157.0,0.056
1156.0,0.0571
1155.0,0.0587
1154.0,0.0608
1153.0,0.0636
1152.0,0.067
1151.0,0.0711
1150.0,0.0759
1149.0,0.0813
1148.0,0.0873
1147.0,0.0938
1146.0,0.1008
1145.0,0.1081
1144.0,0.1156
1143.0,0.123
1142.0,0.1302
1141.0,0.1372
1140.0,0.1439
1139.0,0.1501
1138.0,0.1558
1137.0,0.1612
1136.0,0.1661
1135.0,0.1707
1134.0,0.1752
1133.0,0.1798
1132.0,0.1847
1131.0,0.19
1130.0,0.1958
1129.0,0.2024
1128.0,0.2101
1127.0,0.2188
1126.0,0.2285
1125.0,0.2392
1124.0,0.2507
1123.0,0.2623
1122.0,0.2733
1121.0,0.2835
1120.0,0.292
1119.0,0.2983
1118.0,0.3018
1117.0,0.3027
1116.0,0.3012
1115.0,0.2976
1114.0,0.2927
1113.0,0.2878
1112.0,0.2842
1111.0,0.2829
1110.0,0.2845
1109.0,0.2899
1108.0,0.2989
1107.0,0.311
1106.0,0.3254
1105.0,0.342
1104.0,0.3605
1103.0,0.38
1102.0,0.3999
1101.0,0.4201
1100.0,0.4398
1099.0,0.4579
1098.0,0.4735
1097.0,0.4868
1096.0,0.4972
1095.0,0.5041
1094.0,0.507
1093.0,0.5067
1092.0,0.5035
1091.0,0.4969
1090.0,0.4874
1089.0,0.4761
1088.0,0.4636
1087.0,0.4498
1086.0,0.4351
1085.0,0.4203
1084.0,0.4054
1083.0,0.3896
1082.0,0.373
1081.0,0.356
1080.0,0.3388
1079.0,0.3214
1078.0,0.304
1077.0,0.2872
1076.0,0.2714
1075.0,0.2564
1074.0,0.2424
1073.0,0.2296
1072.0,0.218
1071.0,0.2075
1070.0,0.1979
1069.0,0.1893
1068.0,0.1817
1067.0,0.1748
1066.0,0.1686
1065.0,0.163
1064.0,0.1581
1063.0,0.1538
1062.0,0.15
1061.0,0.1471
1060.0,0.145
1059.0,0.1437
1058.0,0.1432
1057.0,0.1436
1056.0,0.145
1055.0,0.1471
1054.0,0.1501
1053.0,0.1537
1052.0,0.1579
1051.0,0.1624
1050.0,0.167
1049.0,0.1717
1048.0,0.1764
1047.0,0.1808
1046.0,0.1846
1045.0,0.1879
1044.0,0.1905
1043.0,0.1923
1042.0,0.193
1041.0,0.1929
1040.0,0.192
1039.0,0.1903
1038.0,0.1879
1037.0,0.1853
1036.0,0.1827
1035.0,0.18
1034.0,0.1774
1033.0,0.1749
1032.0,0.1727
1031.0,0.1705
1030.0,0.1684
1029.0,0.1665
1028.0,0.1649
1027.0,0.1639
1026.0,0.1641
1025.0,0.1665
1024.0,0.1723
1023.0,0.1826
1022.0,0.1982
1021.0,0.2193
1020.0,0.2445
1019.0,0.2705
1018.0,0.2925
1017.0,0.305
1016.0,0.3042
1015.0,0.2899
1014.0,0.2663
1013.0,0.2399
1012.0,0.2154
1011.0,0.195
1010.0,0.1787
1009.0,0.1658
1008.0,0.1555
1007.0,0.1471
1006.0,0.1402
1005.0,0.1347
1004.0,0.1302
1003.0,0.1264
1002.0,0.123
1001.0,0.12
1000.0,0.1174
999.0,0.1149
998.0,0.1127
997.0,0.1108
996.0,0.109
995.0,0.1074
994.0,0.106
993.0,0.1049
992.0,0.104
991.0,0.1032
990.0,0.1025
989.0,0.1019
988.0,0.1014
987.0,0.1009
986.0,0.1005
985.0,0.1003
984.0,0.1002
983.0,0.1002
982.0,0.1002
981.0,0.1003
980.0,0.1004
979.0,0.1004
978.0,0.1004
977.0,0.1005
976.0,0.1005
975.0,0.1004
974.0,0.1001
973.0,0.0997
972.0,0.0992
971.0,0.0984
970.0,0.0973
969.0,0.0961
968.0,0.0947
967.0,0.0933
966.0,0.0918
965.0,0.0903
964.0,0.0889
963.0,0.0874
962.0,0.0859
961.0,0.0845
960.0,0.0832
959.0,0.0822
958.0,0.0812
957.0,0.0804
956.0,0.0796
955.0,0.0787
954.0,0.0779
953.0,0.0772
952.0,0.0767
951.0,0.0761
950.0,0.0755
949.0,0.075
948.0,0.0745
947.0,0.0741
946.0,0.0737
945.0,0.0733
944.0,0.0729
943.0,0.0726
942.0,0.0723
941.0,0.072
940.0,0.0717
939.0,0.0714
938.0,0.0711
937.0,0.0708
936.0,0.0707
935.0,0.0705
934.0,0.0701
933.0,0.0697
932.0,0.0693
931.0,0.0689
930.0,0.0685
929.0,0.0681
928.0,0.0678
927.0,0.0674
926.0,0.0669
925.0,0.0665
924.0,0.0661
923.0,0.0658
922.0,0.0654
921.0,0.0651
920.0,0.0648
919.0,0.0645
918.0,0.0644
917.0,0.0644
916.0,0.0647
915.0,0.0652
914.0,0.0659
913.0,0.0669
912.0,0.0682
911.0,0.07
910.0,0.0721
909.0,0.0747
908.0,0.0777
907.0,0.081
906.0,0.0844
905.0,0.0881
904.0,0.0918
903.0,0.0954
902.0,0.0986
901.0,0.1014
900.0,0.1038
899.0,0.1056
898.0,0.1069
897.0,0.1079
896.0,0.1086
895.0,0.109
894.0,0.1093
893.0,0.1095
892.0,0.1097
891.0,0.1099
890.0,0.1104
889.0,0.1111
888.0,0.1122
887.0,0.1137
886.0,0.1155
885.0,0.1178
884.0,0.1207
883.0,0.1242
882.0,0.1285
881.0,0.1337
880.0,0.1399
879.0,0.1468
878.0,0.1544
877.0,0.1622
876.0,0.1699
875.0,0.1765
874.0,0.1813
873.0,0.1835
872.0,0.1826
871.0,0.1784
870.0,0.1715
869.0,0.1629
868.0,0.1537
867.0,0.1445
866.0,0.136
865.0,0.1286
864.0,0.1224
863.0,0.1174
862.0,0.1134
861.0,0.1103
860.0,0.1081
859.0,0.1065
858.0,0.1055
857.0,0.1049
856.0,0.1045
855.0,0.1042
854.0,0.104
853.0,0.1038
852.0,0.1037
851.0,0.1036
850.0,0.1035
849.0,0.1037
848.0,0.1039
847.0,0.1041
846.0,0.1041
845.0,0.1042
844.0,0.1043
843.0,0.1043
842.0,0.1045
841.0,0.1046
840.0,0.1046
839.0,0.1042
838.0,0.1033
837.0,0.1023
836.0,0.1011
835.0,0.0998
834.0,0.0984
833.0,0.097
832.0,0.0956
831.0,0.0942
830.0,0.0928
829.0,0.0915
828.0,0.0904
827.0,0.0893
826.0,0.0884
825.0,0.0877
824.0,0.0872
823.0,0.0868
822.0,0.0862
821.0,0.0858
820.0,0.0855
819.0,0.0852
818.0,0.085
817.0,0.085
816.0,0.0852
815.0,0.0854
814.0,0.0854
813.0,0.0854
812.0,0.0853
811.0,0.0852
810.0,0.085
809.0,0.085
808.0,0.0849
807.0,0.0848
806.0,0.0845
805.0,0.0841
804.0,0.0836
803.0,0.083
802.0,0.0821
801.0,0.0813
800.0,0.0809
799.0,0.0816
798.0,0.084
797.0,0.0881
796.0,0.0932
795.0,0.0979
794.0,0.1011
793.0,0.1022
792.0,0.1012
791.0,0.0982
790.0,0.094
789.0,0.0895
788.0,0.0851
787.0,0.0809
786.0,0.0771
785.0,0.0737
784.0,0.0708
783.0,0.0684
782.0,0.0662
781.0,0.0643
780.0,0.0626
779.0,0.061
778.0,0.0596
777.0,0.0584
776.0,0.0574
775.0,0.0564
774.0,0.0553
773.0,0.0541
772.0,0.0528
771.0,0.0514
770.0,0.0501
769.0,0.049
768.0,0.048
767.0,0.0469
766.0,0.0455
765.0,0.0442
764.0,0.043
763.0,0.0419
762.0,0.0408
761.0,0.0397
760.0,0.0385
759.0,0.0373
758.0,0.0361
757.0,0.0349
756.0,0.0337
755.0,0.0325
754.0,0.0313
753.0,0.0302
752.0,0.0293
751.0,0.0285
750.0,0.0278
749.0,0.0273
748.0,0.027
747.0,0.0271
746.0,0.0279
745.0,0.03
744.0,0.034
743.0,0.0402
742.0,0.0491
741.0,0.0616
740.0,0.0776
739.0,0.0971
738.0,0.1193
737.0,0.1437
736.0,0.1697
735.0,0.1964
734.0,0.2237
733.0,0.2523
732.0,0.2829
731.0,0.316
730.0,0.3523
729.0,0.3935
728.0,0.4401
727.0,0.4897
726.0,0.5364
725.0,0.5714
724.0,0.585
723.0,0.5711
722.0,0.5318
721.0,0.4768
720.0,0.4188
719.0,0.3675
718.0,0.3262
717.0,0.2935
716.0,0.2673
715.0,0.2463
714.0,0.23
713.0,0.2177
712.0,0.2085
711.0,0.2012
710.0,0.1949
709.0,0.1893
708.0,0.1841
707.0,0.1789
706.0,0.1735
705.0,0.1681
704.0,0.163
703.0,0.1581
702.0,0.1529
701.0,0.1475
700.0,0.1419
699.0,0.1362
698.0,0.1307
697.0,0.1257
696.0,0.1211
695.0,0.1168
694.0,0.1131
693.0,0.1103
692.0,0.1085
691.0,0.1073
690.0,0.1062
689.0,0.1051
688.0,0.104
687.0,0.1031
686.0,0.1024
685.0,0.1021
684.0,0.1022
683.0,0.1024
682.0,0.1024
681.0,0.1025
680.0,0.1027
679.0,0.1025
678.0,0.1011
677.0,0.0983
676.0,0.0947
675.0,0.091
674.0,0.0883
673.0,0.0869
672.0,0.0867
671.0,0.0877
670.0,0.09
669.0,0.0936
668.0,0.0975
667.0,0.0975
666.0,0.0926
665.0,0.0868
664.0,0.0827
663.0,0.0803
662.0,0.0792
661.0,0.079
660.0,0.0791
659.0,0.0792
658.0,0.0792
657.0,0.0792
656.0,0.0794
655.0,0.0794
654.0,0.079
653.0,0.0781
652.0,0.0768
651.0,0.0754
650.0,0.0741
649.0,0.0733
648.0,0.0732
647.0,0.0733
646.0,0.0735
645.0,0.0737
644.0,0.0737
643.0,0.0736
642.0,0.0732
641.0,0.0727
640.0,0.0724
639.0,0.0725
638.0,0.0734
637.0,0.0754
636.0,0.0787
635.0,0.0831
634.0,0.0874
633.0,0.0902
632.0,0.0899
631.0,0.0865
630.0,0.0815
629.0,0.0771
628.0,0.0746
627.0,0.0739
626.0,0.0743
625.0,0.0747
624.0,0.0746
623.0,0.074
622.0,0.0737
621.0,0.0736
620.0,0.0737
619.0,0.0735
618.0,0.0729
617.0,0.0724
616.0,0.0723
615.0,0.0723
614.0,0.0723
613.0,0.0724
612.0,0.0725
611.0,0.0724
610.0,0.0721
609.0,0.0719
608.0,0.0718
607.0,0.0715
606.0,0.071
605.0,0.0707
604.0,0.0709
603.0,0.0715
602.0,0.0725
601.0,0.0732
600.0,0.0733
