cm-1,A
4000.0,0.0095
3999.0,0.0096
3998.0,0.0097
3997.0,0.0097
3996.0,0.0098
3995.0,0.0098
3994.0,0.0097
3993.0,0.0097
3992.0,0.0096
3991.0,0.0097
3990.0,0.0097
3989.0,0.0098
3988.0,0.0098
3987.0,0.0098
3986.0,0.0098
3985.0,0.0098
3984.0,0.0098
3983.0,0.0097
3982.0,0.0098
3981.0,0.0098
3980.0,0.0099
3979.0,0.0099
3978.0,0.0099
3977.0,0.0099
3976.0,0.0099
3975.0,0.0099
3974.0,0.0099
3973.0,0.0099
3972.0,0.0098
3971.0,0.0098
3970.0,0.0098
3969.0,0.0098
3968.0,0.0098
3967.0,0.0097
3966.0,0.0097
3965.0,0.0097
3964.0,0.0098
3963.0,0.0098
3962.0,0.0099
3961.0,0.0099
3960.0,0.01
3959.0,0.01
3958.0,0.01
3957.0,0.01
3956.0,0.01
3955.0,0.0099
3954.0,0.0098
3953.0,0.0097
3952.0,0.0096
3951.0,0.0096
3950.0,0.0097
3949.0,0.0097
3948.0,0.0098
3947.0,0.0098
3946.0,0.0097
3945.0,0.0098
3944.0,0.0098
3943.0,0.0099
3942.0,0.0099
3941.0,0.0099
3940.0,0.0099
3939.0,0.0099
3938.0,0.0099
3937.0,0.0099
3936.0,0.0098
3935.0,0.0097
3934.0,0.0097
3933.0,0.0096
3932.0,0.0097
3931.0,0.0097
3930.0,0.0098
3929.0,0.0099
3928.0,0.01
3927.0,0.01
3926.0,0.0099
3925.0,0.0099
3924.0,0.0098
3923.0,0.0097
3922.0,0.0096
3921.0,0.0096
3920.0,0.0096
3919.0,0.0096
3918.0,0.0097
3917.0,0.0098
3916.0,0.0099
3915.0,0.01
3914.0,0.0101
3913.0,0.0102
3912.0,0.0102
3911.0,0.0101
3910.0,0.0099
3909.0,0.0097
3908.0,0.0096
3907.0,0.0097
3906.0,0.0098
3905.0,0.0099
3904.0,0.0099
3903.0,0.0097
3902.0,0.0095
3901.0,0.0096
3900.0,0.0097
3899.0,0.0098
3898.0,0.0098
3897.0,0.0098
3896.0,0.0097
3895.0,0.0096
3894.0,0.0095
3893.0,0.0094
3892.0,0.0094
3891.0,0.0093
3890.0,0.0091
3889.0,0.0092
3888.0,0.0094
3887.0,0.0098
3886.0,0.01
3885.0,0.0098
3884.0,0.0095
3883.0,0.0093
3882.0,0.0095
3881.0,0.0098
3880.0,0.01
3879.0,0.0101
3878.0,0.01
3877.0,0.01
3876.0,0.0099
3875.0,0.0096
3874.0,0.0092
3873.0,0.009
3872.0,0.009
3871.0,0.0093
3870.0,0.0094
3869.0,0.0093
3868.0,0.0092
3867.0,0.0093
3866.0,0.0096
3865.0,0.0098
3864.0,0.0098
3863.0,0.0096
3862.0,0.0096
3861.0,0.0096
3860.0,0.0096
3859.0,0.0095
3858.0,0.0093
3857.0,0.0089
3856.0,0.0088
3855.0,0.0089
3854.0,0.0092
3853.0,0.0089
3852.0,0.0083
3851.0,0.0083
3850.0,0.0088
3849.0,0.0095
3848.0,0.0098
3847.0,0.01
3846.0,0.0099
3845.0,0.0098
3844.0,0.0096
3843.0,0.0093
3842.0,0.0089
3841.0,0.0086
3840.0,0.0086
3839.0,0.0087
3838.0,0.0088
3837.0,0.0087
3836.0,0.0087
3835.0,0.0088
3834.0,0.0091
3833.0,0.0094
3832.0,0.0095
3831.0,0.0096
3830.0,0.0096
3829.0,0.0096
3828.0,0.0098
3827.0,0.0098
3826.0,0.0097
3825.0,0.0094
3824.0,0.0091
3823.0,0.0091
3822.0,0.0094
3821.0,0.0096
3820.0,0.0094
3819.0,0.0091
3818.0,0.0093
3817.0,0.0096
3816.0,0.0099
3815.0,0.0098
3814.0,0.0097
3813.0,0.0099
3812.0,0.0101
3811.0,0.0102
3810.0,0.01
3809.0,0.0098
3808.0,0.0097
3807.0,0.0096
3806.0,0.0094
3805.0,0.0093
3804.0,0.0094
3803.0,0.0097
3802.0,0.0099
3801.0,0.0096
3800.0,0.0091
3799.0,0.009
3798.0,0.0093
3797.0,0.0097
3796.0,0.0099
3795.0,0.01
3794.0,0.01
3793.0,0.0101
3792.0,0.0103
3791.0,0.0104
3790.0,0.0105
3789.0,0.0105
3788.0,0.0104
3787.0,0.0103
3786.0,0.0102
3785.0,0.0101
3784.0,0.0099
3783.0,0.0098
3782.0,0.0098
3781.0,0.01
3780.0,0.0102
3779.0,0.0102
3778.0,0.0101
3777.0,0.01
3776.0,0.0101
3775.0,0.0102
3774.0,0.0102
3773.0,0.01
3772.0,0.0099
3771.0,0.0098
3770.0,0.0097
3769.0,0.0097
3768.0,0.0098
3767.0,0.01
3766.0,0.0102
3765.0,0.0102
3764.0,0.01
3763.0,0.0098
3762.0,0.0098
3761.0,0.0098
3760.0,0.0099
3759.0,0.0099
3758.0,0.0097
3757.0,0.0095
3756.0,0.0093
3755.0,0.0091
3754.0,0.0089
3753.0,0.0088
3752.0,0.0091
3751.0,0.0094
3750.0,0.0093
3749.0,0.0089
3748.0,0.0086
3747.0,0.0086
3746.0,0.0088
3745.0,0.0092
3744.0,0.0092
3743.0,0.009
3742.0,0.0091
3741.0,0.0094
3740.0,0.0095
3739.0,0.0093
3738.0,0.0089
3737.0,0.0087
3736.0,0.0087
3735.0,0.0088
3734.0,0.0089
3733.0,0.0091
3732.0,0.0093
3731.0,0.0095
3730.0,0.0096
3729.0,0.0097
3728.0,0.0097
3727.0,0.0096
3726.0,0.0094
3725.0,0.0094
3724.0,0.0095
3723.0,0.0097
3722.0,0.0098
3721.0,0.0099
3720.0,0.0099
3719.0,0.01
3718.0,0.01
3717.0,0.01
3716.0,0.0099
3715.0,0.0097
3714.0,0.0096
3713.0,0.0096
3712.0,0.0098
3711.0,0.0101
3710.0,0.0101
3709.0,0.01
3708.0,0.01
3707.0,0.0101
3706.0,0.0101
3705.0,0.01
3704.0,0.01
3703.0,0.0101
3702.0,0.0101
3701.0,0.01
3700.0,0.0099
3699.0,0.0099
3698.0,0.01
3697.0,0.0102
3696.0,0.0103
3695.0,0.0103
3694.0,0.0102
3693.0,0.01
3692.0,0.0097
3691.0,0.0094
3690.0,0.0093
3689.0,0.0092
3688.0,0.0091
3687.0,0.0092
3686.0,0.0097
3685.0,0.0102
3684.0,0.0106
3683.0,0.0107
3682.0,0.0106
3681.0,0.0104
3680.0,0.0102
3679.0,0.0098
3678.0,0.0095
3677.0,0.0096
3676.0,0.0099
3675.0,0.0099
3674.0,0.0096
3673.0,0.0094
3672.0,0.0096
3671.0,0.0099
3670.0,0.0102
3669.0,0.0101
3668.0,0.0101
3667.0,0.0104
3666.0,0.0107
3665.0,0.011
3664.0,0.0111
3663.0,0.0111
3662.0,0.011
3661.0,0.011
3660.0,0.0109
3659.0,0.0107
3658.0,0.0106
3657.0,0.0106
3656.0,0.0105
3655.0,0.0103
3654.0,0.01
3653.0,0.0098
3652.0,0.0096
3651.0,0.0094
3650.0,0.0095
3649.0,0.0096
3648.0,0.0097
3647.0,0.0099
3646.0,0.0102
3645.0,0.0105
3644.0,0.0107
3643.0,0.0109
3642.0,0.011
3641.0,0.011
3640.0,0.0111
3639.0,0.0112
3638.0,0.0112
3637.0,0.0113
3636.0,0.0113
3635.0,0.0113
3634.0,0.0112
3633.0,0.011
3632.0,0.0107
3631.0,0.0107
3630.0,0.0109
3629.0,0.0111
3628.0,0.0109
3627.0,0.0106
3626.0,0.0107
3625.0,0.011
3624.0,0.0112
3623.0,0.0111
3622.0,0.0108
3621.0,0.0107
3620.0,0.0107
3619.0,0.0108
3618.0,0.0109
3617.0,0.0109
3616.0,0.011
3615.0,0.0112
3614.0,0.0114
3613.0,0.0115
3612.0,0.0115
3611.0,0.0115
3610.0,0.0115
3609.0,0.0116
3608.0,0.0117
3607.0,0.0118
3606.0,0.012
3605.0,0.0121
3604.0,0.0122
3603.0,0.0121
3602.0,0.012
3601.0,0.0119
3600.0,0.0118
3599.0,0.0117
3598.0,0.0116
3597.0,0.0118
3596.0,0.012
3595.0,0.0121
3594.0,0.0122
3593.0,0.0121
3592.0,0.0119
3591.0,0.0117
3590.0,0.0115
3589.0,0.0114
3588.0,0.0115
3587.0,0.0115
3586.0,0.0116
3585.0,0.0117
3584.0,0.0119
3583.0,0.012
3582.0,0.012
3581.0,0.0119
3580.0,0.0118
3579.0,0.0118
3578.0,0.0119
3577.0,0.0119
3576.0,0.012
3575.0,0.0121
3574.0,0.0122
3573.0,0.0122
3572.0,0.0122
3571.0,0.0121
3570.0,0.012
3569.0,0.0119
3568.0,0.0119
3567.0,0.0119
3566.0,0.0119
3565.0,0.0119
3564.0,0.012
3563.0,0.0123
3562.0,0.0125
3561.0,0.0126
3560.0,0.0127
3559.0,0.0127
3558.0,0.0127
3557.0,0.0128
3556.0,0.0128
3555.0,0.0128
3554.0,0.0128
3553.0,0.0128
3552.0,0.0128
3551.0,0.0128
3550.0,0.0127
3549.0,0.0127
3548.0,0.0127
3547.0,0.0128
3546.0,0.0129
3545.0,0.013
3544.0,0.0131
3543.0,0.0131
3542.0,0.0132
3541.0,0.0133
3540.0,0.0133
3539.0,0.0133
3538.0,0.0132
3537.0,0.0132
3536.0,0.0132
3535.0,0.0131
3534.0,0.0132
3533.0,0.0132
3532.0,0.0133
3531.0,0.0134
3530.0,0.0134
3529.0,0.0134
3528.0,0.0134
3527.0,0.0134
3526.0,0.0134
3525.0,0.0135
3524.0,0.0136
3523.0,0.0136
3522.0,0.0136
3521.0,0.0135
3520.0,0.0135
3519.0,0.0135
3518.0,0.0135
3517.0,0.0134
3516.0,0.0134
3515.0,0.0134
3514.0,0.0134
3513.0,0.0135
3512.0,0.0135
3511.0,0.0135
3510.0,0.0135
3509.0,0.0135
3508.0,0.0136
3507.0,0.0135
3506.0,0.0136
3505.0,0.0137
3504.0,0.0138
3503.0,0.0139
3502.0,0.0138
3501.0,0.0137
3500.0,0.0136
3499.0,0.0136
3498.0,0.0137
3497.0,0.0137
3496.0,0.0137
3495.0,0.0136
3494.0,0.0136
3493.0,0.0137
3492.0,0.0138
3491.0,0.0139
3490.0,0.0141
3489.0,0.0141
3488.0,0.0141
3487.0,0.0139
3486.0,0.0137
3485.0,0.0136
3484.0,0.0136
3483.0,0.0136
3482.0,0.0137
3481.0,0.0139
3480.0,0.0141
3479.0,0.0142
3478.0,0.0143
3477.0,0.0142
3476.0,0.0142
3475.0,0.0141
3474.0,0.0141
3473.0,0.014
3472.0,0.014
3471.0,0.0141
3470.0,0.0141
3469.0,0.0141
3468.0,0.0141
3467.0,0.0142
3466.0,0.0142
3465.0,0.0142
3464.0,0.0142
3463.0,0.0141
3462.0,0.0141
3461.0,0.0141
3460.0,0.0142
3459.0,0.0142
3458.0,0.0142
3457.0,0.0141
3456.0,0.0141
3455.0,0.0142
3454.0,0.0142
3453.0,0.0142
3452.0,0.0141
3451.0,0.0141
3450.0,0.014
3449.0,0.014
3448.0,0.014
3447.0,0.0141
3446.0,0.0142
3445.0,0.0143
3444.0,0.0144
3443.0,0.0144
3442.0,0.0144
3441.0,0.0144
3440.0,0.0144
3439.0,0.0144
3438.0,0.0144
3437.0,0.0144
3436.0,0.0143
3435.0,0.0142
3434.0,0.0142
3433.0,0.0142
3432.0,0.0143
3431.0,0.0143
3430.0,0.0144
3429.0,0.0144
3428.0,0.0144
3427.0,0.0144
3426.0,0.0144
3425.0,0.0143
3424.0,0.0141
3423.0,0.014
3422.0,0.0139
3421.0,0.0139
3420.0,0.014
3419.0,0.0141
3418.0,0.0142
3417.0,0.0142
3416.0,0.0143
3415.0,0.0143
3414.0,0.0145
3413.0,0.0146
3412.0,0.0147
3411.0,0.0148
3410.0,0.0148
3409.0,0.0148
3408.0,0.0146
3407.0,0.0145
3406.0,0.0145
3405.0,0.0144
3404.0,0.0144
3403.0,0.0144
3402.0,0.0145
3401.0,0.0146
3400.0,0.0146
3399.0,0.0146
3398.0,0.0146
3397.0,0.0145
3396.0,0.0144
3395.0,0.0143
3394.0,0.0142
3393.0,0.0142
3392.0,0.0142
3391.0,0.0143
3390.0,0.0144
3389.0,0.0144
3388.0,0.0145
3387.0,0.0145
3386.0,0.0145
3385.0,0.0145
3384.0,0.0144
3383.0,0.0144
3382.0,0.0144
3381.0,0.0144
3380.0,0.0144
3379.0,0.0144
3378.0,0.0144
3377.0,0.0144
3376.0,0.0145
3375.0,0.0145
3374.0,0.0146
3373.0,0.0145
3372.0,0.0145
3371.0,0.0144
3370.0,0.0143
3369.0,0.0143
3368.0,0.0143
3367.0,0.0143
3366.0,0.0144
3365.0,0.0144
3364.0,0.0144
3363.0,0.0144
3362.0,0.0143
3361.0,0.0142
3360.0,0.0141
3359.0,0.0141
3358.0,0.0141
3357.0,0.0141
3356.0,0.0141
3355.0,0.0142
3354.0,0.0142
3353.0,0.0142
3352.0,0.0141
3351.0,0.0139
3350.0,0.0138
3349.0,0.0137
3348.0,0.0137
3347.0,0.0137
3346.0,0.0137
3345.0,0.0138
3344.0,0.0139
3343.0,0.0139
3342.0,0.0139
3341.0,0.0138
3340.0,0.0138
3339.0,0.0138
3338.0,0.0138
3337.0,0.0138
3336.0,0.0137
3335.0,0.0136
3334.0,0.0135
3333.0,0.0135
3332.0,0.0136
3331.0,0.0136
3330.0,0.0136
3329.0,0.0135
3328.0,0.0134
3327.0,0.0134
3326.0,0.0134
3325.0,0.0135
3324.0,0.0135
3323.0,0.0136
3322.0,0.0136
3321.0,0.0136
3320.0,0.0137
3319.0,0.0137
3318.0,0.0136
3317.0,0.0135
3316.0,0.0135
3315.0,0.0135
3314.0,0.0135
3313.0,0.0134
3312.0,0.0133
3311.0,0.0133
3310.0,0.0132
3309.0,0.0132
3308.0,0.0133
3307.0,0.0133
3306.0,0.0134
3305.0,0.0134
3304.0,0.0134
3303.0,0.0135
3302.0,0.0135
3301.0,0.0135
3300.0,0.0134
3299.0,0.0133
3298.0,0.0131
3297.0,0.013
3296.0,0.013
3295.0,0.013
3294.0,0.0131
3293.0,0.0132
3292.0,0.0132
3291.0,0.0132
3290.0,0.0132
3289.0,0.0132
3288.0,0.0131
3287.0,0.0129
3286.0,0.0128
3285.0,0.0129
3284.0,0.013
3283.0,0.0131
3282.0,0.0131
3281.0,0.013
3280.0,0.0129
3279.0,0.0129
3278.0,0.0129
3277.0,0.0129
3276.0,0.0129
3275.0,0.0128
3274.0,0.0127
3273.0,0.0125
3272.0,0.0125
3271.0,0.0125
3270.0,0.0125
3269.0,0.0125
3268.0,0.0125
3267.0,0.0125
3266.0,0.0125
3265.0,0.0125
3264.0,0.0124
3263.0,0.0125
3262.0,0.0125
3261.0,0.0126
3260.0,0.0127
3259.0,0.0128
3258.0,0.0127
3257.0,0.0127
3256.0,0.0125
3255.0,0.0124
3254.0,0.0124
3253.0,0.0125
3252.0,0.0125
3251.0,0.0126
3250.0,0.0125
3249.0,0.0125
3248.0,0.0125
3247.0,0.0125
3246.0,0.0125
3245.0,0.0125
3244.0,0.0124
3243.0,0.0123
3242.0,0.0122
3241.0,0.0121
3240.0,0.0121
3239.0,0.0121
3238.0,0.012
3237.0,0.0119
3236.0,0.0118
3235.0,0.0118
3234.0,0.0117
3233.0,0.0118
3232.0,0.0119
3231.0,0.012
3230.0,0.0121
3229.0,0.0121
3228.0,0.0121
3227.0,0.0121
3226.0,0.0121
3225.0,0.0121
3224.0,0.012
3223.0,0.0119
3222.0,0.0119
3221.0,0.0119
3220.0,0.0118
3219.0,0.0117
3218.0,0.0116
3217.0,0.0115
3216.0,0.0115
3215.0,0.0115
3214.0,0.0116
3213.0,0.0116
3212.0,0.0115
3211.0,0.0113
3210.0,0.0111
3209.0,0.011
3208.0,0.0111
3207.0,0.0111
3206.0,0.0113
3205.0,0.0114
3204.0,0.0114
3203.0,0.0114
3202.0,0.0114
3201.0,0.0114
3200.0,0.0114
3199.0,0.0114
3198.0,0.0113
3197.0,0.0113
3196.0,0.0112
3195.0,0.0111
3194.0,0.0111
3193.0,0.0111
3192.0,0.0111
3191.0,0.0111
3190.0,0.0111
3189.0,0.011
3188.0,0.0109
3187.0,0.0108
3186.0,0.0107
3185.0,0.0108
3184.0,0.0109
3183.0,0.0109
3182.0,0.0109
3181.0,0.0108
3180.0,0.0107
3179.0,0.0107
3178.0,0.0106
3177.0,0.0106
3176.0,0.0105
3175.0,0.0105
3174.0,0.0104
3173.0,0.0104
3172.0,0.0105
3171.0,0.0105
3170.0,0.0104
3169.0,0.0104
3168.0,0.0103
3167.0,0.0103
3166.0,0.0104
3165.0,0.0104
3164.0,0.0104
3163.0,0.0103
3162.0,0.0103
3161.0,0.0102
3160.0,0.0101
3159.0,0.0101
3158.0,0.01
3157.0,0.01
3156.0,0.0099
3155.0,0.0097
3154.0,0.0096
3153.0,0.0096
3152.0,0.0096
3151.0,0.0096
3150.0,0.0097
3149.0,0.0097
3148.0,0.0097
3147.0,0.0097
3146.0,0.0096
3145.0,0.0095
3144.0,0.0095
3143.0,0.0095
3142.0,0.0095
3141.0,0.0095
3140.0,0.0095
3139.0,0.0095
3138.0,0.0095
3137.0,0.0095
3136.0,0.0094
3135.0,0.0093
3134.0,0.0093
3133.0,0.0092
3132.0,0.0092
3131.0,0.0091
3130.0,0.009
3129.0,0.0089
3128.0,0.0088
3127.0,0.0087
3126.0,0.0088
3125.0,0.0088
3124.0,0.0088
3123.0,0.0088
3122.0,0.0087
3121.0,0.0088
3120.0,0.0088
3119.0,0.0088
3118.0,0.0088
3117.0,0.0087
3116.0,0.0087
3115.0,0.0087
3114.0,0.0086
3113.0,0.0086
3112.0,0.0086
3111.0,0.0085
3110.0,0.0085
3109.0,0.0085
3108.0,0.0085
3107.0,0.0085
3106.0,0.0085
3105.0,0.0085
3104.0,0.0086
3103.0,0.0086
3102.0,0.0086
3101.0,0.0085
3100.0,0.0084
3099.0,0.0083
3098.0,0.0083
3097.0,0.0083
3096.0,0.0083
3095.0,0.0083
3094.0,0.0082
3093.0,0.0082
3092.0,0.0082
3091.0,0.0082
3090.0,0.0081
3089.0,0.0081
3088.0,0.0081
3087.0,0.008
3086.0,0.0081
3085.0,0.0081
3084.0,0.0081
3083.0,0.008
3082.0,0.0079
3081.0,0.0078
3080.0,0.0077
3079.0,0.0077
3078.0,0.0077
3077.0,0.0078
3076.0,0.0078
3075.0,0.0077
3074.0,0.0076
3073.0,0.0076
3072.0,0.0075
3071.0,0.0075
3070.0,0.0074
3069.0,0.0072
3068.0,0.0072
3067.0,0.0072
3066.0,0.0072
3065.0,0.0072
3064.0,0.0072
3063.0,0.0071
3062.0,0.0071
3061.0,0.0071
3060.0,0.0072
3059.0,0.0073
3058.0,0.0074
3057.0,0.0074
3056.0,0.0073
3055.0,0.0072
3054.0,0.0072
3053.0,0.0071
3052.0,0.0069
3051.0,0.0068
3050.0,0.0067
3049.0,0.0067
3048.0,0.0067
3047.0,0.0068
3046.0,0.0067
3045.0,0.0067
3044.0,0.0066
3043.0,0.0065
3042.0,0.0064
3041.0,0.0064
3040.0,0.0065
3039.0,0.0066
3038.0,0.0067
3037.0,0.0066
3036.0,0.0065
3035.0,0.0063
3034.0,0.0061
3033.0,0.0061
3032.0,0.006
3031.0,0.006
3030.0,0.0061
3029.0,0.0061
3028.0,0.0061
3027.0,0.0061
3026.0,0.006
3025.0,0.0059
3024.0,0.0059
3023.0,0.0059
3022.0,0.0059
3021.0,0.0059
3020.0,0.0058
3019.0,0.0057
3018.0,0.0056
3017.0,0.0056
3016.0,0.0055
3015.0,0.0054
3014.0,0.0053
3013.0,0.0051
3012.0,0.005
3011.0,0.0049
3010.0,0.0048
3009.0,0.0048
3008.0,0.0048
3007.0,0.0048
3006.0,0.0047
3005.0,0.0046
3004.0,0.0045
3003.0,0.0045
3002.0,0.0044
3001.0,0.0044
3000.0,0.0044
2999.0,0.0043
2998.0,0.0042
2997.0,0.0042
2996.0,0.0041
2995.0,0.0041
2994.0,0.004
2993.0,0.004
2992.0,0.004
2991.0,0.0039
2990.0,0.0039
2989.0,0.004
2988.0,0.004
2987.0,0.0041
2986.0,0.0042
2985.0,0.0043
2984.0,0.0044
2983.0,0.0045
2982.0,0.0046
2981.0,0.0047
2980.0,0.0049
2979.0,0.0051
2978.0,0.0053
2977.0,0.0056
2976.0,0.0059
2975.0,0.0064
2974.0,0.0069
2973.0,0.0075
2972.0,0.0081
2971.0,0.0087
2970.0,0.0094
2969.0,0.0103
2968.0,0.0111
2967.0,0.0121
2966.0,0.013
2965.0,0.014
2964.0,0.0149
2963.0,0.0158
2962.0,0.0165
2961.0,0.0172
2960.0,0.0178
2959.0,0.0184
2958.0,0.0189
2957.0,0.0195
2956.0,0.0199
2955.0,0.0203
2954.0,0.0206
2953.0,0.0208
2952.0,0.021
2951.0,0.0213
2950.0,0.0216
2949.0,0.0223
2948.0,0.0233
2947.0,0.0246
2946.0,0.0264
2945.0,0.0286
2944.0,0.0312
2943.0,0.034
2942.0,0.0372
2941.0,0.0407
2940.0,0.0447
2939.0,0.049
2938.0,0.0537
2937.0,0.0588
2936.0,0.0644
2935.0,0.0703
2934.0,0.0766
2933.0,0.0833
2932.0,0.0905
2931.0,0.0984
2930.0,0.1069
2929.0,0.1161
2928.0,0.126
2927.0,0.1368
2926.0,0.1485
2925.0,0.1615
2924.0,0.1757
2923.0,0.1913
2922.0,0.2084
2921.0,0.2265
2920.0,0.2448
2919.0,0.262
2918.0,0.2759
2917.0,0.2842
2916.0,0.2853
2915.0,0.2791
2914.0,0.2673
2913.0,0.2523
2912.0,0.2365
2911.0,0.2213
2910.0,0.2077
2909.0,0.1958
2908.0,0.1856
2907.0,0.1769
2906.0,0.1694
2905.0,0.1629
2904.0,0.1573
2903.0,0.1523
2902.0,0.1479
2901.0,0.144
2900.0,0.1405
2899.0,0.1371
2898.0,0.1339
2897.0,0.1307
2896.0,0.1275
2895.0,0.1243
2894.0,0.1212
2893.0,0.118
2892.0,0.1149
2891.0,0.1116
2890.0,0.1083
2889.0,0.1049
2888.0,0.1015
2887.0,0.0981
2886.0,0.0947
2885.0,0.0914
2884.0,0.0881
2883.0,0.085
2882.0,0.0819
2881.0,0.079
2880.0,0.0762
2879.0,0.0736
2878.0,0.0712
2877.0,0.069
2876.0,0.0669
2875.0,0.0652
2874.0,0.0638
2873.0,0.0626
2872.0,0.0616
2871.0,0.0606
2870.0,0.0597
2869.0,0.059
2868.0,0.0586
2867.0,0.0587
2866.0,0.0593
2865.0,0.0606
2864.0,0.0627
2863.0,0.0656
2862.0,0.0694
2861.0,0.0743
2860.0,0.0804
2859.0,0.0877
2858.0,0.0967
2857.0,0.1076
2856.0,0.1206
2855.0,0.1361
2854.0,0.1546
2853.0,0.1763
2852.0,0.2006
2851.0,0.225
2850.0,0.2451
2849.0,0.2558
2848.0,0.2542
2847.0,0.2413
2846.0,0.2216
2845.0,0.1996
2844.0,0.1787
2843.0,0.1601
2842.0,0.1441
2841.0,0.1306
2840.0,0.1194
2839.0,0.11
2838.0,0.1021
2837.0,0.0954
2836.0,0.0897
2835.0,0.0848
2834.0,0.0805
2833.0,0.0768
2832.0,0.0737
2831.0,0.0709
2830.0,0.0684
2829.0,0.0661
2828.0,0.0641
2827.0,0.0623
2826.0,0.0606
2825.0,0.0591
2824.0,0.0577
2823.0,0.0564
2822.0,0.0552
2821.0,0.054
2820.0,0.0529
2819.0,0.0518
2818.0,0.0507
2817.0,0.0497
2816.0,0.0489
2815.0,0.0481
2814.0,0.0474
2813.0,0.0467
2812.0,0.046
2811.0,0.0453
2810.0,0.0447
2809.0,0.0441
2808.0,0.0436
2807.0,0.0431
2806.0,0.0427
2805.0,0.0422
2804.0,0.0417
2803.0,0.0412
2802.0,0.0407
2801.0,0.0402
2800.0,0.0398
2799.0,0.0394
2798.0,0.0389
2797.0,0.0385
2796.0,0.038
2795.0,0.0375
2794.0,0.0371
2793.0,0.0368
2792.0,0.0365
2791.0,0.0362
2790.0,0.0359
2789.0,0.0356
2788.0,0.0352
2787.0,0.0348
2786.0,0.0344
2785.0,0.0342
2784.0,0.0339
2783.0,0.0336
2782.0,0.0334
2781.0,0.033
2780.0,0.0328
2779.0,0.0325
2778.0,0.0323
2777.0,0.0321
2776.0,0.0318
2775.0,0.0315
2774.0,0.0312
2773.0,0.031
2772.0,0.0309
2771.0,0.0308
2770.0,0.0306
2769.0,0.0304
2768.0,0.0301
2767.0,0.0298
2766.0,0.0296
2765.0,0.0295
2764.0,0.0294
2763.0,0.0293
2762.0,0.0291
2761.0,0.029
2760.0,0.0289
2759.0,0.0288
2758.0,0.0287
2757.0,0.0285
2756.0,0.0283
2755.0,0.028
2754.0,0.0278
2753.0,0.0277
2752.0,0.0277
2751.0,0.0277
2750.0,0.0277
2749.0,0.0277
2748.0,0.0276
2747.0,0.0276
2746.0,0.0275
2745.0,0.0273
2744.0,0.0272
2743.0,0.0272
2742.0,0.0271
2741.0,0.027
2740.0,0.027
2739.0,0.0269
2738.0,0.0268
2737.0,0.0267
2736.0,0.0267
2735.0,0.0266
2734.0,0.0265
2733.0,0.0264
2732.0,0.0263
2731.0,0.0262
2730.0,0.0261
2729.0,0.0261
2728.0,0.0261
2727.0,0.026
2726.0,0.0259
2725.0,0.0258
2724.0,0.0256
2723.0,0.0255
2722.0,0.0254
2721.0,0.0253
2720.0,0.0253
2719.0,0.0252
2718.0,0.0251
2717.0,0.025
2716.0,0.0249
2715.0,0.0248
2714.0,0.0247
2713.0,0.0246
2712.0,0.0245
2711.0,0.0245
2710.0,0.0244
2709.0,0.0244
2708.0,0.0243
2707.0,0.0242
2706.0,0.0242
2705.0,0.0241
2704.0,0.0241
2703.0,0.0241
2702.0,0.024
2701.0,0.024
2700.0,0.0239
2699.0,0.0238
2698.0,0.0238
2697.0,0.0237
2696.0,0.0237
2695.0,0.0236
2694.0,0.0235
2693.0,0.0235
2692.0,0.0234
2691.0,0.0234
2690.0,0.0233
2689.0,0.0233
2688.0,0.0232
2687.0,0.0232
2686.0,0.0231
2685.0,0.0231
2684.0,0.0231
2683.0,0.0232
2682.0,0.0232
2681.0,0.0233
2680.0,0.0233
2679.0,0.0232
2678.0,0.0232
2677.0,0.0231
2676.0,0.0231
2675.0,0.0231
2674.0,0.0231
2673.0,0.023
2672.0,0.0231
2671.0,0.0232
2670.0,0.0233
2669.0,0.0233
2668.0,0.0232
2667.0,0.0231
2666.0,0.023
2665.0,0.0229
2664.0,0.0229
2663.0,0.0229
2662.0,0.023
2661.0,0.023
2660.0,0.0229
2659.0,0.0229
2658.0,0.0228
2657.0,0.0227
2656.0,0.0226
2655.0,0.0226
2654.0,0.0226
2653.0,0.0226
2652.0,0.0227
2651.0,0.0227
2650.0,0.0227
2649.0,0.0226
2648.0,0.0225
2647.0,0.0224
2646.0,0.0224
2645.0,0.0225
2644.0,0.0225
2643.0,0.0225
2642.0,0.0225
2641.0,0.0225
2640.0,0.0226
2639.0,0.0226
2638.0,0.0226
2637.0,0.0226
2636.0,0.0226
2635.0,0.0225
2634.0,0.0224
2633.0,0.0223
2632.0,0.0221
2631.0,0.022
2630.0,0.022
2629.0,0.0219
2628.0,0.0219
2627.0,0.0219
2626.0,0.0218
2625.0,0.0217
2624.0,0.0217
2623.0,0.0216
2622.0,0.0215
2621.0,0.0214
2620.0,0.0214
2619.0,0.0214
2618.0,0.0214
2617.0,0.0213
2616.0,0.0212
2615.0,0.021
2614.0,0.0209
2613.0,0.0209
2612.0,0.0209
2611.0,0.021
2610.0,0.0209
2609.0,0.0208
2608.0,0.0207
2607.0,0.0206
2606.0,0.0206
2605.0,0.0206
2604.0,0.0206
2603.0,0.0205
2602.0,0.0205
2601.0,0.0204
2600.0,0.0204
2599.0,0.0203
2598.0,0.0203
2597.0,0.0202
2596.0,0.0202
2595.0,0.0201
2594.0,0.0201
2593.0,0.02
2592.0,0.02
2591.0,0.0199
2590.0,0.0199
2589.0,0.0198
2588.0,0.0198
2587.0,0.0197
2586.0,0.0197
2585.0,0.0197
2584.0,0.0196
2583.0,0.0196
2582.0,0.0195
2581.0,0.0195
2580.0,0.0194
2579.0,0.0194
2578.0,0.0194
2577.0,0.0195
2576.0,0.0195
2575.0,0.0195
2574.0,0.0194
2573.0,0.0193
2572.0,0.0192
2571.0,0.0192
2570.0,0.0191
2569.0,0.019
2568.0,0.019
2567.0,0.0189
2566.0,0.0189
2565.0,0.0188
2564.0,0.0188
2563.0,0.0187
2562.0,0.0187
2561.0,0.0187
2560.0,0.0187
2559.0,0.0187
2558.0,0.0188
2557.0,0.0188
2556.0,0.0188
2555.0,0.0187
2554.0,0.0186
2553.0,0.0185
2552.0,0.0184
2551.0,0.0184
2550.0,0.0185
2549.0,0.0186
2548.0,0.0186
2547.0,0.0185
2546.0,0.0184
2545.0,0.0183
2544.0,0.0182
2543.0,0.0181
2542.0,0.0182
2541.0,0.0182
2540.0,0.0182
2539.0,0.0182
2538.0,0.0182
2537.0,0.0182
2536.0,0.0182
2535.0,0.0182
2534.0,0.0181
2533.0,0.0181
2532.0,0.018
2531.0,0.018
2530.0,0.018
2529.0,0.018
2528.0,0.0181
2527.0,0.0181
2526.0,0.018
2525.0,0.0179
2524.0,0.0178
2523.0,0.0178
2522.0,0.0178
2521.0,0.0177
2520.0,0.0177
2519.0,0.0177
2518.0,0.0177
2517.0,0.0177
2516.0,0.0177
2515.0,0.0176
2514.0,0.0176
2513.0,0.0175
2512.0,0.0174
2511.0,0.0174
2510.0,0.0174
2509.0,0.0175
2508.0,0.0175
2507.0,0.0175
2506.0,0.0174
2505.0,0.0173
2504.0,0.0173
2503.0,0.0172
2502.0,0.0173
2501.0,0.0173
2500.0,0.0173
2499.0,0.0173
2498.0,0.0174
2497.0,0.0173
2496.0,0.0173
2495.0,0.0172
2494.0,0.0171
2493.0,0.0171
2492.0,0.0171
2491.0,0.0171
2490.0,0.017
2489.0,0.017
2488.0,0.017
2487.0,0.017
2486.0,0.017
2485.0,0.017
2484.0,0.0171
2483.0,0.0171
2482.0,0.0172
2481.0,0.0172
2480.0,0.0172
2479.0,0.0172
2478.0,0.0172
2477.0,0.0172
2476.0,0.0171
2475.0,0.0171
2474.0,0.0171
2473.0,0.0171
2472.0,0.017
2471.0,0.017
2470.0,0.0169
2469.0,0.0169
2468.0,0.0169
2467.0,0.0168
2466.0,0.0168
2465.0,0.0168
2464.0,0.0168
2463.0,0.0167
2462.0,0.0167
2461.0,0.0167
2460.0,0.0166
2459.0,0.0165
2458.0,0.0164
2457.0,0.0164
2456.0,0.0164
2455.0,0.0165
2454.0,0.0165
2453.0,0.0166
2452.0,0.0166
2451.0,0.0165
2450.0,0.0165
2449.0,0.0165
2448.0,0.0165
2447.0,0.0165
2446.0,0.0165
2445.0,0.0165
2444.0,0.0165
2443.0,0.0165
2442.0,0.0164
2441.0,0.0164
2440.0,0.0163
2439.0,0.0163
2438.0,0.0163
2437.0,0.0163
2436.0,0.0164
2435.0,0.0165
2434.0,0.0166
2433.0,0.0167
2432.0,0.0166
2431.0,0.0165
2430.0,0.0164
2429.0,0.0163
2428.0,0.0163
2427.0,0.0163
2426.0,0.0163
2425.0,0.0163
2424.0,0.0163
2423.0,0.0163
2422.0,0.0163
2421.0,0.0164
2420.0,0.0165
2419.0,0.0165
2418.0,0.0165
2417.0,0.0166
2416.0,0.0166
2415.0,0.0166
2414.0,0.0165
2413.0,0.0165
2412.0,0.0164
2411.0,0.0164
2410.0,0.0164
2409.0,0.0164
2408.0,0.0163
2407.0,0.0163
2406.0,0.0163
2405.0,0.0163
2404.0,0.0162
2403.0,0.0162
2402.0,0.0162
2401.0,0.0162
2400.0,0.0162
2399.0,0.0162
2398.0,0.0162
2397.0,0.0161
2396.0,0.0161
2395.0,0.0161
2394.0,0.0161
2393.0,0.0161
2392.0,0.0161
2391.0,0.0161
2390.0,0.0161
2389.0,0.0161
2388.0,0.0161
2387.0,0.016
2386.0,0.016
2385.0,0.016
2384.0,0.016
2383.0,0.016
2382.0,0.0159
2381.0,0.0157
2380.0,0.0155
2379.0,0.0154
2378.0,0.0154
2377.0,0.0155
2376.0,0.0157
2375.0,0.0159
2374.0,0.0161
2373.0,0.0162
2372.0,0.0162
2371.0,0.016
2370.0,0.0156
2369.0,0.0152
2368.0,0.015
2367.0,0.0152
2366.0,0.0156
2365.0,0.0155
2364.0,0.0148
2363.0,0.0141
2362.0,0.0144
2361.0,0.0158
2360.0,0.0174
2359.0,0.0179
2358.0,0.017
2357.0,0.0157
2356.0,0.0145
2355.0,0.0139
2354.0,0.0136
2353.0,0.0134
2352.0,0.0134
2351.0,0.0139
2350.0,0.0151
2349.0,0.0161
2348.0,0.0163
2347.0,0.0158
2346.0,0.0153
2345.0,0.0155
2344.0,0.0161
2343.0,0.0163
2342.0,0.0159
2341.0,0.0152
2340.0,0.0147
2339.0,0.0145
2338.0,0.0145
2337.0,0.0146
2336.0,0.015
2335.0,0.0157
2334.0,0.0165
2333.0,0.0168
2332.0,0.0165
2331.0,0.016
2330.0,0.0158
2329.0,0.0159
2328.0,0.0159
2327.0,0.0156
2326.0,0.0155
2325.0,0.0154
2324.0,0.0155
2323.0,0.0155
2322.0,0.0154
2321.0,0.0155
2320.0,0.0156
2319.0,0.0158
2318.0,0.0161
2317.0,0.0163
2316.0,0.0165
2315.0,0.0164
2314.0,0.0163
2313.0,0.0161
2312.0,0.0159
2311.0,0.0158
2310.0,0.0158
2309.0,0.0158
2308.0,0.0157
2307.0,0.0156
2306.0,0.0156
2305.0,0.0156
2304.0,0.0157
2303.0,0.0158
2302.0,0.0158
2301.0,0.0158
2300.0,0.0158
2299.0,0.0157
2298.0,0.0156
2297.0,0.0156
2296.0,0.0156
2295.0,0.0157
2294.0,0.0157
2293.0,0.0157
2292.0,0.0156
2291.0,0.0156
2290.0,0.0156
2289.0,0.0156
2288.0,0.0156
2287.0,0.0156
2286.0,0.0156
2285.0,0.0156
2284.0,0.0156
2283.0,0.0156
2282.0,0.0156
2281.0,0.0155
2280.0,0.0155
2279.0,0.0154
2278.0,0.0153
2277.0,0.0152
2276.0,0.0151
2275.0,0.0151
2274.0,0.0152
2273.0,0.0152
2272.0,0.0152
2271.0,0.0152
2270.0,0.0152
2269.0,0.0152
2268.0,0.0153
2267.0,0.0153
2266.0,0.0153
2265.0,0.0152
2264.0,0.0151
2263.0,0.0151
2262.0,0.0151
2261.0,0.0152
2260.0,0.0152
2259.0,0.0153
2258.0,0.0153
2257.0,0.0153
2256.0,0.0153
2255.0,0.0152
2254.0,0.0151
2253.0,0.0151
2252.0,0.0151
2251.0,0.0152
2250.0,0.0152
2249.0,0.0152
2248.0,0.0152
2247.0,0.0152
2246.0,0.0152
2245.0,0.0152
2244.0,0.0151
2243.0,0.0151
2242.0,0.0152
2241.0,0.0152
2240.0,0.0152
2239.0,0.0152
2238.0,0.0152
2237.0,0.0152
2236.0,0.0151
2235.0,0.0151
2234.0,0.0151
2233.0,0.0151
2232.0,0.015
2231.0,0.015
2230.0,0.015
2229.0,0.0151
2228.0,0.0151
2227.0,0.0151
2226.0,0.0152
2225.0,0.0151
2224.0,0.015
2223.0,0.0149
2222.0,0.0148
2221.0,0.0148
2220.0,0.0149
2219.0,0.0149
2218.0,0.015
2217.0,0.015
2216.0,0.015
2215.0,0.015
2214.0,0.0149
2213.0,0.0149
2212.0,0.0148
2211.0,0.0148
2210.0,0.0148
2209.0,0.0148
2208.0,0.0149
2207.0,0.0149
2206.0,0.015
2205.0,0.015
2204.0,0.015
2203.0,0.015
2202.0,0.015
2201.0,0.0149
2200.0,0.0149
2199.0,0.0149
2198.0,0.0149
2197.0,0.0149
2196.0,0.0149
2195.0,0.0149
2194.0,0.0149
2193.0,0.015
2192.0,0.015
2191.0,0.015
2190.0,0.015
2189.0,0.015
2188.0,0.0149
2187.0,0.0149
2186.0,0.0149
2185.0,0.0149
2184.0,0.0149
2183.0,0.0148
2182.0,0.0148
2181.0,0.0148
2180.0,0.0148
2179.0,0.0148
2178.0,0.0148
2177.0,0.0149
2176.0,0.0149
2175.0,0.0149
2174.0,0.0149
2173.0,0.0149
2172.0,0.0149
2171.0,0.0149
2170.0,0.0149
2169.0,0.0149
2168.0,0.0149
2167.0,0.0149
2166.0,0.0148
2165.0,0.0148
2164.0,0.0147
2163.0,0.0147
2162.0,0.0147
2161.0,0.0148
2160.0,0.0148
2159.0,0.0149
2158.0,0.0149
2157.0,0.0149
2156.0,0.0149
2155.0,0.0149
2154.0,0.0148
2153.0,0.0148
2152.0,0.0148
2151.0,0.0149
2150.0,0.0149
2149.0,0.0149
2148.0,0.0149
2147.0,0.0148
2146.0,0.0148
2145.0,0.0148
2144.0,0.0148
2143.0,0.0148
2142.0,0.0148
2141.0,0.0148
2140.0,0.0148
2139.0,0.0148
2138.0,0.0148
2137.0,0.0148
2136.0,0.0148
2135.0,0.0148
2134.0,0.0148
2133.0,0.0147
2132.0,0.0147
2131.0,0.0147
2130.0,0.0147
2129.0,0.0146
2128.0,0.0146
2127.0,0.0146
2126.0,0.0146
2125.0,0.0147
2124.0,0.0147
2123.0,0.0147
2122.0,0.0147
2121.0,0.0147
2120.0,0.0148
2119.0,0.0148
2118.0,0.0149
2117.0,0.0148
2116.0,0.0147
2115.0,0.0146
2114.0,0.0145
2113.0,0.0145
2112.0,0.0145
2111.0,0.0145
2110.0,0.0146
2109.0,0.0147
2108.0,0.0147
2107.0,0.0146
2106.0,0.0146
2105.0,0.0146
2104.0,0.0147
2103.0,0.0147
2102.0,0.0146
2101.0,0.0146
2100.0,0.0145
2099.0,0.0145
2098.0,0.0145
2097.0,0.0145
2096.0,0.0146
2095.0,0.0146
2094.0,0.0146
2093.0,0.0146
2092.0,0.0146
2091.0,0.0147
2090.0,0.0147
2089.0,0.0147
2088.0,0.0147
2087.0,0.0147
2086.0,0.0146
2085.0,0.0146
2084.0,0.0146
2083.0,0.0146
2082.0,0.0145
2081.0,0.0145
2080.0,0.0145
2079.0,0.0146
2078.0,0.0146
2077.0,0.0147
2076.0,0.0147
2075.0,0.0147
2074.0,0.0147
2073.0,0.0147
2072.0,0.0146
2071.0,0.0146
2070.0,0.0146
2069.0,0.0146
2068.0,0.0146
2067.0,0.0146
2066.0,0.0145
2065.0,0.0145
2064.0,0.0146
2063.0,0.0146
2062.0,0.0146
2061.0,0.0146
2060.0,0.0147
2059.0,0.0148
2058.0,0.0148
2057.0,0.0148
2056.0,0.0147
2055.0,0.0146
2054.0,0.0146
2053.0,0.0146
2052.0,0.0146
2051.0,0.0146
2050.0,0.0146
2049.0,0.0147
2048.0,0.0147
2047.0,0.0147
2046.0,0.0147
2045.0,0.0146
2044.0,0.0146
2043.0,0.0146
2042.0,0.0147
2041.0,0.0147
2040.0,0.0147
2039.0,0.0148
2038.0,0.0148
2037.0,0.0148
2036.0,0.0148
2035.0,0.0148
2034.0,0.0147
2033.0,0.0148
2032.0,0.0148
2031.0,0.0149
2030.0,0.015
2029.0,0.015
2028.0,0.015
2027.0,0.015
2026.0,0.015
2025.0,0.015
2024.0,0.015
2023.0,0.015
2022.0,0.0151
2021.0,0.0151
2020.0,0.0151
2019.0,0.0152
2018.0,0.0152
2017.0,0.0152
2016.0,0.0151
2015.0,0.0151
2014.0,0.015
2013.0,0.0149
2012.0,0.0148
2011.0,0.0148
2010.0,0.0147
2009.0,0.0147
2008.0,0.0147
2007.0,0.0147
2006.0,0.0147
2005.0,0.0147
2004.0,0.0147
2003.0,0.0147
2002.0,0.0147
2001.0,0.0147
2000.0,0.0147
1999.0,0.0147
1998.0,0.0147
1997.0,0.0148
1996.0,0.0147
1995.0,0.0147
1994.0,0.0146
1993.0,0.0146
1992.0,0.0146
1991.0,0.0146
1990.0,0.0146
1989.0,0.0146
1988.0,0.0146
1987.0,0.0146
1986.0,0.0146
1985.0,0.0146
1984.0,0.0146
1983.0,0.0145
1982.0,0.0145
1981.0,0.0145
1980.0,0.0145
1979.0,0.0145
1978.0,0.0145
1977.0,0.0145
1976.0,0.0145
1975.0,0.0146
1974.0,0.0145
1973.0,0.0145
1972.0,0.0144
1971.0,0.0144
1970.0,0.0144
1969.0,0.0144
1968.0,0.0145
1967.0,0.0146
1966.0,0.0146
1965.0,0.0144
1964.0,0.0143
1963.0,0.0143
1962.0,0.0143
1961.0,0.0143
1960.0,0.0143
1959.0,0.0143
1958.0,0.0144
1957.0,0.0144
1956.0,0.0144
1955.0,0.0144
1954.0,0.0144
1953.0,0.0144
1952.0,0.0145
1951.0,0.0145
1950.0,0.0146
1949.0,0.0145
1948.0,0.0144
1947.0,0.0143
1946.0,0.0143
1945.0,0.0142
1944.0,0.0143
1943.0,0.0144
1942.0,0.0145
1941.0,0.0145
1940.0,0.0145
1939.0,0.0145
1938.0,0.0145
1937.0,0.0144
1936.0,0.0144
1935.0,0.0144
1934.0,0.0144
1933.0,0.0144
1932.0,0.0144
1931.0,0.0145
1930.0,0.0145
1929.0,0.0145
1928.0,0.0145
1927.0,0.0145
1926.0,0.0144
1925.0,0.0144
1924.0,0.0143
1923.0,0.0143
1922.0,0.0144
1921.0,0.0145
1920.0,0.0146
1919.0,0.0146
1918.0,0.0147
1917.0,0.0147
1916.0,0.0146
1915.0,0.0146
1914.0,0.0146
1913.0,0.0146
1912.0,0.0145
1911.0,0.0145
1910.0,0.0146
1909.0,0.0147
1908.0,0.0147
1907.0,0.0148
1906.0,0.0148
1905.0,0.0148
1904.0,0.0148
1903.0,0.0148
1902.0,0.0149
1901.0,0.015
1900.0,0.015
1899.0,0.015
1898.0,0.015
1897.0,0.015
1896.0,0.015
1895.0,0.0149
1894.0,0.0149
1893.0,0.0148
1892.0,0.0147
1891.0,0.0146
1890.0,0.0146
1889.0,0.0145
1888.0,0.0145
1887.0,0.0146
1886.0,0.0146
1885.0,0.0147
1884.0,0.0147
1883.0,0.0147
1882.0,0.0146
1881.0,0.0145
1880.0,0.0145
1879.0,0.0145
1878.0,0.0145
1877.0,0.0146
1876.0,0.0145
1875.0,0.0145
1874.0,0.0145
1873.0,0.0145
1872.0,0.0145
1871.0,0.0145
1870.0,0.0145
1869.0,0.0145
1868.0,0.0145
1867.0,0.0145
1866.0,0.0145
1865.0,0.0145
1864.0,0.0145
1863.0,0.0144
1862.0,0.0144
1861.0,0.0144
1860.0,0.0144
1859.0,0.0144
1858.0,0.0144
1857.0,0.0144
1856.0,0.0144
1855.0,0.0144
1854.0,0.0144
1853.0,0.0144
1852.0,0.0144
1851.0,0.0144
1850.0,0.0144
1849.0,0.0143
1848.0,0.0142
1847.0,0.0142
1846.0,0.0143
1845.0,0.0144
1844.0,0.0144
1843.0,0.0145
1842.0,0.0145
1841.0,0.0145
1840.0,0.0145
1839.0,0.0144
1838.0,0.0144
1837.0,0.0144
1836.0,0.0144
1835.0,0.0144
1834.0,0.0144
1833.0,0.0143
1832.0,0.0143
1831.0,0.0143
1830.0,0.0143
1829.0,0.0143
1828.0,0.0143
1827.0,0.0144
1826.0,0.0145
1825.0,0.0145
1824.0,0.0145
1823.0,0.0144
1822.0,0.0144
1821.0,0.0144
1820.0,0.0145
1819.0,0.0145
1818.0,0.0145
1817.0,0.0145
1816.0,0.0144
1815.0,0.0144
1814.0,0.0143
1813.0,0.0143
1812.0,0.0143
1811.0,0.0144
1810.0,0.0144
1809.0,0.0144
1808.0,0.0144
1807.0,0.0145
1806.0,0.0145
1805.0,0.0145
1804.0,0.0146
1803.0,0.0146
1802.0,0.0145
1801.0,0.0145
1800.0,0.0145
1799.0,0.0145
1798.0,0.0145
1797.0,0.0144
1796.0,0.0143
1795.0,0.0143
1794.0,0.0142
1793.0,0.0142
1792.0,0.0143
1791.0,0.0144
1790.0,0.0145
1789.0,0.0146
1788.0,0.0147
1787.0,0.0147
1786.0,0.0147
1785.0,0.0147
1784.0,0.0145
1783.0,0.0144
1782.0,0.0144
1781.0,0.0144
1780.0,0.0144
1779.0,0.0144
1778.0,0.0144
1777.0,0.0143
1776.0,0.0142
1775.0,0.0142
1774.0,0.0142
1773.0,0.0142
1772.0,0.0143
1771.0,0.0144
1770.0,0.0146
1769.0,0.0148
1768.0,0.0148
1767.0,0.0147
1766.0,0.0146
1765.0,0.0145
1764.0,0.0144
1763.0,0.0144
1762.0,0.0145
1761.0,0.0145
1760.0,0.0146
1759.0,0.0146
1758.0,0.0147
1757.0,0.0147
1756.0,0.0147
1755.0,0.0147
1754.0,0.0148
1753.0,0.0148
1752.0,0.0148
1751.0,0.0147
1750.0,0.0147
1749.0,0.0147
1748.0,0.0147
1747.0,0.0149
1746.0,0.015
1745.0,0.015
1744.0,0.015
1743.0,0.015
1742.0,0.015
1741.0,0.0151
1740.0,0.0152
1739.0,0.0152
1738.0,0.0151
1737.0,0.0151
1736.0,0.0152
1735.0,0.0154
1734.0,0.0154
1733.0,0.0153
1732.0,0.0152
1731.0,0.0153
1730.0,0.0154
1729.0,0.0154
1728.0,0.0154
1727.0,0.0155
1726.0,0.0155
1725.0,0.0156
1724.0,0.0156
1723.0,0.0156
1722.0,0.0156
1721.0,0.0156
1720.0,0.0156
1719.0,0.0156
1718.0,0.0156
1717.0,0.0156
1716.0,0.0156
1715.0,0.0157
1714.0,0.0157
1713.0,0.0157
1712.0,0.0156
1711.0,0.0155
1710.0,0.0154
1709.0,0.0154
1708.0,0.0153
1707.0,0.0152
1706.0,0.0152
1705.0,0.0152
1704.0,0.0153
1703.0,0.0154
1702.0,0.0156
1701.0,0.0158
1700.0,0.0157
1699.0,0.0154
1698.0,0.0153
1697.0,0.0155
1696.0,0.0156
1695.0,0.0156
1694.0,0.0156
1693.0,0.0157
1692.0,0.0157
1691.0,0.0157
1690.0,0.0156
1689.0,0.0156
1688.0,0.0157
1687.0,0.0159
1686.0,0.0159
1685.0,0.0161
1684.0,0.0163
1683.0,0.0162
1682.0,0.0162
1681.0,0.0163
1680.0,0.0163
1679.0,0.0163
1678.0,0.0163
1677.0,0.0164
1676.0,0.0164
1675.0,0.0164
1674.0,0.0163
1673.0,0.0163
1672.0,0.0163
1671.0,0.0164
1670.0,0.0165
1669.0,0.0167
1668.0,0.0167
1667.0,0.0168
1666.0,0.0167
1665.0,0.0167
1664.0,0.0166
1663.0,0.0167
1662.0,0.0168
1661.0,0.0169
1660.0,0.017
1659.0,0.0169
1658.0,0.0169
1657.0,0.0168
1656.0,0.0168
1655.0,0.017
1654.0,0.0174
1653.0,0.0177
1652.0,0.0172
1651.0,0.017
1650.0,0.017
1649.0,0.017
1648.0,0.0171
1647.0,0.0172
1646.0,0.0173
1645.0,0.0173
1644.0,0.0172
1643.0,0.0172
1642.0,0.0171
1641.0,0.0171
1640.0,0.017
1639.0,0.0169
1638.0,0.0169
1637.0,0.017
1636.0,0.0172
1635.0,0.0171
1634.0,0.017
1633.0,0.017
1632.0,0.017
1631.0,0.017
1630.0,0.017
1629.0,0.0169
1628.0,0.0169
1627.0,0.0168
1626.0,0.0168
1625.0,0.0167
1624.0,0.0167
1623.0,0.0168
1622.0,0.0168
1621.0,0.0167
1620.0,0.0166
1619.0,0.0166
1618.0,0.0166
1617.0,0.0165
1616.0,0.0165
1615.0,0.0164
1614.0,0.0165
1613.0,0.0166
1612.0,0.0166
1611.0,0.0165
1610.0,0.0165
1609.0,0.0165
1608.0,0.0165
1607.0,0.0165
1606.0,0.0166
1605.0,0.0165
1604.0,0.0165
1603.0,0.0165
1602.0,0.0165
1601.0,0.0165
1600.0,0.0164
1599.0,0.0163
1598.0,0.0162
1597.0,0.0161
1596.0,0.0161
1595.0,0.0162
1594.0,0.0162
1593.0,0.0163
1592.0,0.0162
1591.0,0.0162
1590.0,0.0162
1589.0,0.0162
1588.0,0.0162
1587.0,0.0162
1586.0,0.0163
1585.0,0.0163
1584.0,0.0163
1583.0,0.0162
1582.0,0.0162
1581.0,0.0161
1580.0,0.0159
1579.0,0.0158
1578.0,0.0157
1577.0,0.0158
1576.0,0.0159
1575.0,0.0159
1574.0,0.0159
1573.0,0.016
1572.0,0.0159
1571.0,0.0158
1570.0,0.0157
1569.0,0.0158
1568.0,0.0158
1567.0,0.0159
1566.0,0.0159
1565.0,0.0158
1564.0,0.0158
1563.0,0.0158
1562.0,0.0158
1561.0,0.0157
1560.0,0.0157
1559.0,0.0161
1558.0,0.016
1557.0,0.0159
1556.0,0.0159
1555.0,0.0159
1554.0,0.0159
1553.0,0.0159
1552.0,0.0159
1551.0,0.0159
1550.0,0.0159
1549.0,0.0159
1548.0,0.0158
1547.0,0.0158
1546.0,0.0157
1545.0,0.0157
1544.0,0.0157
1543.0,0.0157
1542.0,0.0157
1541.0,0.0159
1540.0,0.016
1539.0,0.0157
1538.0,0.0154
1537.0,0.0154
1536.0,0.0155
1535.0,0.0155
1534.0,0.0155
1533.0,0.0155
1532.0,0.0155
1531.0,0.0155
1530.0,0.0154
1529.0,0.0153
1528.0,0.0152
1527.0,0.0151
1526.0,0.0151
1525.0,0.0151
1524.0,0.0151
1523.0,0.0151
1522.0,0.0152
1521.0,0.0153
1520.0,0.0153
1519.0,0.0152
1518.0,0.0151
1517.0,0.0152
1516.0,0.0152
1515.0,0.0151
1514.0,0.015
1513.0,0.015
1512.0,0.0149
1511.0,0.0148
1510.0,0.0145
1509.0,0.0144
1508.0,0.0144
1507.0,0.0146
1506.0,0.0145
1505.0,0.0145
1504.0,0.0146
1503.0,0.0146
1502.0,0.0146
1501.0,0.0145
1500.0,0.0146
1499.0,0.0146
1498.0,0.0146
1497.0,0.0147
1496.0,0.0147
1495.0,0.0146
1494.0,0.0144
1493.0,0.0144
1492.0,0.0144
1491.0,0.0143
1490.0,0.0141
1489.0,0.0142
1488.0,0.0144
1487.0,0.0144
1486.0,0.0144
1485.0,0.0145
1484.0,0.0146
1483.0,0.0146
1482.0,0.0148
1481.0,0.0153
1480.0,0.0161
1479.0,0.0172
1478.0,0.0198
1477.0,0.0252
1476.0,0.0341
1475.0,0.0458
1474.0,0.0592
1473.0,0.0706
1472.0,0.0748
1471.0,0.0739
1470.0,0.073
1469.0,0.0735
1468.0,0.075
1467.0,0.0779
1466.0,0.084
1465.0,0.0933
1464.0,0.101
1463.0,0.1029
1462.0,0.0993
1461.0,0.0922
1460.0,0.0835
1459.0,0.0746
1458.0,0.0669
1457.0,0.0614
1456.0,0.058
1455.0,0.0555
1454.0,0.0532
1453.0,0.0506
1452.0,0.048
1451.0,0.0457
1450.0,0.0439
1449.0,0.0423
1448.0,0.041
1447.0,0.04
1446.0,0.0393
1445.0,0.0387
1444.0,0.0381
1443.0,0.0375
1442.0,0.0369
1441.0,0.0363
1440.0,0.0356
1439.0,0.035
1438.0,0.0345
1437.0,0.0339
1436.0,0.0331
1435.0,0.0324
1434.0,0.0317
1433.0,0.0308
1432.0,0.0298
1431.0,0.0289
1430.0,0.0281
1429.0,0.0273
1428.0,0.0267
1427.0,0.0261
1426.0,0.0256
1425.0,0.0249
1424.0,0.0243
1423.0,0.0239
1422.0,0.0236
1421.0,0.0234
1420.0,0.0232
1419.0,0.0232
1418.0,0.0231
1417.0,0.0228
1416.0,0.0225
1415.0,0.0223
1414.0,0.0221
1413.0,0.022
1412.0,0.0219
1411.0,0.0218
1410.0,0.0217
1409.0,0.0216
1408.0,0.0214
1407.0,0.0213
1406.0,0.0212
1405.0,0.0211
1404.0,0.0211
1403.0,0.021
1402.0,0.0209
1401.0,0.0208
1400.0,0.0206
1399.0,0.0206
1398.0,0.0206
1397.0,0.0205
1396.0,0.0205
1395.0,0.0206
1394.0,0.0207
1393.0,0.0207
1392.0,0.0206
1391.0,0.0205
1390.0,0.0205
1389.0,0.0204
1388.0,0.0205
1387.0,0.0207
1386.0,0.021
1385.0,0.0213
1384.0,0.0218
1383.0,0.0225
1382.0,0.0234
1381.0,0.0244
1380.0,0.0254
1379.0,0.0263
1378.0,0.0268
1377.0,0.0268
1376.0,0.0265
1375.0,0.0262
1374.0,0.0261
1373.0,0.0262
1372.0,0.0263
1371.0,0.0264
1370.0,0.0265
1369.0,0.0266
1368.0,0.0265
1367.0,0.0263
1366.0,0.026
1365.0,0.0257
1364.0,0.0253
1363.0,0.0251
1362.0,0.0249
1361.0,0.0248
1360.0,0.0246
1359.0,0.0245
1358.0,0.0244
1357.0,0.0243
1356.0,0.0243
1355.0,0.0243
1354.0,0.0244
1353.0,0.0244
1352.0,0.0244
1351.0,0.0243
1350.0,0.0242
1349.0,0.024
1348.0,0.0238
1347.0,0.0237
1346.0,0.0236
1345.0,0.0235
1344.0,0.0233
1343.0,0.0232
1342.0,0.023
1341.0,0.0229
1340.0,0.0228
1339.0,0.0227
1338.0,0.0226
1337.0,0.0224
1336.0,0.0222
1335.0,0.022
1334.0,0.0218
1333.0,0.0216
1332.0,0.0215
1331.0,0.0214
1330.0,0.0214
1329.0,0.0214
1328.0,0.0214
1327.0,0.0214
1326.0,0.0214
1325.0,0.0214
1324.0,0.0214
1323.0,0.0214
1322.0,0.0214
1321.0,0.0215
1320.0,0.0216
1319.0,0.0218
1318.0,0.0219
1317.0,0.0221
1316.0,0.0221
1315.0,0.0222
1314.0,0.0224
1313.0,0.0225
1312.0,0.0226
1311.0,0.0227
1310.0,0.0228
1309.0,0.0229
1308.0,0.023
1307.0,0.0231
1306.0,0.0232
1305.0,0.0233
1304.0,0.0233
1303.0,0.0233
1302.0,0.0234
1301.0,0.0233
1300.0,0.0233
1299.0,0.0232
1298.0,0.0232
1297.0,0.0231
1296.0,0.0231
1295.0,0.023
1294.0,0.0229
1293.0,0.0227
1292.0,0.0226
1291.0,0.0225
1290.0,0.0225
1289.0,0.0224
1288.0,0.0224
1287.0,0.0224
1286.0,0.0224
1285.0,0.0223
1284.0,0.0223
1283.0,0.0222
1282.0,0.0221
1281.0,0.0221
1280.0,0.0221
1279.0,0.0222
1278.0,0.0222
1277.0,0.0222
1276.0,0.0222
1275.0,0.0222
1274.0,0.0221
1273.0,0.0221
1272.0,0.0222
1271.0,0.0222
1270.0,0.0223
1269.0,0.0223
1268.0,0.0223
1267.0,0.0222
1266.0,0.0222
1265.0,0.0222
1264.0,0.0222
1263.0,0.0223
1262.0,0.0224
1261.0,0.0223
1260.0,0.0223
1259.0,0.0223
1258.0,0.0222
1257.0,0.0221
1256.0,0.0221
1255.0,0.022
1254.0,0.022
1253.0,0.022
1252.0,0.022
1251.0,0.022
1250.0,0.0219
1249.0,0.0218
1248.0,0.0218
1247.0,0.0217
1246.0,0.0217
1245.0,0.0217
1244.0,0.0217
1243.0,0.0216
1242.0,0.0215
1241.0,0.0215
1240.0,0.0215
1239.0,0.0216
1238.0,0.0217
1237.0,0.0217
1236.0,0.0217
1235.0,0.0216
1234.0,0.0215
1233.0,0.0214
1232.0,0.0214
1231.0,0.0214
1230.0,0.0214
1229.0,0.0215
1228.0,0.0215
1227.0,0.0215
1226.0,0.0215
1225.0,0.0214
1224.0,0.0214
1223.0,0.0214
1222.0,0.0215
1221.0,0.0216
1220.0,0.0216
1219.0,0.0216
1218.0,0.0215
1217.0,0.0215
1216.0,0.0215
1215.0,0.0215
1214.0,0.0215
1213.0,0.0216
1212.0,0.0216
1211.0,0.0216
1210.0,0.0216
1209.0,0.0215
1208.0,0.0215
1207.0,0.0215
1206.0,0.0215
1205.0,0.0216
1204.0,0.0216
1203.0,0.0216
1202.0,0.0216
1201.0,0.0216
1200.0,0.0216
1199.0,0.0216
1198.0,0.0216
1197.0,0.0216
1196.0,0.0217
1195.0,0.0218
1194.0,0.0219
1193.0,0.0219
1192.0,0.0219
1191.0,0.022
1190.0,0.022
1189.0,0.022
1188.0,0.022
1187.0,0.022
1186.0,0.0221
1185.0,0.0222
1184.0,0.0222
1183.0,0.0223
1182.0,0.0223
1181.0,0.0223
1180.0,0.0223
1179.0,0.0223
1178.0,0.0223
1177.0,0.0223
1176.0,0.0224
1175.0,0.0225
1174.0,0.0225
1173.0,0.0225
1172.0,0.0225
1171.0,0.0224
1170.0,0.0224
1169.0,0.0225
1168.0,0.0226
1167.0,0.0226
1166.0,0.0226
1165.0,0.0225
1164.0,0.0225
1163.0,0.0225
1162.0,0.0226
1161.0,0.0226
1160.0,0.0227
1159.0,0.0227
1158.0,0.0227
1157.0,0.0227
1156.0,0.0228
1155.0,0.0228
1154.0,0.0228
1153.0,0.0228
1152.0,0.0229
1151.0,0.0229
1150.0,0.0229
1149.0,0.0228
1148.0,0.0228
1147.0,0.0228
1146.0,0.0228
1145.0,0.0228
1144.0,0.0228
1143.0,0.0228
1142.0,0.0228
1141.0,0.0228
1140.0,0.0228
1139.0,0.0228
1138.0,0.0227
1137.0,0.0227
1136.0,0.0226
1135.0,0.0226
1134.0,0.0226
1133.0,0.0227
1132.0,0.0227
1131.0,0.0228
1130.0,0.0228
1129.0,0.0228
1128.0,0.0228
1127.0,0.0227
1126.0,0.0227
1125.0,0.0226
1124.0,0.0226
1123.0,0.0227
1122.0,0.0227
1121.0,0.0227
1120.0,0.0227
1119.0,0.0228
1118.0,0.0227
1117.0,0.0227
1116.0,0.0227
1115.0,0.0226
1114.0,0.0227
1113.0,0.0227
1112.0,0.0228
1111.0,0.0229
1110.0,0.0229
1109.0,0.0229
1108.0,0.0229
1107.0,0.0229
1106.0,0.0229
1105.0,0.0229
1104.0,0.023
1103.0,0.0232
1102.0,0.0233
1101.0,0.0233
1100.0,0.0233
1099.0,0.0233
1098.0,0.0233
1097.0,0.0234
1096.0,0.0235
1095.0,0.0236
1094.0,0.0236
1093.0,0.0236
1092.0,0.0236
1091.0,0.0236
1090.0,0.0237
1089.0,0.0239
1088.0,0.024
1087.0,0.0241
1086.0,0.0241
1085.0,0.024
1084.0,0.024
1083.0,0.0239
1082.0,0.0239
1081.0,0.024
1080.0,0.0241
1079.0,0.0243
1078.0,0.0243
1077.0,0.0242
1076.0,0.0242
1075.0,0.0241
1074.0,0.024
1073.0,0.024
1072.0,0.024
1071.0,0.0241
1070.0,0.0241
1069.0,0.0241
1068.0,0.0241
1067.0,0.0241
1066.0,0.0241
1065.0,0.0241
1064.0,0.0241
1063.0,0.0241
1062.0,0.0241
1061.0,0.024
1060.0,0.024
1059.0,0.0239
1058.0,0.0239
1057.0,0.0238
1056.0,0.0238
1055.0,0.0239
1054.0,0.0239
1053.0,0.024
1052.0,0.024
1051.0,0.024
1050.0,0.0241
1049.0,0.0242
1048.0,0.0242
1047.0,0.0242
1046.0,0.0242
1045.0,0.0243
1044.0,0.0243
1043.0,0.0242
1042.0,0.024
1041.0,0.0239
1040.0,0.0238
1039.0,0.0237
1038.0,0.0237
1037.0,0.0238
1036.0,0.0239
1035.0,0.024
1034.0,0.024
1033.0,0.024
1032.0,0.0241
1031.0,0.0242
1030.0,0.0242
1029.0,0.0242
1028.0,0.0242
1027.0,0.0242
1026.0,0.0241
1025.0,0.0241
1024.0,0.0241
1023.0,0.0241
1022.0,0.0242
1021.0,0.0243
1020.0,0.0244
1019.0,0.0244
1018.0,0.0245
1017.0,0.0244
1016.0,0.0244
1015.0,0.0243
1014.0,0.0242
1013.0,0.0241
1012.0,0.024
1011.0,0.0239
1010.0,0.0238
1009.0,0.0237
1008.0,0.0236
1007.0,0.0235
1006.0,0.0234
1005.0,0.0235
1004.0,0.0236
1003.0,0.0238
1002.0,0.0239
1001.0,0.0239
1000.0,0.0238
999.0,0.0237
998.0,0.0237
997.0,0.0236
996.0,0.0235
995.0,0.0234
994.0,0.0233
993.0,0.0232
992.0,0.023
991.0,0.023
990.0,0.0229
989.0,0.023
988.0,0.0231
987.0,0.0232
986.0,0.0233
985.0,0.0233
984.0,0.0233
983.0,0.0233
982.0,0.0233
981.0,0.0234
980.0,0.0234
979.0,0.0235
978.0,0.0234
977.0,0.0233
976.0,0.0232
975.0,0.0232
974.0,0.0232
973.0,0.0233
972.0,0.0233
971.0,0.0234
970.0,0.0234
969.0,0.0234
968.0,0.0233
967.0,0.0233
966.0,0.0233
965.0,0.0233
964.0,0.0234
963.0,0.0234
962.0,0.0234
961.0,0.0234
960.0,0.0233
959.0,0.0233
958.0,0.0233
957.0,0.0233
956.0,0.0233
955.0,0.0233
954.0,0.0233
953.0,0.0233
952.0,0.0233
951.0,0.0232
950.0,0.0232
949.0,0.0233
948.0,0.0234
947.0,0.0236
946.0,0.0236
945.0,0.0236
944.0,0.0235
943.0,0.0234
942.0,0.0234
941.0,0.0235
940.0,0.0235
939.0,0.0237
938.0,0.0238
937.0,0.0238
936.0,0.0238
935.0,0.0237
934.0,0.0236
933.0,0.0235
932.0,0.0234
931.0,0.0234
930.0,0.0235
929.0,0.0237
928.0,0.0238
927.0,0.0238
926.0,0.0237
925.0,0.0236
924.0,0.0236
923.0,0.0237
922.0,0.0238
921.0,0.0239
920.0,0.0239
919.0,0.0239
918.0,0.0238
917.0,0.0237
916.0,0.0236
915.0,0.0236
914.0,0.0236
913.0,0.0238
912.0,0.0239
911.0,0.024
910.0,0.024
909.0,0.024
908.0,0.024
907.0,0.024
906.0,0.0239
905.0,0.0239
904.0,0.024
903.0,0.0241
902.0,0.0241
901.0,0.0241
900.0,0.024
899.0,0.024
898.0,0.0241
897.0,0.0244
896.0,0.0246
895.0,0.0248
894.0,0.0248
893.0,0.0247
892.0,0.0246
891.0,0.0245
890.0,0.0244
889.0,0.0245
888.0,0.0246
887.0,0.0247
886.0,0.0247
885.0,0.0247
884.0,0.0246
883.0,0.0245
882.0,0.0244
881.0,0.0244
880.0,0.0244
879.0,0.0245
878.0,0.0245
877.0,0.0246
876.0,0.0246
875.0,0.0246
874.0,0.0245
873.0,0.0244
872.0,0.0243
871.0,0.0244
870.0,0.0245
869.0,0.0246
868.0,0.0246
867.0,0.0244
866.0,0.0243
865.0,0.0242
864.0,0.0242
863.0,0.0243
862.0,0.0244
861.0,0.0245
860.0,0.0244
859.0,0.0243
858.0,0.0242
857.0,0.0242
856.0,0.0243
855.0,0.0243
854.0,0.0243
853.0,0.0242
852.0,0.0241
851.0,0.024
850.0,0.024
849.0,0.024
848.0,0.0241
847.0,0.0242
846.0,0.0243
845.0,0.0244
844.0,0.0244
843.0,0.0243
842.0,0.0242
841.0,0.0242
840.0,0.0242
839.0,0.0242
838.0,0.0242
837.0,0.0241
836.0,0.0241
835.0,0.0241
834.0,0.0241
833.0,0.0242
832.0,0.0243
831.0,0.0243
830.0,0.0243
829.0,0.0243
828.0,0.0243
827.0,0.0243
826.0,0.0243
825.0,0.0242
824.0,0.0241
823.0,0.0242
822.0,0.0242
821.0,0.0242
820.0,0.0241
819.0,0.0242
818.0,0.0243
817.0,0.0245
816.0,0.0246
815.0,0.0246
814.0,0.0244
813.0,0.0242
812.0,0.0241
811.0,0.0242
810.0,0.0243
809.0,0.0244
808.0,0.0244
807.0,0.0244
806.0,0.0244
805.0,0.0245
804.0,0.0245
803.0,0.0246
802.0,0.0247
801.0,0.0248
800.0,0.0248
799.0,0.0247
798.0,0.0247
797.0,0.0248
796.0,0.025
795.0,0.0252
794.0,0.0253
793.0,0.0252
792.0,0.025
791.0,0.0249
790.0,0.0249
789.0,0.025
788.0,0.0252
787.0,0.0254
786.0,0.0254
785.0,0.0253
784.0,0.0251
783.0,0.0249
782.0,0.0249
781.0,0.0249
780.0,0.0249
779.0,0.0249
778.0,0.0249
777.0,0.0249
776.0,0.0248
775.0,0.0247
774.0,0.0245
773.0,0.0244
772.0,0.0244
771.0,0.0246
770.0,0.0248
769.0,0.025
768.0,0.0251
767.0,0.0251
766.0,0.0249
765.0,0.0248
764.0,0.0247
763.0,0.0246
762.0,0.0247
761.0,0.0248
760.0,0.0249
759.0,0.0249
758.0,0.0249
757.0,0.0248
756.0,0.0249
755.0,0.025
754.0,0.0251
753.0,0.0251
752.0,0.0249
751.0,0.0246
750.0,0.0245
749.0,0.0246
748.0,0.0248
747.0,0.025
746.0,0.0251
745.0,0.0252
744.0,0.0252
743.0,0.0251
742.0,0.025
741.0,0.0251
740.0,0.0253
739.0,0.0256
738.0,0.026
737.0,0.0267
736.0,0.028
735.0,0.0306
734.0,0.036
733.0,0.045
732.0,0.0568
731.0,0.0678
730.0,0.074
729.0,0.0741
728.0,0.07
727.0,0.0653
726.0,0.0627
725.0,0.0629
724.0,0.0659
723.0,0.0725
722.0,0.0837
721.0,0.0986
720.0,0.1117
719.0,0.1166
718.0,0.1115
717.0,0.1002
716.0,0.0872
715.0,0.0757
714.0,0.0665
713.0,0.0597
712.0,0.0548
711.0,0.0513
710.0,0.0487
709.0,0.0466
708.0,0.0446
707.0,0.0426
706.0,0.041
705.0,0.04
704.0,0.0397
703.0,0.0397
702.0,0.0394
701.0,0.0388
700.0,0.0382
699.0,0.0377
698.0,0.0372
697.0,0.0365
696.0,0.0358
695.0,0.0349
694.0,0.0335
693.0,0.0318
692.0,0.0308
691.0,0.031
690.0,0.0315
689.0,0.0313
688.0,0.0301
687.0,0.029
686.0,0.0283
685.0,0.0282
684.0,0.0282
683.0,0.0283
682.0,0.0288
681.0,0.0295
680.0,0.03
679.0,0.0304
678.0,0.0304
677.0,0.0299
676.0,0.0293
675.0,0.0289
674.0,0.029
673.0,0.0292
672.0,0.0295
671.0,0.0298
670.0,0.0299
669.0,0.0293
668.0,0.0281
667.0,0.0283
666.0,0.0291
665.0,0.0293
664.0,0.0292
663.0,0.029
662.0,0.0283
661.0,0.0272
660.0,0.0261
659.0,0.026
658.0,0.0268
657.0,0.0278
656.0,0.0284
655.0,0.029
654.0,0.0295
653.0,0.0295
652.0,0.0287
651.0,0.0274
650.0,0.0263
649.0,0.0253
648.0,0.0248
647.0,0.0252
646.0,0.0264
645.0,0.0277
644.0,0.0283
643.0,0.028
642.0,0.0274
641.0,0.0268
640.0,0.0264
639.0,0.0268
638.0,0.0279
637.0,0.0296
636.0,0.031
635.0,0.0315
634.0,0.0309
633.0,0.0298
632.0,0.0292
631.0,0.0294
630.0,0.0302
629.0,0.0306
628.0,0.0304
627.0,0.03
626.0,0.0295
625.0,0.0289
624.0,0.0282
623.0,0.0278
622.0,0.028
621.0,0.0286
620.0,0.0289
619.0,0.0287
618.0,0.0281
617.0,0.0275
616.0,0.0275
615.0,0.0285
614.0,0.0304
613.0,0.0323
612.0,0.0333
611.0,0.0333
610.0,0.0328
609.0,0.032
608.0,0.0312
607.0,0.0308
606.0,0.0312
605.0,0.032
604.0,0.0325
603.0,0.0325
602.0,0.0325
601.0,0.0324
600.0,0.032
