cm-1,A
4000.0,0.0083
3999.0,0.0083
3998.0,0.0082
3997.0,0.0082
3996.0,0.0081
3995.0,0.0081
3994.0,0.008
3993.0,0.008
3992.0,0.008
3991.0,0.0081
3990.0,0.0081
3989.0,0.0081
3988.0,0.0081
3987.0,0.0081
3986.0,0.0081
3985.0,0.0081
3984.0,0.0082
3983.0,0.0083
3982.0,0.0083
3981.0,0.0084
3980.0,0.0083
3979.0,0.0083
3978.0,0.0082
3977.0,0.0081
3976.0,0.0081
3975.0,0.008
3974.0,0.008
3973.0,0.008
3972.0,0.008
3971.0,0.0081
3970.0,0.0082
3969.0,0.0083
3968.0,0.0084
3967.0,0.0084
3966.0,0.0084
3965.0,0.0083
3964.0,0.0082
3963.0,0.0082
3962.0,0.0081
3961.0,0.008
3960.0,0.008
3959.0,0.0081
3958.0,0.0081
3957.0,0.0082
3956.0,0.0082
3955.0,0.0082
3954.0,0.0082
3953.0,0.0082
3952.0,0.0081
3951.0,0.0081
3950.0,0.008
3949.0,0.0079
3948.0,0.0079
3947.0,0.0078
3946.0,0.0079
3945.0,0.0079
3944.0,0.0079
3943.0,0.0079
3942.0,0.0079
3941.0,0.0079
3940.0,0.008
3939.0,0.0081
3938.0,0.0082
3937.0,0.0082
3936.0,0.0082
3935.0,0.0082
3934.0,0.0082
3933.0,0.0081
3932.0,0.0081
3931.0,0.0081
3930.0,0.0082
3929.0,0.0082
3928.0,0.0082
3927.0,0.0081
3926.0,0.0081
3925.0,0.0081
3924.0,0.0081
3923.0,0.0082
3922.0,0.0082
3921.0,0.0083
3920.0,0.0083
3919.0,0.0083
3918.0,0.0084
3917.0,0.0084
3916.0,0.0084
3915.0,0.0084
3914.0,0.0084
3913.0,0.0084
3912.0,0.0084
3911.0,0.0083
3910.0,0.0083
3909.0,0.0082
3908.0,0.0081
3907.0,0.0081
3906.0,0.008
3905.0,0.008
3904.0,0.008
3903.0,0.0081
3902.0,0.0081
3901.0,0.0082
3900.0,0.0082
3899.0,0.0082
3898.0,0.0083
3897.0,0.0084
3896.0,0.0084
3895.0,0.0083
3894.0,0.0083
3893.0,0.0082
3892.0,0.0083
3891.0,0.0083
3890.0,0.0083
3889.0,0.0084
3888.0,0.0085
3887.0,0.0085
3886.0,0.0084
3885.0,0.0083
3884.0,0.0083
3883.0,0.0083
3882.0,0.0084
3881.0,0.0084
3880.0,0.0084
3879.0,0.0083
3878.0,0.0084
3877.0,0.0084
3876.0,0.0085
3875.0,0.0085
3874.0,0.0085
3873.0,0.0085
3872.0,0.0085
3871.0,0.0086
3870.0,0.0087
3869.0,0.0087
3868.0,0.0088
3867.0,0.0089
3866.0,0.0089
3865.0,0.0087
3864.0,0.0085
3863.0,0.0084
3862.0,0.0084
3861.0,0.0085
3860.0,0.0086
3859.0,0.0086
3858.0,0.0086
3857.0,0.0087
3856.0,0.0087
3855.0,0.0089
3854.0,0.0091
3853.0,0.0091
3852.0,0.009
3851.0,0.0091
3850.0,0.0091
3849.0,0.0091
3848.0,0.009
3847.0,0.0088
3846.0,0.0087
3845.0,0.0085
3844.0,0.0084
3843.0,0.0083
3842.0,0.0084
3841.0,0.0086
3840.0,0.0088
3839.0,0.0088
3838.0,0.0088
3837.0,0.0087
3836.0,0.0088
3835.0,0.0089
3834.0,0.0091
3833.0,0.0092
3832.0,0.0092
3831.0,0.009
3830.0,0.0089
3829.0,0.0087
3828.0,0.0087
3827.0,0.0087
3826.0,0.0088
3825.0,0.0088
3824.0,0.0089
3823.0,0.009
3822.0,0.009
3821.0,0.009
3820.0,0.0089
3819.0,0.0089
3818.0,0.009
3817.0,0.009
3816.0,0.0089
3815.0,0.0088
3814.0,0.0088
3813.0,0.0089
3812.0,0.0089
3811.0,0.0089
3810.0,0.0089
3809.0,0.009
3808.0,0.0091
3807.0,0.0091
3806.0,0.009
3805.0,0.0089
3804.0,0.009
3803.0,0.009
3802.0,0.009
3801.0,0.0089
3800.0,0.0088
3799.0,0.0089
3798.0,0.009
3797.0,0.0089
3796.0,0.0088
3795.0,0.0088
3794.0,0.0089
3793.0,0.0089
3792.0,0.0089
3791.0,0.0089
3790.0,0.0089
3789.0,0.009
3788.0,0.009
3787.0,0.009
3786.0,0.009
3785.0,0.009
3784.0,0.009
3783.0,0.0089
3782.0,0.0089
3781.0,0.0089
3780.0,0.0089
3779.0,0.0089
3778.0,0.0089
3777.0,0.0089
3776.0,0.009
3775.0,0.0089
3774.0,0.0089
3773.0,0.0088
3772.0,0.0088
3771.0,0.0088
3770.0,0.0089
3769.0,0.0089
3768.0,0.009
3767.0,0.0092
3766.0,0.0092
3765.0,0.0091
3764.0,0.0091
3763.0,0.0091
3762.0,0.0092
3761.0,0.0093
3760.0,0.0092
3759.0,0.0092
3758.0,0.0091
3757.0,0.009
3756.0,0.009
3755.0,0.009
3754.0,0.0091
3753.0,0.0092
3752.0,0.0094
3751.0,0.0095
3750.0,0.0094
3749.0,0.0092
3748.0,0.0091
3747.0,0.009
3746.0,0.0091
3745.0,0.0091
3744.0,0.0089
3743.0,0.0087
3742.0,0.0086
3741.0,0.0083
3740.0,0.0079
3739.0,0.0076
3738.0,0.0075
3737.0,0.0075
3736.0,0.0075
3735.0,0.0075
3734.0,0.0074
3733.0,0.0073
3732.0,0.0072
3731.0,0.0072
3730.0,0.0072
3729.0,0.0072
3728.0,0.0071
3727.0,0.007
3726.0,0.0069
3725.0,0.0069
3724.0,0.0069
3723.0,0.0069
3722.0,0.0071
3721.0,0.0074
3720.0,0.0078
3719.0,0.0081
3718.0,0.0084
3717.0,0.0086
3716.0,0.0087
3715.0,0.0087
3714.0,0.0087
3713.0,0.0086
3712.0,0.0086
3711.0,0.0085
3710.0,0.0083
3709.0,0.0082
3708.0,0.008
3707.0,0.0079
3706.0,0.0078
3705.0,0.0078
3704.0,0.0079
3703.0,0.008
3702.0,0.008
3701.0,0.008
3700.0,0.0079
3699.0,0.0079
3698.0,0.0079
3697.0,0.008
3696.0,0.008
3695.0,0.0081
3694.0,0.0082
3693.0,0.0083
3692.0,0.0085
3691.0,0.0087
3690.0,0.0089
3689.0,0.0088
3688.0,0.0087
3687.0,0.0087
3686.0,0.0089
3685.0,0.009
3684.0,0.0091
3683.0,0.0092
3682.0,0.0091
3681.0,0.0091
3680.0,0.009
3679.0,0.0089
3678.0,0.009
3677.0,0.0093
3676.0,0.0096
3675.0,0.0096
3674.0,0.0096
3673.0,0.0096
3672.0,0.0097
3671.0,0.0097
3670.0,0.0097
3669.0,0.0096
3668.0,0.0096
3667.0,0.0097
3666.0,0.0097
3665.0,0.0097
3664.0,0.0097
3663.0,0.0096
3662.0,0.0095
3661.0,0.0095
3660.0,0.0094
3659.0,0.0093
3658.0,0.0094
3657.0,0.0094
3656.0,0.0095
3655.0,0.0095
3654.0,0.0095
3653.0,0.0096
3652.0,0.0097
3651.0,0.01
3650.0,0.0101
3649.0,0.01
3648.0,0.0097
3647.0,0.0096
3646.0,0.0096
3645.0,0.0096
3644.0,0.0096
3643.0,0.0095
3642.0,0.0094
3641.0,0.0093
3640.0,0.0093
3639.0,0.0092
3638.0,0.0091
3637.0,0.009
3636.0,0.0089
3635.0,0.0088
3634.0,0.0087
3633.0,0.0086
3632.0,0.0086
3631.0,0.0086
3630.0,0.0087
3629.0,0.0088
3628.0,0.0088
3627.0,0.0089
3626.0,0.009
3625.0,0.009
3624.0,0.0089
3623.0,0.0089
3622.0,0.0088
3621.0,0.0088
3620.0,0.0088
3619.0,0.0089
3618.0,0.009
3617.0,0.0092
3616.0,0.0095
3615.0,0.0097
3614.0,0.0098
3613.0,0.0098
3612.0,0.0097
3611.0,0.0096
3610.0,0.0096
3609.0,0.0096
3608.0,0.0097
3607.0,0.0097
3606.0,0.0096
3605.0,0.0095
3604.0,0.0094
3603.0,0.0094
3602.0,0.0093
3601.0,0.0093
3600.0,0.0093
3599.0,0.0093
3598.0,0.0093
3597.0,0.0093
3596.0,0.0094
3595.0,0.0094
3594.0,0.0094
3593.0,0.0095
3592.0,0.0095
3591.0,0.0095
3590.0,0.0096
3589.0,0.0097
3588.0,0.0099
3587.0,0.01
3586.0,0.01
3585.0,0.0101
3584.0,0.0102
3583.0,0.0103
3582.0,0.0104
3581.0,0.0104
3580.0,0.0105
3579.0,0.0106
3578.0,0.0107
3577.0,0.0108
3576.0,0.0109
3575.0,0.011
3574.0,0.011
3573.0,0.0109
3572.0,0.0108
3571.0,0.0106
3570.0,0.0104
3569.0,0.0104
3568.0,0.0104
3567.0,0.0105
3566.0,0.0105
3565.0,0.0106
3564.0,0.0107
3563.0,0.0108
3562.0,0.0109
3561.0,0.011
3560.0,0.0111
3559.0,0.0112
3558.0,0.0112
3557.0,0.0113
3556.0,0.0113
3555.0,0.0113
3554.0,0.0114
3553.0,0.0114
3552.0,0.0114
3551.0,0.0113
3550.0,0.0113
3549.0,0.0112
3548.0,0.0111
3547.0,0.0111
3546.0,0.0111
3545.0,0.0111
3544.0,0.0111
3543.0,0.0111
3542.0,0.0112
3541.0,0.0112
3540.0,0.0113
3539.0,0.0113
3538.0,0.0114
3537.0,0.0114
3536.0,0.0115
3535.0,0.0115
3534.0,0.0116
3533.0,0.0116
3532.0,0.0116
3531.0,0.0115
3530.0,0.0114
3529.0,0.0113
3528.0,0.0112
3527.0,0.0112
3526.0,0.0113
3525.0,0.0113
3524.0,0.0114
3523.0,0.0114
3522.0,0.0114
3521.0,0.0114
3520.0,0.0115
3519.0,0.0116
3518.0,0.0116
3517.0,0.0116
3516.0,0.0116
3515.0,0.0115
3514.0,0.0115
3513.0,0.0116
3512.0,0.0117
3511.0,0.0118
3510.0,0.0118
3509.0,0.0118
3508.0,0.0117
3507.0,0.0116
3506.0,0.0115
3505.0,0.0115
3504.0,0.0115
3503.0,0.0116
3502.0,0.0116
3501.0,0.0116
3500.0,0.0116
3499.0,0.0116
3498.0,0.0117
3497.0,0.0116
3496.0,0.0116
3495.0,0.0115
3494.0,0.0115
3493.0,0.0115
3492.0,0.0116
3491.0,0.0117
3490.0,0.0118
3489.0,0.0118
3488.0,0.0118
3487.0,0.0118
3486.0,0.0117
3485.0,0.0117
3484.0,0.0116
3483.0,0.0116
3482.0,0.0115
3481.0,0.0115
3480.0,0.0115
3479.0,0.0116
3478.0,0.0117
3477.0,0.0118
3476.0,0.0118
3475.0,0.0118
3474.0,0.0118
3473.0,0.0117
3472.0,0.0117
3471.0,0.0118
3470.0,0.0119
3469.0,0.0119
3468.0,0.0119
3467.0,0.0118
3466.0,0.0117
3465.0,0.0117
3464.0,0.0117
3463.0,0.0117
3462.0,0.0117
3461.0,0.0118
3460.0,0.0118
3459.0,0.0118
3458.0,0.0118
3457.0,0.0118
3456.0,0.0118
3455.0,0.0117
3454.0,0.0117
3453.0,0.0118
3452.0,0.0118
3451.0,0.0119
3450.0,0.0118
3449.0,0.0118
3448.0,0.0118
3447.0,0.0118
3446.0,0.0119
3445.0,0.012
3444.0,0.0121
3443.0,0.0121
3442.0,0.0121
3441.0,0.012
3440.0,0.0119
3439.0,0.0119
3438.0,0.012
3437.0,0.012
3436.0,0.0121
3435.0,0.0121
3434.0,0.0121
3433.0,0.0122
3432.0,0.0121
3431.0,0.0121
3430.0,0.012
3429.0,0.0121
3428.0,0.0122
3427.0,0.0123
3426.0,0.0123
3425.0,0.0122
3424.0,0.0121
3423.0,0.0121
3422.0,0.0121
3421.0,0.0122
3420.0,0.0122
3419.0,0.0122
3418.0,0.0121
3417.0,0.0121
3416.0,0.012
3415.0,0.0119
3414.0,0.0119
3413.0,0.0118
3412.0,0.0118
3411.0,0.0119
3410.0,0.012
3409.0,0.012
3408.0,0.0121
3407.0,0.0121
3406.0,0.0122
3405.0,0.0122
3404.0,0.0123
3403.0,0.0122
3402.0,0.0122
3401.0,0.0122
3400.0,0.0122
3399.0,0.0121
3398.0,0.0121
3397.0,0.012
3396.0,0.0119
3395.0,0.0119
3394.0,0.0119
3393.0,0.012
3392.0,0.0121
3391.0,0.0121
3390.0,0.0121
3389.0,0.012
3388.0,0.0119
3387.0,0.0118
3386.0,0.0118
3385.0,0.0118
3384.0,0.0118
3383.0,0.0118
3382.0,0.0119
3381.0,0.0119
3380.0,0.0118
3379.0,0.0118
3378.0,0.0118
3377.0,0.0119
3376.0,0.0119
3375.0,0.012
3374.0,0.012
3373.0,0.012
3372.0,0.012
3371.0,0.0119
3370.0,0.0118
3369.0,0.0118
3368.0,0.0118
3367.0,0.0118
3366.0,0.0117
3365.0,0.0117
3364.0,0.0117
3363.0,0.0117
3362.0,0.0118
3361.0,0.0118
3360.0,0.0118
3359.0,0.0119
3358.0,0.0119
3357.0,0.0119
3356.0,0.0119
3355.0,0.0119
3354.0,0.0119
3353.0,0.0118
3352.0,0.0117
3351.0,0.0117
3350.0,0.0117
3349.0,0.0118
3348.0,0.0118
3347.0,0.0119
3346.0,0.0119
3345.0,0.0119
3344.0,0.0118
3343.0,0.0118
3342.0,0.0117
3341.0,0.0116
3340.0,0.0116
3339.0,0.0117
3338.0,0.0117
3337.0,0.0117
3336.0,0.0117
3335.0,0.0116
3334.0,0.0116
3333.0,0.0117
3332.0,0.0117
3331.0,0.0116
3330.0,0.0116
3329.0,0.0115
3328.0,0.0115
3327.0,0.0114
3326.0,0.0114
3325.0,0.0113
3324.0,0.0113
3323.0,0.0113
3322.0,0.0114
3321.0,0.0114
3320.0,0.0115
3319.0,0.0115
3318.0,0.0115
3317.0,0.0114
3316.0,0.0114
3315.0,0.0113
3314.0,0.0112
3313.0,0.0111
3312.0,0.0111
3311.0,0.0111
3310.0,0.0112
3309.0,0.0112
3308.0,0.0113
3307.0,0.0113
3306.0,0.0113
3305.0,0.0112
3304.0,0.0111
3303.0,0.0111
3302.0,0.0112
3301.0,0.0114
3300.0,0.0114
3299.0,0.0114
3298.0,0.0113
3297.0,0.0111
3296.0,0.011
3295.0,0.011
3294.0,0.011
3293.0,0.0111
3292.0,0.0111
3291.0,0.0111
3290.0,0.011
3289.0,0.0111
3288.0,0.0111
3287.0,0.0112
3286.0,0.0112
3285.0,0.0111
3284.0,0.011
3283.0,0.0109
3282.0,0.0109
3281.0,0.0109
3280.0,0.011
3279.0,0.011
3278.0,0.0109
3277.0,0.0109
3276.0,0.0108
3275.0,0.0107
3274.0,0.0106
3273.0,0.0107
3272.0,0.0108
3271.0,0.0109
3270.0,0.0109
3269.0,0.0109
3268.0,0.0108
3267.0,0.0108
3266.0,0.0108
3265.0,0.0108
3264.0,0.0108
3263.0,0.0108
3262.0,0.0107
3261.0,0.0107
3260.0,0.0107
3259.0,0.0107
3258.0,0.0107
3257.0,0.0106
3256.0,0.0106
3255.0,0.0106
3254.0,0.0106
3253.0,0.0106
3252.0,0.0106
3251.0,0.0106
3250.0,0.0106
3249.0,0.0106
3248.0,0.0105
3247.0,0.0105
3246.0,0.0104
3245.0,0.0103
3244.0,0.0103
3243.0,0.0102
3242.0,0.0102
3241.0,0.0101
3240.0,0.0102
3239.0,0.0102
3238.0,0.0103
3237.0,0.0103
3236.0,0.0104
3235.0,0.0105
3234.0,0.0105
3233.0,0.0104
3232.0,0.0104
3231.0,0.0104
3230.0,0.0104
3229.0,0.0104
3228.0,0.0105
3227.0,0.0106
3226.0,0.0106
3225.0,0.0106
3224.0,0.0105
3223.0,0.0105
3222.0,0.0104
3221.0,0.0104
3220.0,0.0104
3219.0,0.0104
3218.0,0.0104
3217.0,0.0104
3216.0,0.0105
3215.0,0.0105
3214.0,0.0105
3213.0,0.0105
3212.0,0.0105
3211.0,0.0106
3210.0,0.0106
3209.0,0.0106
3208.0,0.0105
3207.0,0.0105
3206.0,0.0104
3205.0,0.0104
3204.0,0.0104
3203.0,0.0104
3202.0,0.0104
3201.0,0.0103
3200.0,0.0103
3199.0,0.0103
3198.0,0.0103
3197.0,0.0103
3196.0,0.0103
3195.0,0.0103
3194.0,0.0102
3193.0,0.0101
3192.0,0.01
3191.0,0.01
3190.0,0.01
3189.0,0.0101
3188.0,0.0102
3187.0,0.0102
3186.0,0.0102
3185.0,0.0101
3184.0,0.0102
3183.0,0.0102
3182.0,0.0102
3181.0,0.0101
3180.0,0.01
3179.0,0.01
3178.0,0.01
3177.0,0.01
3176.0,0.01
3175.0,0.0099
3174.0,0.0098
3173.0,0.0097
3172.0,0.0097
3171.0,0.0097
3170.0,0.0097
3169.0,0.0097
3168.0,0.0097
3167.0,0.0098
3166.0,0.0098
3165.0,0.0098
3164.0,0.0097
3163.0,0.0096
3162.0,0.0095
3161.0,0.0095
3160.0,0.0094
3159.0,0.0095
3158.0,0.0096
3157.0,0.0097
3156.0,0.0097
3155.0,0.0097
3154.0,0.0097
3153.0,0.0096
3152.0,0.0095
3151.0,0.0094
3150.0,0.0094
3149.0,0.0094
3148.0,0.0094
3147.0,0.0094
3146.0,0.0094
3145.0,0.0094
3144.0,0.0094
3143.0,0.0093
3142.0,0.0093
3141.0,0.0092
3140.0,0.0091
3139.0,0.0091
3138.0,0.0091
3137.0,0.0091
3136.0,0.009
3135.0,0.009
3134.0,0.0089
3133.0,0.0088
3132.0,0.0087
3131.0,0.0086
3130.0,0.0086
3129.0,0.0086
3128.0,0.0086
3127.0,0.0085
3126.0,0.0085
3125.0,0.0086
3124.0,0.0086
3123.0,0.0087
3122.0,0.0087
3121.0,0.0086
3120.0,0.0085
3119.0,0.0084
3118.0,0.0084
3117.0,0.0083
3116.0,0.0083
3115.0,0.0083
3114.0,0.0082
3113.0,0.0082
3112.0,0.0081
3111.0,0.0081
3110.0,0.0081
3109.0,0.008
3108.0,0.008
3107.0,0.008
3106.0,0.008
3105.0,0.008
3104.0,0.008
3103.0,0.008
3102.0,0.0079
3101.0,0.0079
3100.0,0.0078
3099.0,0.0078
3098.0,0.0078
3097.0,0.0078
3096.0,0.0078
3095.0,0.0077
3094.0,0.0077
3093.0,0.0076
3092.0,0.0076
3091.0,0.0076
3090.0,0.0075
3089.0,0.0075
3088.0,0.0075
3087.0,0.0075
3086.0,0.0075
3085.0,0.0075
3084.0,0.0075
3083.0,0.0074
3082.0,0.0074
3081.0,0.0074
3080.0,0.0073
3079.0,0.0072
3078.0,0.0072
3077.0,0.0071
3076.0,0.0071
3075.0,0.0071
3074.0,0.007
3073.0,0.007
3072.0,0.007
3071.0,0.007
3070.0,0.0069
3069.0,0.0069
3068.0,0.0069
3067.0,0.0069
3066.0,0.0069
3065.0,0.0069
3064.0,0.0069
3063.0,0.0069
3062.0,0.0069
3061.0,0.0068
3060.0,0.0067
3059.0,0.0066
3058.0,0.0066
3057.0,0.0065
3056.0,0.0065
3055.0,0.0064
3054.0,0.0064
3053.0,0.0063
3052.0,0.0063
3051.0,0.0062
3050.0,0.0062
3049.0,0.0062
3048.0,0.0062
3047.0,0.0061
3046.0,0.006
3045.0,0.0059
3044.0,0.0059
3043.0,0.0058
3042.0,0.0057
3041.0,0.0056
3040.0,0.0056
3039.0,0.0055
3038.0,0.0056
3037.0,0.0056
3036.0,0.0056
3035.0,0.0056
3034.0,0.0055
3033.0,0.0055
3032.0,0.0055
3031.0,0.0055
3030.0,0.0055
3029.0,0.0055
3028.0,0.0054
3027.0,0.0054
3026.0,0.0053
3025.0,0.0052
3024.0,0.0052
3023.0,0.0051
3022.0,0.0051
3021.0,0.0051
3020.0,0.005
3019.0,0.0049
3018.0,0.0048
3017.0,0.0046
3016.0,0.0045
3015.0,0.0044
3014.0,0.0043
3013.0,0.0042
3012.0,0.0042
3011.0,0.0042
3010.0,0.0043
3009.0,0.0043
3008.0,0.0043
3007.0,0.0043
3006.0,0.0044
3005.0,0.0044
3004.0,0.0045
3003.0,0.0045
3002.0,0.0046
3001.0,0.0046
3000.0,0.0046
2999.0,0.0045
2998.0,0.0045
2997.0,0.0046
2996.0,0.0046
2995.0,0.0047
2994.0,0.0049
2993.0,0.0052
2992.0,0.0055
2991.0,0.0058
2990.0,0.0061
2989.0,0.0065
2988.0,0.0069
2987.0,0.0073
2986.0,0.0079
2985.0,0.0086
2984.0,0.0094
2983.0,0.0103
2982.0,0.0113
2981.0,0.0125
2980.0,0.0139
2979.0,0.0155
2978.0,0.0173
2977.0,0.0194
2976.0,0.0219
2975.0,0.0248
2974.0,0.0281
2973.0,0.0319
2972.0,0.036
2971.0,0.0405
2970.0,0.0454
2969.0,0.0507
2968.0,0.0564
2967.0,0.0625
2966.0,0.0686
2965.0,0.0748
2964.0,0.0805
2963.0,0.0855
2962.0,0.0896
2961.0,0.0926
2960.0,0.095
2959.0,0.0971
2958.0,0.0995
2957.0,0.1026
2956.0,0.1067
2955.0,0.1119
2954.0,0.118
2953.0,0.1244
2952.0,0.1301
2951.0,0.1341
2950.0,0.1357
2949.0,0.1343
2948.0,0.1299
2947.0,0.1232
2946.0,0.115
2945.0,0.1061
2944.0,0.0976
2943.0,0.0902
2942.0,0.0843
2941.0,0.08
2940.0,0.0773
2939.0,0.0761
2938.0,0.0763
2937.0,0.0777
2936.0,0.0803
2935.0,0.0839
2934.0,0.0886
2933.0,0.0942
2932.0,0.1007
2931.0,0.1078
2930.0,0.1154
2929.0,0.1234
2928.0,0.1314
2927.0,0.1394
2926.0,0.1473
2925.0,0.1551
2924.0,0.1631
2923.0,0.1713
2922.0,0.1797
2921.0,0.1879
2920.0,0.1954
2919.0,0.2013
2918.0,0.2045
2917.0,0.2047
2916.0,0.2017
2915.0,0.1962
2914.0,0.1892
2913.0,0.1817
2912.0,0.1744
2911.0,0.1679
2910.0,0.1622
2909.0,0.1572
2908.0,0.1526
2907.0,0.1482
2906.0,0.1438
2905.0,0.1395
2904.0,0.1352
2903.0,0.131
2902.0,0.1268
2901.0,0.1227
2900.0,0.1187
2899.0,0.1148
2898.0,0.1112
2897.0,0.1079
2896.0,0.1049
2895.0,0.1022
2894.0,0.0999
2893.0,0.0979
2892.0,0.0964
2891.0,0.0953
2890.0,0.0946
2889.0,0.094
2888.0,0.0937
2887.0,0.0936
2886.0,0.0938
2885.0,0.0941
2884.0,0.0947
2883.0,0.0956
2882.0,0.0968
2881.0,0.0981
2880.0,0.0994
2879.0,0.1004
2878.0,0.1009
2877.0,0.1007
2876.0,0.1001
2875.0,0.0995
2874.0,0.099
2873.0,0.099
2872.0,0.0996
2871.0,0.1007
2870.0,0.1022
2869.0,0.1037
2868.0,0.1047
2867.0,0.1047
2866.0,0.1032
2865.0,0.1
2864.0,0.0955
2863.0,0.0903
2862.0,0.0851
2861.0,0.0804
2860.0,0.0768
2859.0,0.0744
2858.0,0.0731
2857.0,0.073
2856.0,0.0739
2855.0,0.0757
2854.0,0.0784
2853.0,0.0816
2852.0,0.0848
2851.0,0.0875
2850.0,0.0891
2849.0,0.0895
2848.0,0.0892
2847.0,0.0888
2846.0,0.0891
2845.0,0.0905
2844.0,0.0928
2843.0,0.0959
2842.0,0.0993
2841.0,0.1025
2840.0,0.105
2839.0,0.1062
2838.0,0.1058
2837.0,0.1036
2836.0,0.0996
2835.0,0.0942
2834.0,0.0879
2833.0,0.0815
2832.0,0.0754
2831.0,0.0699
2830.0,0.0652
2829.0,0.0613
2828.0,0.058
2827.0,0.0552
2826.0,0.053
2825.0,0.051
2824.0,0.0493
2823.0,0.0477
2822.0,0.0464
2821.0,0.0451
2820.0,0.0441
2819.0,0.0432
2818.0,0.0424
2817.0,0.0417
2816.0,0.041
2815.0,0.0404
2814.0,0.0398
2813.0,0.0393
2812.0,0.0388
2811.0,0.0383
2810.0,0.0377
2809.0,0.0371
2808.0,0.0366
2807.0,0.036
2806.0,0.0355
2805.0,0.0349
2804.0,0.0343
2803.0,0.0337
2802.0,0.0331
2801.0,0.0326
2800.0,0.0322
2799.0,0.0319
2798.0,0.0316
2797.0,0.0312
2796.0,0.031
2795.0,0.0307
2794.0,0.0304
2793.0,0.0301
2792.0,0.0298
2791.0,0.0295
2790.0,0.0292
2789.0,0.0289
2788.0,0.0286
2787.0,0.0283
2786.0,0.028
2785.0,0.0277
2784.0,0.0275
2783.0,0.0273
2782.0,0.027
2781.0,0.0267
2780.0,0.0264
2779.0,0.0261
2778.0,0.0259
2777.0,0.0257
2776.0,0.0255
2775.0,0.0254
2774.0,0.0252
2773.0,0.0251
2772.0,0.025
2771.0,0.0249
2770.0,0.0248
2769.0,0.0247
2768.0,0.0246
2767.0,0.0245
2766.0,0.0244
2765.0,0.0242
2764.0,0.0241
2763.0,0.0239
2762.0,0.0238
2761.0,0.0237
2760.0,0.0236
2759.0,0.0235
2758.0,0.0234
2757.0,0.0233
2756.0,0.0232
2755.0,0.0232
2754.0,0.0231
2753.0,0.023
2752.0,0.0229
2751.0,0.0229
2750.0,0.0228
2749.0,0.0228
2748.0,0.0227
2747.0,0.0227
2746.0,0.0228
2745.0,0.0228
2744.0,0.0228
2743.0,0.0228
2742.0,0.0228
2741.0,0.0228
2740.0,0.0229
2739.0,0.023
2738.0,0.0231
2737.0,0.0232
2736.0,0.0232
2735.0,0.0233
2734.0,0.0234
2733.0,0.0235
2732.0,0.0235
2731.0,0.0236
2730.0,0.0236
2729.0,0.0237
2728.0,0.0239
2727.0,0.0242
2726.0,0.0245
2725.0,0.0247
2724.0,0.0249
2723.0,0.025
2722.0,0.0249
2721.0,0.0248
2720.0,0.0245
2719.0,0.0242
2718.0,0.0239
2717.0,0.0237
2716.0,0.0235
2715.0,0.0232
2714.0,0.023
2713.0,0.0228
2712.0,0.0227
2711.0,0.0225
2710.0,0.0223
2709.0,0.0221
2708.0,0.022
2707.0,0.0218
2706.0,0.0217
2705.0,0.0216
2704.0,0.0215
2703.0,0.0214
2702.0,0.0212
2701.0,0.0211
2700.0,0.021
2699.0,0.0209
2698.0,0.0209
2697.0,0.0209
2696.0,0.0209
2695.0,0.0209
2694.0,0.0208
2693.0,0.0208
2692.0,0.0207
2691.0,0.0207
2690.0,0.0206
2689.0,0.0206
2688.0,0.0206
2687.0,0.0206
2686.0,0.0206
2685.0,0.0206
2684.0,0.0206
2683.0,0.0206
2682.0,0.0206
2681.0,0.0206
2680.0,0.0206
2679.0,0.0206
2678.0,0.0206
2677.0,0.0206
2676.0,0.0206
2675.0,0.0206
2674.0,0.0205
2673.0,0.0204
2672.0,0.0203
2671.0,0.0203
2670.0,0.0203
2669.0,0.0203
2668.0,0.0204
2667.0,0.0204
2666.0,0.0203
2665.0,0.0203
2664.0,0.0202
2663.0,0.0202
2662.0,0.0201
2661.0,0.0201
2660.0,0.0202
2659.0,0.0202
2658.0,0.0201
2657.0,0.02
2656.0,0.0199
2655.0,0.0198
2654.0,0.0197
2653.0,0.0197
2652.0,0.0196
2651.0,0.0195
2650.0,0.0194
2649.0,0.0194
2648.0,0.0194
2647.0,0.0194
2646.0,0.0193
2645.0,0.0193
2644.0,0.0192
2643.0,0.0191
2642.0,0.019
2641.0,0.019
2640.0,0.0191
2639.0,0.0191
2638.0,0.0191
2637.0,0.019
2636.0,0.019
2635.0,0.0189
2634.0,0.0189
2633.0,0.0189
2632.0,0.0189
2631.0,0.0188
2630.0,0.0188
2629.0,0.0188
2628.0,0.0188
2627.0,0.0188
2626.0,0.0189
2625.0,0.0189
2624.0,0.0189
2623.0,0.0189
2622.0,0.0189
2621.0,0.0188
2620.0,0.0188
2619.0,0.0189
2618.0,0.0189
2617.0,0.0189
2616.0,0.0189
2615.0,0.0188
2614.0,0.0188
2613.0,0.0188
2612.0,0.0189
2611.0,0.0188
2610.0,0.0188
2609.0,0.0187
2608.0,0.0186
2607.0,0.0185
2606.0,0.0184
2605.0,0.0183
2604.0,0.0182
2603.0,0.0182
2602.0,0.0181
2601.0,0.0181
2600.0,0.0181
2599.0,0.0181
2598.0,0.0181
2597.0,0.0181
2596.0,0.0181
2595.0,0.0182
2594.0,0.0182
2593.0,0.0182
2592.0,0.0183
2591.0,0.0183
2590.0,0.0183
2589.0,0.0184
2588.0,0.0185
2587.0,0.0186
2586.0,0.0187
2585.0,0.0187
2584.0,0.0188
2583.0,0.0187
2582.0,0.0187
2581.0,0.0187
2580.0,0.0188
2579.0,0.0188
2578.0,0.0187
2577.0,0.0186
2576.0,0.0185
2575.0,0.0184
2574.0,0.0183
2573.0,0.0183
2572.0,0.0182
2571.0,0.0181
2570.0,0.0179
2569.0,0.0178
2568.0,0.0178
2567.0,0.0177
2566.0,0.0177
2565.0,0.0177
2564.0,0.0176
2563.0,0.0175
2562.0,0.0175
2561.0,0.0174
2560.0,0.0174
2559.0,0.0174
2558.0,0.0173
2557.0,0.0173
2556.0,0.0173
2555.0,0.0173
2554.0,0.0173
2553.0,0.0173
2552.0,0.0172
2551.0,0.0172
2550.0,0.0172
2549.0,0.0171
2548.0,0.0171
2547.0,0.017
2546.0,0.017
2545.0,0.0169
2544.0,0.0169
2543.0,0.0169
2542.0,0.0169
2541.0,0.0169
2540.0,0.0169
2539.0,0.0169
2538.0,0.0168
2537.0,0.0168
2536.0,0.0167
2535.0,0.0167
2534.0,0.0167
2533.0,0.0167
2532.0,0.0167
2531.0,0.0166
2530.0,0.0166
2529.0,0.0166
2528.0,0.0166
2527.0,0.0166
2526.0,0.0165
2525.0,0.0165
2524.0,0.0165
2523.0,0.0164
2522.0,0.0163
2521.0,0.0163
2520.0,0.0162
2519.0,0.0162
2518.0,0.0162
2517.0,0.0162
2516.0,0.0162
2515.0,0.0162
2514.0,0.0162
2513.0,0.0162
2512.0,0.0163
2511.0,0.0163
2510.0,0.0163
2509.0,0.0162
2508.0,0.0162
2507.0,0.0162
2506.0,0.0161
2505.0,0.0161
2504.0,0.016
2503.0,0.0159
2502.0,0.016
2501.0,0.016
2500.0,0.016
2499.0,0.0161
2498.0,0.0161
2497.0,0.0161
2496.0,0.016
2495.0,0.016
2494.0,0.0159
2493.0,0.0159
2492.0,0.0159
2491.0,0.0158
2490.0,0.0158
2489.0,0.0158
2488.0,0.0158
2487.0,0.0158
2486.0,0.0158
2485.0,0.0157
2484.0,0.0157
2483.0,0.0157
2482.0,0.0157
2481.0,0.0157
2480.0,0.0156
2479.0,0.0156
2478.0,0.0156
2477.0,0.0156
2476.0,0.0156
2475.0,0.0156
2474.0,0.0156
2473.0,0.0156
2472.0,0.0156
2471.0,0.0156
2470.0,0.0156
2469.0,0.0157
2468.0,0.0157
2467.0,0.0157
2466.0,0.0157
2465.0,0.0157
2464.0,0.0157
2463.0,0.0156
2462.0,0.0155
2461.0,0.0155
2460.0,0.0154
2459.0,0.0154
2458.0,0.0154
2457.0,0.0155
2456.0,0.0155
2455.0,0.0155
2454.0,0.0155
2453.0,0.0155
2452.0,0.0155
2451.0,0.0155
2450.0,0.0155
2449.0,0.0155
2448.0,0.0156
2447.0,0.0156
2446.0,0.0156
2445.0,0.0156
2444.0,0.0156
2443.0,0.0155
2442.0,0.0155
2441.0,0.0154
2440.0,0.0154
2439.0,0.0154
2438.0,0.0154
2437.0,0.0154
2436.0,0.0154
2435.0,0.0155
2434.0,0.0155
2433.0,0.0155
2432.0,0.0155
2431.0,0.0155
2430.0,0.0155
2429.0,0.0155
2428.0,0.0156
2427.0,0.0156
2426.0,0.0157
2425.0,0.0157
2424.0,0.0157
2423.0,0.0156
2422.0,0.0156
2421.0,0.0155
2420.0,0.0155
2419.0,0.0155
2418.0,0.0155
2417.0,0.0154
2416.0,0.0154
2415.0,0.0154
2414.0,0.0154
2413.0,0.0154
2412.0,0.0154
2411.0,0.0154
2410.0,0.0154
2409.0,0.0154
2408.0,0.0154
2407.0,0.0154
2406.0,0.0154
2405.0,0.0153
2404.0,0.0152
2403.0,0.0152
2402.0,0.0153
2401.0,0.0153
2400.0,0.0153
2399.0,0.0153
2398.0,0.0152
2397.0,0.0152
2396.0,0.0152
2395.0,0.0152
2394.0,0.0153
2393.0,0.0152
2392.0,0.0151
2391.0,0.015
2390.0,0.0149
2389.0,0.0148
2388.0,0.0146
2387.0,0.0142
2386.0,0.0138
2385.0,0.0131
2384.0,0.0123
2383.0,0.0114
2382.0,0.0105
2381.0,0.0095
2380.0,0.0086
2379.0,0.0079
2378.0,0.0073
2377.0,0.0071
2376.0,0.0072
2375.0,0.0074
2374.0,0.0077
2373.0,0.0078
2372.0,0.0073
2371.0,0.006
2370.0,0.004
2369.0,0.0022
2368.0,0.0025
2367.0,0.0058
2366.0,0.0108
2365.0,0.0149
2364.0,0.0162
2363.0,0.0152
2362.0,0.0128
2361.0,0.0092
2360.0,0.0052
2359.0,0.0017
2358.0,-0.0005
2357.0,-0.0013
2356.0,-0.0006
2355.0,0.0009
2354.0,0.0022
2353.0,0.0025
2352.0,0.0021
2351.0,0.0015
2350.0,0.0013
2349.0,0.0014
2348.0,0.0019
2347.0,0.0026
2346.0,0.0034
2345.0,0.0038
2344.0,0.003
2343.0,0.001
2342.0,-0.0013
2341.0,-0.0028
2340.0,-0.0033
2339.0,-0.0031
2338.0,-0.0027
2337.0,-0.0027
2336.0,-0.0033
2335.0,-0.0042
2334.0,-0.0051
2333.0,-0.0058
2332.0,-0.0061
2331.0,-0.0057
2330.0,-0.0047
2329.0,-0.0033
2328.0,-0.0019
2327.0,-0.0007
2326.0,0.0003
2325.0,0.0011
2324.0,0.0019
2323.0,0.0026
2322.0,0.0035
2321.0,0.0045
2320.0,0.0056
2319.0,0.0067
2318.0,0.0076
2317.0,0.008
2316.0,0.008
2315.0,0.0078
2314.0,0.0074
2313.0,0.007
2312.0,0.0067
2311.0,0.0065
2310.0,0.0064
2309.0,0.0065
2308.0,0.0068
2307.0,0.0071
2306.0,0.0076
2305.0,0.0081
2304.0,0.0086
2303.0,0.0089
2302.0,0.0092
2301.0,0.0094
2300.0,0.0097
2299.0,0.0099
2298.0,0.0102
2297.0,0.0105
2296.0,0.0108
2295.0,0.0112
2294.0,0.0114
2293.0,0.0117
2292.0,0.012
2291.0,0.0123
2290.0,0.0125
2289.0,0.0127
2288.0,0.013
2287.0,0.0132
2286.0,0.0135
2285.0,0.0137
2284.0,0.0138
2283.0,0.0138
2282.0,0.0138
2281.0,0.0137
2280.0,0.0136
2279.0,0.0135
2278.0,0.0135
2277.0,0.0134
2276.0,0.0133
2275.0,0.0133
2274.0,0.0133
2273.0,0.0133
2272.0,0.0133
2271.0,0.0132
2270.0,0.0132
2269.0,0.0132
2268.0,0.0132
2267.0,0.0133
2266.0,0.0134
2265.0,0.0135
2264.0,0.0135
2263.0,0.0135
2262.0,0.0135
2261.0,0.0136
2260.0,0.0136
2259.0,0.0136
2258.0,0.0137
2257.0,0.0137
2256.0,0.0138
2255.0,0.0138
2254.0,0.0138
2253.0,0.0139
2252.0,0.014
2251.0,0.014
2250.0,0.014
2249.0,0.014
2248.0,0.014
2247.0,0.014
2246.0,0.014
2245.0,0.014
2244.0,0.014
2243.0,0.0139
2242.0,0.0139
2241.0,0.0139
2240.0,0.014
2239.0,0.0141
2238.0,0.0141
2237.0,0.0142
2236.0,0.0142
2235.0,0.0142
2234.0,0.0142
2233.0,0.0142
2232.0,0.0141
2231.0,0.0141
2230.0,0.0141
2229.0,0.0141
2228.0,0.0142
2227.0,0.0142
2226.0,0.0141
2225.0,0.0141
2224.0,0.014
2223.0,0.014
2222.0,0.014
2221.0,0.014
2220.0,0.0141
2219.0,0.0141
2218.0,0.0141
2217.0,0.0141
2216.0,0.0141
2215.0,0.0141
2214.0,0.014
2213.0,0.014
2212.0,0.0139
2211.0,0.0139
2210.0,0.0139
2209.0,0.0139
2208.0,0.014
2207.0,0.014
2206.0,0.0141
2205.0,0.0141
2204.0,0.0142
2203.0,0.0142
2202.0,0.0142
2201.0,0.0142
2200.0,0.0142
2199.0,0.0142
2198.0,0.0142
2197.0,0.0142
2196.0,0.0143
2195.0,0.0143
2194.0,0.0143
2193.0,0.0142
2192.0,0.0142
2191.0,0.0142
2190.0,0.0142
2189.0,0.0142
2188.0,0.0142
2187.0,0.0142
2186.0,0.0142
2185.0,0.0142
2184.0,0.0142
2183.0,0.0141
2182.0,0.0141
2181.0,0.0141
2180.0,0.0141
2179.0,0.0141
2178.0,0.0141
2177.0,0.0141
2176.0,0.0142
2175.0,0.0142
2174.0,0.0141
2173.0,0.0142
2172.0,0.0142
2171.0,0.0142
2170.0,0.0141
2169.0,0.0141
2168.0,0.0141
2167.0,0.0141
2166.0,0.0142
2165.0,0.0142
2164.0,0.0141
2163.0,0.0141
2162.0,0.014
2161.0,0.014
2160.0,0.014
2159.0,0.014
2158.0,0.014
2157.0,0.014
2156.0,0.014
2155.0,0.014
2154.0,0.014
2153.0,0.014
2152.0,0.014
2151.0,0.014
2150.0,0.014
2149.0,0.014
2148.0,0.014
2147.0,0.0139
2146.0,0.0139
2145.0,0.0139
2144.0,0.0139
2143.0,0.014
2142.0,0.014
2141.0,0.014
2140.0,0.014
2139.0,0.014
2138.0,0.014
2137.0,0.014
2136.0,0.014
2135.0,0.0139
2134.0,0.0139
2133.0,0.0139
2132.0,0.0139
2131.0,0.0139
2130.0,0.0139
2129.0,0.0139
2128.0,0.0139
2127.0,0.0138
2126.0,0.0138
2125.0,0.0138
2124.0,0.0138
2123.0,0.0138
2122.0,0.0138
2121.0,0.0139
2120.0,0.0139
2119.0,0.0139
2118.0,0.0138
2117.0,0.0138
2116.0,0.0138
2115.0,0.0138
2114.0,0.0137
2113.0,0.0137
2112.0,0.0136
2111.0,0.0136
2110.0,0.0136
2109.0,0.0137
2108.0,0.0137
2107.0,0.0137
2106.0,0.0137
2105.0,0.0137
2104.0,0.0137
2103.0,0.0137
2102.0,0.0137
2101.0,0.0137
2100.0,0.0137
2099.0,0.0137
2098.0,0.0137
2097.0,0.0138
2096.0,0.0138
2095.0,0.0138
2094.0,0.0138
2093.0,0.0138
2092.0,0.0137
2091.0,0.0137
2090.0,0.0137
2089.0,0.0137
2088.0,0.0137
2087.0,0.0137
2086.0,0.0137
2085.0,0.0137
2084.0,0.0137
2083.0,0.0136
2082.0,0.0136
2081.0,0.0136
2080.0,0.0136
2079.0,0.0136
2078.0,0.0136
2077.0,0.0136
2076.0,0.0136
2075.0,0.0135
2074.0,0.0135
2073.0,0.0135
2072.0,0.0136
2071.0,0.0136
2070.0,0.0136
2069.0,0.0136
2068.0,0.0136
2067.0,0.0136
2066.0,0.0136
2065.0,0.0136
2064.0,0.0136
2063.0,0.0136
2062.0,0.0135
2061.0,0.0135
2060.0,0.0135
2059.0,0.0134
2058.0,0.0134
2057.0,0.0134
2056.0,0.0134
2055.0,0.0134
2054.0,0.0134
2053.0,0.0134
2052.0,0.0134
2051.0,0.0134
2050.0,0.0135
2049.0,0.0135
2048.0,0.0136
2047.0,0.0136
2046.0,0.0136
2045.0,0.0135
2044.0,0.0135
2043.0,0.0135
2042.0,0.0135
2041.0,0.0135
2040.0,0.0135
2039.0,0.0136
2038.0,0.0136
2037.0,0.0136
2036.0,0.0136
2035.0,0.0136
2034.0,0.0136
2033.0,0.0136
2032.0,0.0136
2031.0,0.0136
2030.0,0.0135
2029.0,0.0135
2028.0,0.0135
2027.0,0.0135
2026.0,0.0135
2025.0,0.0135
2024.0,0.0135
2023.0,0.0135
2022.0,0.0135
2021.0,0.0135
2020.0,0.0135
2019.0,0.0135
2018.0,0.0135
2017.0,0.0135
2016.0,0.0135
2015.0,0.0135
2014.0,0.0135
2013.0,0.0135
2012.0,0.0135
2011.0,0.0135
2010.0,0.0135
2009.0,0.0135
2008.0,0.0135
2007.0,0.0135
2006.0,0.0135
2005.0,0.0135
2004.0,0.0135
2003.0,0.0135
2002.0,0.0135
2001.0,0.0135
2000.0,0.0135
1999.0,0.0135
1998.0,0.0135
1997.0,0.0135
1996.0,0.0135
1995.0,0.0135
1994.0,0.0135
1993.0,0.0136
1992.0,0.0135
1991.0,0.0135
1990.0,0.0135
1989.0,0.0135
1988.0,0.0135
1987.0,0.0135
1986.0,0.0135
1985.0,0.0135
1984.0,0.0135
1983.0,0.0136
1982.0,0.0136
1981.0,0.0136
1980.0,0.0136
1979.0,0.0136
1978.0,0.0136
1977.0,0.0136
1976.0,0.0135
1975.0,0.0135
1974.0,0.0135
1973.0,0.0135
1972.0,0.0135
1971.0,0.0135
1970.0,0.0136
1969.0,0.0136
1968.0,0.0136
1967.0,0.0137
1966.0,0.0137
1965.0,0.0137
1964.0,0.0136
1963.0,0.0136
1962.0,0.0136
1961.0,0.0136
1960.0,0.0136
1959.0,0.0136
1958.0,0.0136
1957.0,0.0136
1956.0,0.0136
1955.0,0.0136
1954.0,0.0136
1953.0,0.0136
1952.0,0.0136
1951.0,0.0136
1950.0,0.0136
1949.0,0.0135
1948.0,0.0135
1947.0,0.0135
1946.0,0.0135
1945.0,0.0136
1944.0,0.0136
1943.0,0.0137
1942.0,0.0137
1941.0,0.0137
1940.0,0.0136
1939.0,0.0136
1938.0,0.0135
1937.0,0.0135
1936.0,0.0135
1935.0,0.0135
1934.0,0.0136
1933.0,0.0136
1932.0,0.0137
1931.0,0.0137
1930.0,0.0137
1929.0,0.0136
1928.0,0.0136
1927.0,0.0136
1926.0,0.0136
1925.0,0.0136
1924.0,0.0136
1923.0,0.0136
1922.0,0.0136
1921.0,0.0136
1920.0,0.0135
1919.0,0.0135
1918.0,0.0135
1917.0,0.0135
1916.0,0.0136
1915.0,0.0136
1914.0,0.0136
1913.0,0.0136
1912.0,0.0136
1911.0,0.0135
1910.0,0.0135
1909.0,0.0135
1908.0,0.0136
1907.0,0.0136
1906.0,0.0136
1905.0,0.0137
1904.0,0.0137
1903.0,0.0137
1902.0,0.0137
1901.0,0.0137
1900.0,0.0137
1899.0,0.0137
1898.0,0.0137
1897.0,0.0137
1896.0,0.0137
1895.0,0.0137
1894.0,0.0137
1893.0,0.0137
1892.0,0.0137
1891.0,0.0137
1890.0,0.0136
1889.0,0.0136
1888.0,0.0136
1887.0,0.0136
1886.0,0.0136
1885.0,0.0137
1884.0,0.0137
1883.0,0.0137
1882.0,0.0137
1881.0,0.0136
1880.0,0.0136
1879.0,0.0136
1878.0,0.0136
1877.0,0.0137
1876.0,0.0137
1875.0,0.0137
1874.0,0.0137
1873.0,0.0137
1872.0,0.0136
1871.0,0.0136
1870.0,0.0135
1869.0,0.0134
1868.0,0.0135
1867.0,0.0135
1866.0,0.0136
1865.0,0.0136
1864.0,0.0136
1863.0,0.0136
1862.0,0.0136
1861.0,0.0137
1860.0,0.0137
1859.0,0.0137
1858.0,0.0137
1857.0,0.0137
1856.0,0.0137
1855.0,0.0137
1854.0,0.0138
1853.0,0.0138
1852.0,0.0137
1851.0,0.0136
1850.0,0.0136
1849.0,0.0136
1848.0,0.0136
1847.0,0.0136
1846.0,0.0137
1845.0,0.0138
1844.0,0.0138
1843.0,0.0138
1842.0,0.0137
1841.0,0.0137
1840.0,0.0136
1839.0,0.0135
1838.0,0.0135
1837.0,0.0136
1836.0,0.0137
1835.0,0.0137
1834.0,0.0137
1833.0,0.0137
1832.0,0.0137
1831.0,0.0136
1830.0,0.0135
1829.0,0.0135
1828.0,0.0136
1827.0,0.0137
1826.0,0.0137
1825.0,0.0136
1824.0,0.0136
1823.0,0.0136
1822.0,0.0136
1821.0,0.0136
1820.0,0.0136
1819.0,0.0136
1818.0,0.0136
1817.0,0.0136
1816.0,0.0136
1815.0,0.0136
1814.0,0.0136
1813.0,0.0136
1812.0,0.0136
1811.0,0.0136
1810.0,0.0135
1809.0,0.0135
1808.0,0.0135
1807.0,0.0136
1806.0,0.0136
1805.0,0.0137
1804.0,0.0137
1803.0,0.0137
1802.0,0.0137
1801.0,0.0137
1800.0,0.0138
1799.0,0.0139
1798.0,0.0139
1797.0,0.0139
1796.0,0.0139
1795.0,0.0139
1794.0,0.0139
1793.0,0.0138
1792.0,0.0139
1791.0,0.0139
1790.0,0.0139
1789.0,0.0138
1788.0,0.0138
1787.0,0.0138
1786.0,0.0138
1785.0,0.0138
1784.0,0.0138
1783.0,0.0138
1782.0,0.0137
1781.0,0.0137
1780.0,0.0137
1779.0,0.0137
1778.0,0.0137
1777.0,0.0137
1776.0,0.0137
1775.0,0.0137
1774.0,0.0137
1773.0,0.0137
1772.0,0.0137
1771.0,0.0137
1770.0,0.0138
1769.0,0.0139
1768.0,0.0139
1767.0,0.0139
1766.0,0.0139
1765.0,0.0139
1764.0,0.0138
1763.0,0.0138
1762.0,0.0139
1761.0,0.0139
1760.0,0.014
1759.0,0.0141
1758.0,0.0141
1757.0,0.0142
1756.0,0.0143
1755.0,0.0143
1754.0,0.0144
1753.0,0.0145
1752.0,0.0146
1751.0,0.0147
1750.0,0.0148
1749.0,0.0149
1748.0,0.015
1747.0,0.0151
1746.0,0.0152
1745.0,0.0153
1744.0,0.0154
1743.0,0.0155
1742.0,0.0156
1741.0,0.0156
1740.0,0.0156
1739.0,0.0156
1738.0,0.0157
1737.0,0.0157
1736.0,0.0158
1735.0,0.0157
1734.0,0.0156
1733.0,0.0155
1732.0,0.0155
1731.0,0.0155
1730.0,0.0155
1729.0,0.0155
1728.0,0.0155
1727.0,0.0154
1726.0,0.0154
1725.0,0.0153
1724.0,0.0153
1723.0,0.0153
1722.0,0.0154
1721.0,0.0154
1720.0,0.0153
1719.0,0.0152
1718.0,0.0151
1717.0,0.0151
1716.0,0.0152
1715.0,0.0152
1714.0,0.0152
1713.0,0.0152
1712.0,0.0152
1711.0,0.0152
1710.0,0.0152
1709.0,0.0152
1708.0,0.0152
1707.0,0.0151
1706.0,0.0151
1705.0,0.0152
1704.0,0.0153
1703.0,0.0153
1702.0,0.0153
1701.0,0.0154
1700.0,0.0154
1699.0,0.0154
1698.0,0.0155
1697.0,0.0156
1696.0,0.0157
1695.0,0.0157
1694.0,0.0157
1693.0,0.0158
1692.0,0.0158
1691.0,0.0158
1690.0,0.0158
1689.0,0.0159
1688.0,0.016
1687.0,0.016
1686.0,0.0159
1685.0,0.0159
1684.0,0.0159
1683.0,0.0159
1682.0,0.016
1681.0,0.016
1680.0,0.0161
1679.0,0.0162
1678.0,0.0163
1677.0,0.0163
1676.0,0.0163
1675.0,0.0163
1674.0,0.0163
1673.0,0.0163
1672.0,0.0164
1671.0,0.0164
1670.0,0.0165
1669.0,0.0165
1668.0,0.0165
1667.0,0.0165
1666.0,0.0166
1665.0,0.0166
1664.0,0.0167
1663.0,0.0167
1662.0,0.0168
1661.0,0.0167
1660.0,0.0167
1659.0,0.0166
1658.0,0.0166
1657.0,0.0166
1656.0,0.0166
1655.0,0.0166
1654.0,0.0169
1653.0,0.017
1652.0,0.0168
1651.0,0.0168
1650.0,0.0168
1649.0,0.0168
1648.0,0.0168
1647.0,0.0169
1646.0,0.0169
1645.0,0.0169
1644.0,0.0169
1643.0,0.0169
1642.0,0.017
1641.0,0.017
1640.0,0.0169
1639.0,0.0168
1638.0,0.0167
1637.0,0.0167
1636.0,0.0168
1635.0,0.0168
1634.0,0.0168
1633.0,0.0168
1632.0,0.0169
1631.0,0.0168
1630.0,0.0167
1629.0,0.0166
1628.0,0.0166
1627.0,0.0167
1626.0,0.0167
1625.0,0.0166
1624.0,0.0166
1623.0,0.0165
1622.0,0.0165
1621.0,0.0164
1620.0,0.0164
1619.0,0.0163
1618.0,0.0162
1617.0,0.0161
1616.0,0.0161
1615.0,0.0162
1614.0,0.0162
1613.0,0.0162
1612.0,0.0162
1611.0,0.0161
1610.0,0.0161
1609.0,0.0161
1608.0,0.0161
1607.0,0.0162
1606.0,0.0163
1605.0,0.0164
1604.0,0.0164
1603.0,0.0165
1602.0,0.0164
1601.0,0.0164
1600.0,0.0163
1599.0,0.0163
1598.0,0.0162
1597.0,0.0161
1596.0,0.016
1595.0,0.0159
1594.0,0.0158
1593.0,0.0158
1592.0,0.0158
1591.0,0.0158
1590.0,0.0158
1589.0,0.0158
1588.0,0.0158
1587.0,0.0159
1586.0,0.0159
1585.0,0.016
1584.0,0.016
1583.0,0.0161
1582.0,0.016
1581.0,0.016
1580.0,0.016
1579.0,0.016
1578.0,0.0159
1577.0,0.0158
1576.0,0.0158
1575.0,0.0157
1574.0,0.0158
1573.0,0.0158
1572.0,0.0158
1571.0,0.0157
1570.0,0.0156
1569.0,0.0157
1568.0,0.0158
1567.0,0.0158
1566.0,0.0158
1565.0,0.0158
1564.0,0.0158
1563.0,0.0158
1562.0,0.0158
1561.0,0.0156
1560.0,0.0156
1559.0,0.016
1558.0,0.016
1557.0,0.016
1556.0,0.0161
1555.0,0.0161
1554.0,0.0161
1553.0,0.0161
1552.0,0.0161
1551.0,0.0162
1550.0,0.0163
1549.0,0.0164
1548.0,0.0165
1547.0,0.0164
1546.0,0.0164
1545.0,0.0164
1544.0,0.0165
1543.0,0.0166
1542.0,0.0167
1541.0,0.0169
1540.0,0.0169
1539.0,0.0166
1538.0,0.0164
1537.0,0.0164
1536.0,0.0163
1535.0,0.0162
1534.0,0.0161
1533.0,0.016
1532.0,0.016
1531.0,0.016
1530.0,0.0159
1529.0,0.0159
1528.0,0.0159
1527.0,0.0159
1526.0,0.0158
1525.0,0.0158
1524.0,0.0158
1523.0,0.0158
1522.0,0.0158
1521.0,0.0159
1520.0,0.0159
1519.0,0.0158
1518.0,0.0157
1517.0,0.0157
1516.0,0.0158
1515.0,0.0158
1514.0,0.0158
1513.0,0.0158
1512.0,0.0159
1511.0,0.0159
1510.0,0.0159
1509.0,0.016
1508.0,0.0163
1507.0,0.0164
1506.0,0.0162
1505.0,0.0162
1504.0,0.0163
1503.0,0.0164
1502.0,0.0164
1501.0,0.0164
1500.0,0.0166
1499.0,0.0167
1498.0,0.0169
1497.0,0.0174
1496.0,0.018
1495.0,0.0184
1494.0,0.0186
1493.0,0.0187
1492.0,0.0187
1491.0,0.0185
1490.0,0.0181
1489.0,0.0181
1488.0,0.0182
1487.0,0.0182
1486.0,0.0183
1485.0,0.0185
1484.0,0.0188
1483.0,0.0189
1482.0,0.0192
1481.0,0.0198
1480.0,0.0204
1479.0,0.0211
1478.0,0.0221
1477.0,0.0239
1476.0,0.0265
1475.0,0.0295
1474.0,0.0335
1473.0,0.0386
1472.0,0.0436
1471.0,0.0475
1470.0,0.0511
1469.0,0.0552
1468.0,0.0598
1467.0,0.0653
1466.0,0.0723
1465.0,0.0807
1464.0,0.088
1463.0,0.0925
1462.0,0.0949
1461.0,0.0963
1460.0,0.097
1459.0,0.0973
1458.0,0.0983
1457.0,0.1001
1456.0,0.1011
1455.0,0.1012
1454.0,0.1008
1453.0,0.1001
1452.0,0.0987
1451.0,0.0966
1450.0,0.0936
1449.0,0.0893
1448.0,0.0836
1447.0,0.0776
1446.0,0.0723
1445.0,0.0676
1444.0,0.0634
1443.0,0.0597
1442.0,0.057
1441.0,0.055
1440.0,0.0536
1439.0,0.0529
1438.0,0.053
1437.0,0.0535
1436.0,0.0534
1435.0,0.0521
1434.0,0.0497
1433.0,0.0466
1432.0,0.0433
1431.0,0.0402
1430.0,0.0378
1429.0,0.036
1428.0,0.0346
1427.0,0.0337
1426.0,0.0329
1425.0,0.0321
1424.0,0.0314
1423.0,0.0309
1422.0,0.0305
1421.0,0.0301
1420.0,0.0297
1419.0,0.0294
1418.0,0.0292
1417.0,0.0289
1416.0,0.0286
1415.0,0.0283
1414.0,0.0281
1413.0,0.0277
1412.0,0.0274
1411.0,0.0272
1410.0,0.027
1409.0,0.0268
1408.0,0.0265
1407.0,0.0262
1406.0,0.026
1405.0,0.0258
1404.0,0.0256
1403.0,0.0256
1402.0,0.0255
1401.0,0.0253
1400.0,0.0251
1399.0,0.025
1398.0,0.025
1397.0,0.0249
1396.0,0.0248
1395.0,0.0248
1394.0,0.0249
1393.0,0.0249
1392.0,0.0248
1391.0,0.0249
1390.0,0.0252
1389.0,0.0256
1388.0,0.0265
1387.0,0.0283
1386.0,0.0309
1385.0,0.0345
1384.0,0.0396
1383.0,0.0472
1382.0,0.0576
1381.0,0.0712
1380.0,0.0883
1379.0,0.108
1378.0,0.1272
1377.0,0.1416
1376.0,0.1479
1375.0,0.1437
1374.0,0.1303
1373.0,0.1138
1372.0,0.0987
1371.0,0.0858
1370.0,0.0746
1369.0,0.0656
1368.0,0.059
1367.0,0.0548
1366.0,0.0522
1365.0,0.0508
1364.0,0.0505
1363.0,0.0513
1362.0,0.0528
1361.0,0.0545
1360.0,0.0558
1359.0,0.0561
1358.0,0.0554
1357.0,0.0536
1356.0,0.0511
1355.0,0.0482
1354.0,0.0454
1353.0,0.043
1352.0,0.041
1351.0,0.0393
1350.0,0.0379
1349.0,0.0366
1348.0,0.0356
1347.0,0.0347
1346.0,0.0339
1345.0,0.0332
1344.0,0.0325
1343.0,0.032
1342.0,0.0315
1341.0,0.0311
1340.0,0.0308
1339.0,0.0305
1338.0,0.0303
1337.0,0.0302
1336.0,0.0302
1335.0,0.0303
1334.0,0.0304
1333.0,0.0306
1332.0,0.0309
1331.0,0.0311
1330.0,0.0312
1329.0,0.0311
1328.0,0.0308
1327.0,0.0305
1326.0,0.03
1325.0,0.0296
1324.0,0.0291
1323.0,0.0287
1322.0,0.0283
1321.0,0.028
1320.0,0.0278
1319.0,0.0276
1318.0,0.0274
1317.0,0.0273
1316.0,0.0271
1315.0,0.027
1314.0,0.0269
1313.0,0.0268
1312.0,0.0267
1311.0,0.0267
1310.0,0.0269
1309.0,0.0272
1308.0,0.0277
1307.0,0.0284
1306.0,0.029
1305.0,0.0295
1304.0,0.0297
1303.0,0.0297
1302.0,0.0294
1301.0,0.0292
1300.0,0.029
1299.0,0.029
1298.0,0.029
1297.0,0.0291
1296.0,0.0291
1295.0,0.0289
1294.0,0.0287
1293.0,0.0284
1292.0,0.028
1291.0,0.0277
1290.0,0.0273
1289.0,0.027
1288.0,0.0268
1287.0,0.0266
1286.0,0.0264
1285.0,0.0262
1284.0,0.0261
1283.0,0.026
1282.0,0.0258
1281.0,0.0256
1280.0,0.0255
1279.0,0.0254
1278.0,0.0253
1277.0,0.0252
1276.0,0.0251
1275.0,0.025
1274.0,0.0249
1273.0,0.0249
1272.0,0.0249
1271.0,0.0249
1270.0,0.0249
1269.0,0.025
1268.0,0.0251
1267.0,0.0251
1266.0,0.0252
1265.0,0.0253
1264.0,0.0254
1263.0,0.0256
1262.0,0.0258
1261.0,0.026
1260.0,0.0264
1259.0,0.0268
1258.0,0.0273
1257.0,0.0277
1256.0,0.028
1255.0,0.0279
1254.0,0.0276
1253.0,0.0272
1252.0,0.0267
1251.0,0.0262
1250.0,0.0259
1249.0,0.0256
1248.0,0.0254
1247.0,0.0252
1246.0,0.0251
1245.0,0.0249
1244.0,0.0248
1243.0,0.0247
1242.0,0.0247
1241.0,0.0246
1240.0,0.0245
1239.0,0.0245
1238.0,0.0244
1237.0,0.0243
1236.0,0.0243
1235.0,0.0242
1234.0,0.0242
1233.0,0.0242
1232.0,0.0242
1231.0,0.0242
1230.0,0.0243
1229.0,0.0243
1228.0,0.0244
1227.0,0.0244
1226.0,0.0245
1225.0,0.0247
1224.0,0.025
1223.0,0.0253
1222.0,0.0255
1221.0,0.0257
1220.0,0.0258
1219.0,0.0258
1218.0,0.0258
1217.0,0.0257
1216.0,0.0256
1215.0,0.0255
1214.0,0.0253
1213.0,0.0252
1212.0,0.0251
1211.0,0.025
1210.0,0.0249
1209.0,0.0248
1208.0,0.0248
1207.0,0.0248
1206.0,0.0249
1205.0,0.0249
1204.0,0.025
1203.0,0.025
1202.0,0.025
1201.0,0.025
1200.0,0.0251
1199.0,0.0252
1198.0,0.0252
1197.0,0.0253
1196.0,0.0253
1195.0,0.0254
1194.0,0.0256
1193.0,0.0257
1192.0,0.0258
1191.0,0.0259
1190.0,0.026
1189.0,0.0261
1188.0,0.0262
1187.0,0.0264
1186.0,0.0265
1185.0,0.0266
1184.0,0.0268
1183.0,0.0269
1182.0,0.0271
1181.0,0.0273
1180.0,0.0276
1179.0,0.028
1178.0,0.0285
1177.0,0.0291
1176.0,0.0298
1175.0,0.0308
1174.0,0.0322
1173.0,0.034
1172.0,0.0361
1171.0,0.0383
1170.0,0.0405
1169.0,0.0423
1168.0,0.0434
1167.0,0.0438
1166.0,0.0435
1165.0,0.0427
1164.0,0.0418
1163.0,0.0409
1162.0,0.0401
1161.0,0.0394
1160.0,0.0388
1159.0,0.0383
1158.0,0.038
1157.0,0.0378
1156.0,0.0377
1155.0,0.0377
1154.0,0.0376
1153.0,0.0375
1152.0,0.0373
1151.0,0.0368
1150.0,0.0362
1149.0,0.0356
1148.0,0.0349
1147.0,0.0342
1146.0,0.0335
1145.0,0.0329
1144.0,0.0324
1143.0,0.0319
1142.0,0.0315
1141.0,0.0311
1140.0,0.0307
1139.0,0.0304
1138.0,0.0301
1137.0,0.0298
1136.0,0.0295
1135.0,0.0293
1134.0,0.0291
1133.0,0.029
1132.0,0.0289
1131.0,0.0289
1130.0,0.0289
1129.0,0.0289
1128.0,0.0289
1127.0,0.0289
1126.0,0.0289
1125.0,0.029
1124.0,0.0292
1123.0,0.0294
1122.0,0.0296
1121.0,0.0297
1120.0,0.0299
1119.0,0.03
1118.0,0.0302
1117.0,0.0304
1116.0,0.0306
1115.0,0.0308
1114.0,0.0309
1113.0,0.031
1112.0,0.031
1111.0,0.0311
1110.0,0.0312
1109.0,0.0314
1108.0,0.0317
1107.0,0.0321
1106.0,0.0326
1105.0,0.0331
1104.0,0.0335
1103.0,0.0338
1102.0,0.0338
1101.0,0.0336
1100.0,0.0332
1099.0,0.0326
1098.0,0.0321
1097.0,0.0317
1096.0,0.0312
1095.0,0.0309
1094.0,0.0306
1093.0,0.0304
1092.0,0.0302
1091.0,0.03
1090.0,0.0298
1089.0,0.0295
1088.0,0.0294
1087.0,0.0292
1086.0,0.0292
1085.0,0.0291
1084.0,0.0291
1083.0,0.0291
1082.0,0.029
1081.0,0.029
1080.0,0.0289
1079.0,0.0288
1078.0,0.0287
1077.0,0.0287
1076.0,0.0286
1075.0,0.0285
1074.0,0.0284
1073.0,0.0283
1072.0,0.0283
1071.0,0.0283
1070.0,0.0284
1069.0,0.0284
1068.0,0.0285
1067.0,0.0285
1066.0,0.0284
1065.0,0.0284
1064.0,0.0283
1063.0,0.0283
1062.0,0.0283
1061.0,0.0282
1060.0,0.0281
1059.0,0.0281
1058.0,0.028
1057.0,0.0281
1056.0,0.0281
1055.0,0.0282
1054.0,0.0282
1053.0,0.0282
1052.0,0.0282
1051.0,0.0283
1050.0,0.0284
1049.0,0.0285
1048.0,0.0287
1047.0,0.0289
1046.0,0.029
1045.0,0.029
1044.0,0.029
1043.0,0.0288
1042.0,0.0285
1041.0,0.0282
1040.0,0.0278
1039.0,0.0276
1038.0,0.0274
1037.0,0.0272
1036.0,0.0271
1035.0,0.0271
1034.0,0.0271
1033.0,0.0272
1032.0,0.0272
1031.0,0.0271
1030.0,0.0271
1029.0,0.027
1028.0,0.0269
1027.0,0.0268
1026.0,0.0267
1025.0,0.0267
1024.0,0.0266
1023.0,0.0266
1022.0,0.0265
1021.0,0.0265
1020.0,0.0266
1019.0,0.0266
1018.0,0.0266
1017.0,0.0266
1016.0,0.0265
1015.0,0.0264
1014.0,0.0263
1013.0,0.0262
1012.0,0.0261
1011.0,0.0261
1010.0,0.0262
1009.0,0.0264
1008.0,0.0267
1007.0,0.0271
1006.0,0.0276
1005.0,0.0283
1004.0,0.0293
1003.0,0.0307
1002.0,0.0327
1001.0,0.0352
1000.0,0.0379
999.0,0.0403
998.0,0.0416
997.0,0.0414
996.0,0.0399
995.0,0.0376
994.0,0.0351
993.0,0.0328
992.0,0.0309
991.0,0.0294
990.0,0.0284
989.0,0.0277
988.0,0.0272
987.0,0.027
986.0,0.0269
985.0,0.027
984.0,0.0273
983.0,0.0277
982.0,0.0283
981.0,0.0293
980.0,0.0308
979.0,0.0329
978.0,0.0355
977.0,0.0386
976.0,0.0418
975.0,0.0449
974.0,0.0472
973.0,0.0481
972.0,0.0472
971.0,0.0449
970.0,0.0417
969.0,0.0384
968.0,0.0356
967.0,0.0334
966.0,0.0319
965.0,0.0307
964.0,0.0298
963.0,0.0291
962.0,0.0285
961.0,0.0281
960.0,0.0278
959.0,0.0275
958.0,0.0272
957.0,0.0269
956.0,0.0266
955.0,0.0264
954.0,0.0262
953.0,0.026
952.0,0.0259
951.0,0.0257
950.0,0.0256
949.0,0.0255
948.0,0.0255
947.0,0.0255
946.0,0.0256
945.0,0.0257
944.0,0.026
943.0,0.0263
942.0,0.0266
941.0,0.0269
940.0,0.0269
939.0,0.0267
938.0,0.0263
937.0,0.0259
936.0,0.0254
935.0,0.025
934.0,0.0246
933.0,0.0244
932.0,0.0243
931.0,0.0242
930.0,0.0241
929.0,0.024
928.0,0.0239
927.0,0.0238
926.0,0.0238
925.0,0.0237
924.0,0.0237
923.0,0.0237
922.0,0.0237
921.0,0.0237
920.0,0.0237
919.0,0.0237
918.0,0.0236
917.0,0.0235
916.0,0.0236
915.0,0.0237
914.0,0.0239
913.0,0.024
912.0,0.0241
911.0,0.0242
910.0,0.0243
909.0,0.0245
908.0,0.0246
907.0,0.0248
906.0,0.0252
905.0,0.026
904.0,0.0271
903.0,0.0286
902.0,0.0302
901.0,0.0317
900.0,0.033
899.0,0.0335
898.0,0.0333
897.0,0.0323
896.0,0.031
895.0,0.0297
894.0,0.0285
893.0,0.0275
892.0,0.0268
891.0,0.0264
890.0,0.0261
889.0,0.0261
888.0,0.0263
887.0,0.0268
886.0,0.0274
885.0,0.0282
884.0,0.0289
883.0,0.0294
882.0,0.0298
881.0,0.03
880.0,0.0302
879.0,0.0304
878.0,0.0306
877.0,0.0308
876.0,0.0311
875.0,0.0313
874.0,0.0316
873.0,0.0317
872.0,0.0319
871.0,0.0321
870.0,0.0323
869.0,0.0323
868.0,0.032
867.0,0.0313
866.0,0.0304
865.0,0.0296
864.0,0.0289
863.0,0.0284
862.0,0.0279
861.0,0.0275
860.0,0.0273
859.0,0.0271
858.0,0.027
857.0,0.027
856.0,0.027
855.0,0.0271
854.0,0.0271
853.0,0.0271
852.0,0.0271
851.0,0.0273
850.0,0.0276
849.0,0.028
848.0,0.0286
847.0,0.0294
846.0,0.0305
845.0,0.0323
844.0,0.0351
843.0,0.0384
842.0,0.0412
841.0,0.0422
840.0,0.0409
839.0,0.0382
838.0,0.0352
837.0,0.0328
836.0,0.0312
835.0,0.0301
834.0,0.0294
833.0,0.0289
832.0,0.0285
831.0,0.0283
830.0,0.0281
829.0,0.0278
828.0,0.0275
827.0,0.0272
826.0,0.027
825.0,0.0268
824.0,0.0267
823.0,0.0266
822.0,0.0267
821.0,0.0268
820.0,0.0269
819.0,0.0271
818.0,0.0273
817.0,0.0277
816.0,0.0283
815.0,0.0292
814.0,0.0305
813.0,0.032
812.0,0.0336
811.0,0.035
810.0,0.0361
809.0,0.0367
808.0,0.0367
807.0,0.0361
806.0,0.0351
805.0,0.0338
804.0,0.0326
803.0,0.0316
802.0,0.0309
801.0,0.0302
800.0,0.0297
799.0,0.0293
798.0,0.029
797.0,0.0288
796.0,0.0286
795.0,0.0283
794.0,0.0281
793.0,0.0278
792.0,0.0275
791.0,0.0273
790.0,0.0272
789.0,0.0271
788.0,0.027
787.0,0.0269
786.0,0.0268
785.0,0.0267
784.0,0.0267
783.0,0.0267
782.0,0.0267
781.0,0.0266
780.0,0.0264
779.0,0.0263
778.0,0.0262
777.0,0.0262
776.0,0.0262
775.0,0.0264
774.0,0.0267
773.0,0.0269
772.0,0.0271
771.0,0.0273
770.0,0.0274
769.0,0.0275
768.0,0.0277
767.0,0.0279
766.0,0.0281
765.0,0.0283
764.0,0.0286
763.0,0.0288
762.0,0.0288
761.0,0.0288
760.0,0.0288
759.0,0.0288
758.0,0.0288
757.0,0.0288
756.0,0.0289
755.0,0.0291
754.0,0.0294
753.0,0.0296
752.0,0.0298
751.0,0.0299
750.0,0.03
749.0,0.03
748.0,0.0299
747.0,0.0297
746.0,0.0297
745.0,0.0297
744.0,0.0296
743.0,0.0295
742.0,0.0295
741.0,0.0296
740.0,0.0299
739.0,0.03
738.0,0.0299
737.0,0.0299
736.0,0.0301
735.0,0.0305
734.0,0.0314
733.0,0.0329
732.0,0.0349
731.0,0.0367
730.0,0.0376
729.0,0.0375
728.0,0.0368
727.0,0.036
726.0,0.0356
725.0,0.0356
724.0,0.0358
723.0,0.0362
722.0,0.0369
721.0,0.0381
720.0,0.0394
719.0,0.0401
718.0,0.0399
717.0,0.0392
716.0,0.0383
715.0,0.0375
714.0,0.0368
713.0,0.0364
712.0,0.0361
711.0,0.0359
710.0,0.0356
709.0,0.0353
708.0,0.0354
707.0,0.0359
706.0,0.0366
705.0,0.0374
704.0,0.0385
703.0,0.0401
702.0,0.0421
701.0,0.0438
700.0,0.045
699.0,0.0452
698.0,0.0446
697.0,0.0434
696.0,0.0416
695.0,0.0396
694.0,0.0377
693.0,0.0364
692.0,0.0355
691.0,0.0347
690.0,0.0337
689.0,0.0329
688.0,0.0323
687.0,0.0317
686.0,0.0312
685.0,0.0308
684.0,0.0307
683.0,0.0308
682.0,0.031
681.0,0.0312
680.0,0.0309
679.0,0.0304
678.0,0.0289
677.0,0.0319
676.0,0.0324
675.0,0.0324
674.0,0.0329
673.0,0.0331
672.0,0.0333
671.0,0.0334
670.0,0.0335
669.0,0.0338
668.0,0.0341
667.0,0.0338
666.0,0.0333
665.0,0.0329
664.0,0.0328
663.0,0.033
662.0,0.0336
661.0,0.0341
660.0,0.0345
659.0,0.0344
658.0,0.0345
657.0,0.0304
656.0,0.029
655.0,0.0289
654.0,0.0287
653.0,0.0289
652.0,0.0292
651.0,0.0295
650.0,0.0297
649.0,0.0299
648.0,0.0302
647.0,0.0307
646.0,0.0314
645.0,0.0319
644.0,0.032
643.0,0.0316
642.0,0.031
641.0,0.0307
640.0,0.0311
639.0,0.0323
638.0,0.0339
637.0,0.0355
636.0,0.0368
635.0,0.0374
634.0,0.0373
633.0,0.0366
632.0,0.0359
631.0,0.0352
630.0,0.0347
629.0,0.0343
628.0,0.0341
627.0,0.034
626.0,0.034
625.0,0.0336
624.0,0.0333
623.0,0.0333
622.0,0.0338
621.0,0.0345
620.0,0.0349
619.0,0.0349
618.0,0.0347
617.0,0.0348
616.0,0.0352
615.0,0.0357
614.0,0.0362
613.0,0.0368
612.0,0.0374
611.0,0.0376
610.0,0.0374
609.0,0.0368
608.0,0.0364
607.0,0.0361
606.0,0.0361
605.0,0.0365
604.0,0.0371
603.0,0.0379
602.0,0.0385
601.0,0.0389
600.0,0.0391
