cm-1,A
4000.0,0.006
3999.0,0.0062
3998.0,0.0063
3997.0,0.0064
3996.0,0.0064
3995.0,0.0065
3994.0,0.0065
3993.0,0.0065
3992.0,0.0065
3991.0,0.0063
3990.0,0.0063
3989.0,0.0062
3988.0,0.0062
3987.0,0.0062
3986.0,0.0062
3985.0,0.0062
3984.0,0.0063
3983.0,0.0063
3982.0,0.0063
3981.0,0.0062
3980.0,0.0061
3979.0,0.0061
3978.0,0.006
3977.0,0.006
3976.0,0.0061
3975.0,0.0062
3974.0,0.0063
3973.0,0.0064
3972.0,0.0064
3971.0,0.0064
3970.0,0.0063
3969.0,0.0062
3968.0,0.0061
3967.0,0.0061
3966.0,0.0061
3965.0,0.0061
3964.0,0.006
3963.0,0.006
3962.0,0.0061
3961.0,0.0062
3960.0,0.0063
3959.0,0.0064
3958.0,0.0064
3957.0,0.0064
3956.0,0.0063
3955.0,0.0063
3954.0,0.0063
3953.0,0.0063
3952.0,0.0063
3951.0,0.0063
3950.0,0.0063
3949.0,0.0063
3948.0,0.0064
3947.0,0.0064
3946.0,0.0065
3945.0,0.0064
3944.0,0.0063
3943.0,0.0062
3942.0,0.0062
3941.0,0.0062
3940.0,0.0063
3939.0,0.0064
3938.0,0.0064
3937.0,0.0064
3936.0,0.0064
3935.0,0.0065
3934.0,0.0066
3933.0,0.0066
3932.0,0.0066
3931.0,0.0066
3930.0,0.0067
3929.0,0.0068
3928.0,0.0068
3927.0,0.0069
3926.0,0.0069
3925.0,0.0068
3924.0,0.0068
3923.0,0.0067
3922.0,0.0066
3921.0,0.0065
3920.0,0.0063
3919.0,0.0063
3918.0,0.0063
3917.0,0.0064
3916.0,0.0065
3915.0,0.0064
3914.0,0.0064
3913.0,0.0064
3912.0,0.0064
3911.0,0.0065
3910.0,0.0065
3909.0,0.0065
3908.0,0.0066
3907.0,0.0066
3906.0,0.0065
3905.0,0.0065
3904.0,0.0065
3903.0,0.0066
3902.0,0.0066
3901.0,0.0065
3900.0,0.0064
3899.0,0.0064
3898.0,0.0065
3897.0,0.0065
3896.0,0.0065
3895.0,0.0065
3894.0,0.0065
3893.0,0.0065
3892.0,0.0064
3891.0,0.0064
3890.0,0.0063
3889.0,0.0064
3888.0,0.0065
3887.0,0.0065
3886.0,0.0066
3885.0,0.0067
3884.0,0.0068
3883.0,0.0069
3882.0,0.0068
3881.0,0.0067
3880.0,0.0066
3879.0,0.0066
3878.0,0.0066
3877.0,0.0067
3876.0,0.0067
3875.0,0.0067
3874.0,0.0067
3873.0,0.0068
3872.0,0.0068
3871.0,0.0068
3870.0,0.0067
3869.0,0.0066
3868.0,0.0066
3867.0,0.0066
3866.0,0.0064
3865.0,0.0063
3864.0,0.0064
3863.0,0.0066
3862.0,0.0067
3861.0,0.0067
3860.0,0.0066
3859.0,0.0065
3858.0,0.0064
3857.0,0.0064
3856.0,0.0064
3855.0,0.0063
3854.0,0.0062
3853.0,0.0062
3852.0,0.0063
3851.0,0.0064
3850.0,0.0065
3849.0,0.0066
3848.0,0.0066
3847.0,0.0067
3846.0,0.0067
3845.0,0.0066
3844.0,0.0066
3843.0,0.0066
3842.0,0.0066
3841.0,0.0067
3840.0,0.0066
3839.0,0.0064
3838.0,0.0063
3837.0,0.0063
3836.0,0.0064
3835.0,0.0065
3834.0,0.0066
3833.0,0.0067
3832.0,0.0067
3831.0,0.0067
3830.0,0.0068
3829.0,0.0068
3828.0,0.0067
3827.0,0.0065
3826.0,0.0064
3825.0,0.0064
3824.0,0.0065
3823.0,0.0067
3822.0,0.0067
3821.0,0.0068
3820.0,0.0069
3819.0,0.007
3818.0,0.0071
3817.0,0.007
3816.0,0.0069
3815.0,0.007
3814.0,0.007
3813.0,0.007
3812.0,0.0069
3811.0,0.0069
3810.0,0.0068
3809.0,0.0069
3808.0,0.0069
3807.0,0.0069
3806.0,0.007
3805.0,0.0071
3804.0,0.0072
3803.0,0.007
3802.0,0.0067
3801.0,0.0066
3800.0,0.0066
3799.0,0.0067
3798.0,0.0067
3797.0,0.0067
3796.0,0.0068
3795.0,0.0069
3794.0,0.007
3793.0,0.007
3792.0,0.007
3791.0,0.007
3790.0,0.0071
3789.0,0.0071
3788.0,0.0071
3787.0,0.0071
3786.0,0.007
3785.0,0.0069
3784.0,0.0069
3783.0,0.0069
3782.0,0.007
3781.0,0.007
3780.0,0.007
3779.0,0.007
3778.0,0.0071
3777.0,0.0071
3776.0,0.007
3775.0,0.0069
3774.0,0.0068
3773.0,0.0068
3772.0,0.0068
3771.0,0.0069
3770.0,0.0069
3769.0,0.007
3768.0,0.007
3767.0,0.007
3766.0,0.0069
3765.0,0.0068
3764.0,0.0069
3763.0,0.0071
3762.0,0.0072
3761.0,0.0072
3760.0,0.0072
3759.0,0.0071
3758.0,0.0071
3757.0,0.0071
3756.0,0.007
3755.0,0.007
3754.0,0.007
3753.0,0.0068
3752.0,0.0065
3751.0,0.0065
3750.0,0.0066
3749.0,0.0066
3748.0,0.0067
3747.0,0.0068
3746.0,0.0068
3745.0,0.0066
3744.0,0.0066
3743.0,0.0067
3742.0,0.0067
3741.0,0.0067
3740.0,0.0066
3739.0,0.0066
3738.0,0.0067
3737.0,0.0066
3736.0,0.0064
3735.0,0.0064
3734.0,0.0063
3733.0,0.0062
3732.0,0.0061
3731.0,0.006
3730.0,0.0059
3729.0,0.0058
3728.0,0.0058
3727.0,0.0058
3726.0,0.0059
3725.0,0.0061
3724.0,0.0062
3723.0,0.0062
3722.0,0.0063
3721.0,0.0064
3720.0,0.0065
3719.0,0.0065
3718.0,0.0064
3717.0,0.0064
3716.0,0.0065
3715.0,0.0068
3714.0,0.007
3713.0,0.007
3712.0,0.0068
3711.0,0.0067
3710.0,0.0067
3709.0,0.0067
3708.0,0.0068
3707.0,0.0067
3706.0,0.0067
3705.0,0.0067
3704.0,0.0068
3703.0,0.0069
3702.0,0.0071
3701.0,0.0072
3700.0,0.0072
3699.0,0.0071
3698.0,0.007
3697.0,0.0068
3696.0,0.0068
3695.0,0.0067
3694.0,0.0068
3693.0,0.0068
3692.0,0.0069
3691.0,0.0071
3690.0,0.0074
3689.0,0.0075
3688.0,0.0075
3687.0,0.0075
3686.0,0.0074
3685.0,0.0075
3684.0,0.0075
3683.0,0.0075
3682.0,0.0076
3681.0,0.0075
3680.0,0.0075
3679.0,0.0077
3678.0,0.0079
3677.0,0.0081
3676.0,0.0082
3675.0,0.0082
3674.0,0.0083
3673.0,0.0084
3672.0,0.0083
3671.0,0.0082
3670.0,0.0082
3669.0,0.0084
3668.0,0.0086
3667.0,0.0087
3666.0,0.0088
3665.0,0.0088
3664.0,0.0088
3663.0,0.0088
3662.0,0.0087
3661.0,0.0086
3660.0,0.0086
3659.0,0.0086
3658.0,0.0087
3657.0,0.0088
3656.0,0.009
3655.0,0.0091
3654.0,0.0092
3653.0,0.0093
3652.0,0.0092
3651.0,0.0091
3650.0,0.0091
3649.0,0.0096
3648.0,0.01
3647.0,0.0101
3646.0,0.0102
3645.0,0.0101
3644.0,0.0101
3643.0,0.01
3642.0,0.0099
3641.0,0.0098
3640.0,0.0098
3639.0,0.0099
3638.0,0.0101
3637.0,0.0103
3636.0,0.0104
3635.0,0.0103
3634.0,0.0102
3633.0,0.01
3632.0,0.01
3631.0,0.0099
3630.0,0.0098
3629.0,0.0101
3628.0,0.0105
3627.0,0.0109
3626.0,0.0111
3625.0,0.0113
3624.0,0.0114
3623.0,0.0115
3622.0,0.0117
3621.0,0.0118
3620.0,0.0119
3619.0,0.012
3618.0,0.0121
3617.0,0.0123
3616.0,0.0125
3615.0,0.0126
3614.0,0.0128
3613.0,0.013
3612.0,0.0132
3611.0,0.0134
3610.0,0.0134
3609.0,0.0134
3608.0,0.0134
3607.0,0.0135
3606.0,0.0136
3605.0,0.0137
3604.0,0.0138
3603.0,0.0139
3602.0,0.0139
3601.0,0.014
3600.0,0.0142
3599.0,0.0144
3598.0,0.0145
3597.0,0.0146
3596.0,0.0147
3595.0,0.0147
3594.0,0.0148
3593.0,0.0148
3592.0,0.0149
3591.0,0.015
3590.0,0.0153
3589.0,0.0157
3588.0,0.016
3587.0,0.0162
3586.0,0.0163
3585.0,0.0163
3584.0,0.0163
3583.0,0.0162
3582.0,0.0163
3581.0,0.0164
3580.0,0.0166
3579.0,0.0169
3578.0,0.0171
3577.0,0.0172
3576.0,0.0173
3575.0,0.0175
3574.0,0.0176
3573.0,0.0177
3572.0,0.0178
3571.0,0.0179
3570.0,0.0182
3569.0,0.0185
3568.0,0.0189
3567.0,0.0192
3566.0,0.0194
3565.0,0.0193
3564.0,0.0192
3563.0,0.0192
3562.0,0.0192
3561.0,0.0193
3560.0,0.0195
3559.0,0.0196
3558.0,0.0196
3557.0,0.0197
3556.0,0.0198
3555.0,0.0198
3554.0,0.0199
3553.0,0.0201
3552.0,0.0202
3551.0,0.0204
3550.0,0.0206
3549.0,0.0207
3548.0,0.0208
3547.0,0.0209
3546.0,0.021
3545.0,0.0212
3544.0,0.0214
3543.0,0.0215
3542.0,0.0217
3541.0,0.0218
3540.0,0.0218
3539.0,0.0219
3538.0,0.022
3537.0,0.0222
3536.0,0.0223
3535.0,0.0225
3534.0,0.0227
3533.0,0.0228
3532.0,0.0229
3531.0,0.0231
3530.0,0.0232
3529.0,0.0234
3528.0,0.0235
3527.0,0.0235
3526.0,0.0236
3525.0,0.0237
3524.0,0.0238
3523.0,0.024
3522.0,0.0241
3521.0,0.0243
3520.0,0.0244
3519.0,0.0245
3518.0,0.0246
3517.0,0.0247
3516.0,0.0249
3515.0,0.025
3514.0,0.0251
3513.0,0.0252
3512.0,0.0253
3511.0,0.0255
3510.0,0.0256
3509.0,0.0258
3508.0,0.026
3507.0,0.026
3506.0,0.0261
3505.0,0.0262
3504.0,0.0264
3503.0,0.0266
3502.0,0.0268
3501.0,0.027
3500.0,0.0271
3499.0,0.0272
3498.0,0.0273
3497.0,0.0274
3496.0,0.0276
3495.0,0.0277
3494.0,0.0279
3493.0,0.0281
3492.0,0.0282
3491.0,0.0283
3490.0,0.0284
3489.0,0.0285
3488.0,0.0286
3487.0,0.0288
3486.0,0.029
3485.0,0.0292
3484.0,0.0293
3483.0,0.0295
3482.0,0.0297
3481.0,0.0299
3480.0,0.0301
3479.0,0.0303
3478.0,0.0304
3477.0,0.0305
3476.0,0.0306
3475.0,0.0307
3474.0,0.0309
3473.0,0.031
3472.0,0.0311
3471.0,0.0313
3470.0,0.0314
3469.0,0.0316
3468.0,0.0318
3467.0,0.0319
3466.0,0.0319
3465.0,0.0318
3464.0,0.0319
3463.0,0.032
3462.0,0.0323
3461.0,0.0326
3460.0,0.0328
3459.0,0.0329
3458.0,0.0329
3457.0,0.033
3456.0,0.0331
3455.0,0.0331
3454.0,0.0332
3453.0,0.0333
3452.0,0.0334
3451.0,0.0335
3450.0,0.0337
3449.0,0.0338
3448.0,0.034
3447.0,0.0341
3446.0,0.0342
3445.0,0.0342
3444.0,0.0343
3443.0,0.0345
3442.0,0.0346
3441.0,0.0348
3440.0,0.0349
3439.0,0.035
3438.0,0.0351
3437.0,0.0353
3436.0,0.0354
3435.0,0.0354
3434.0,0.0355
3433.0,0.0355
3432.0,0.0356
3431.0,0.0356
3430.0,0.0357
3429.0,0.0359
3428.0,0.0361
3427.0,0.0363
3426.0,0.0364
3425.0,0.0365
3424.0,0.0366
3423.0,0.0367
3422.0,0.0368
3421.0,0.0368
3420.0,0.0369
3419.0,0.0369
3418.0,0.037
3417.0,0.0371
3416.0,0.0371
3415.0,0.0372
3414.0,0.0372
3413.0,0.0373
3412.0,0.0374
3411.0,0.0375
3410.0,0.0377
3409.0,0.0378
3408.0,0.0379
3407.0,0.038
3406.0,0.038
3405.0,0.038
3404.0,0.0381
3403.0,0.0381
3402.0,0.0382
3401.0,0.0382
3400.0,0.0383
3399.0,0.0383
3398.0,0.0384
3397.0,0.0385
3396.0,0.0386
3395.0,0.0386
3394.0,0.0385
3393.0,0.0385
3392.0,0.0386
3391.0,0.0388
3390.0,0.039
3389.0,0.0391
3388.0,0.0392
3387.0,0.0392
3386.0,0.0392
3385.0,0.0392
3384.0,0.0392
3383.0,0.0392
3382.0,0.0392
3381.0,0.0392
3380.0,0.0392
3379.0,0.0392
3378.0,0.0393
3377.0,0.0393
3376.0,0.0394
3375.0,0.0395
3374.0,0.0396
3373.0,0.0397
3372.0,0.0397
3371.0,0.0396
3370.0,0.0396
3369.0,0.0396
3368.0,0.0397
3367.0,0.0397
3366.0,0.0397
3365.0,0.0396
3364.0,0.0395
3363.0,0.0395
3362.0,0.0395
3361.0,0.0395
3360.0,0.0395
3359.0,0.0395
3358.0,0.0395
3357.0,0.0396
3356.0,0.0396
3355.0,0.0397
3354.0,0.0396
3353.0,0.0394
3352.0,0.0393
3351.0,0.0392
3350.0,0.0392
3349.0,0.0392
3348.0,0.0392
3347.0,0.0391
3346.0,0.039
3345.0,0.0389
3344.0,0.0387
3343.0,0.0386
3342.0,0.0385
3341.0,0.0384
3340.0,0.0382
3339.0,0.0381
3338.0,0.0379
3337.0,0.0378
3336.0,0.0376
3335.0,0.0375
3334.0,0.0375
3333.0,0.0373
3332.0,0.0372
3331.0,0.0372
3330.0,0.0371
3329.0,0.037
3328.0,0.0368
3327.0,0.0366
3326.0,0.0365
3325.0,0.0363
3324.0,0.0363
3323.0,0.0362
3322.0,0.0362
3321.0,0.036
3320.0,0.0359
3319.0,0.0357
3318.0,0.0356
3317.0,0.0355
3316.0,0.0354
3315.0,0.0353
3314.0,0.0352
3313.0,0.0352
3312.0,0.0351
3311.0,0.0351
3310.0,0.0349
3309.0,0.0347
3308.0,0.0345
3307.0,0.0343
3306.0,0.0342
3305.0,0.034
3304.0,0.0338
3303.0,0.0337
3302.0,0.0336
3301.0,0.0336
3300.0,0.0335
3299.0,0.0335
3298.0,0.0335
3297.0,0.0333
3296.0,0.0332
3295.0,0.033
3294.0,0.0329
3293.0,0.0328
3292.0,0.0327
3291.0,0.0326
3290.0,0.0325
3289.0,0.0324
3288.0,0.0323
3287.0,0.0323
3286.0,0.0323
3285.0,0.0322
3284.0,0.0321
3283.0,0.0319
3282.0,0.0318
3281.0,0.0318
3280.0,0.0317
3279.0,0.0316
3278.0,0.0315
3277.0,0.0314
3276.0,0.0313
3275.0,0.0312
3274.0,0.0311
3273.0,0.0311
3272.0,0.031
3271.0,0.031
3270.0,0.031
3269.0,0.0309
3268.0,0.0308
3267.0,0.0307
3266.0,0.0307
3265.0,0.0308
3264.0,0.0309
3263.0,0.0309
3262.0,0.0309
3261.0,0.0308
3260.0,0.0307
3259.0,0.0306
3258.0,0.0305
3257.0,0.0305
3256.0,0.0305
3255.0,0.0305
3254.0,0.0305
3253.0,0.0306
3252.0,0.0306
3251.0,0.0305
3250.0,0.0303
3249.0,0.0302
3248.0,0.03
3247.0,0.0299
3246.0,0.0299
3245.0,0.0299
3244.0,0.0298
3243.0,0.0298
3242.0,0.0297
3241.0,0.0296
3240.0,0.0295
3239.0,0.0295
3238.0,0.0294
3237.0,0.0294
3236.0,0.0292
3235.0,0.0291
3234.0,0.029
3233.0,0.029
3232.0,0.029
3231.0,0.0289
3230.0,0.0288
3229.0,0.0287
3228.0,0.0285
3227.0,0.0284
3226.0,0.0284
3225.0,0.0283
3224.0,0.0282
3223.0,0.0281
3222.0,0.028
3221.0,0.0279
3220.0,0.0278
3219.0,0.0276
3218.0,0.0275
3217.0,0.0274
3216.0,0.0274
3215.0,0.0274
3214.0,0.0273
3213.0,0.0272
3212.0,0.027
3211.0,0.0268
3210.0,0.0266
3209.0,0.0265
3208.0,0.0264
3207.0,0.0264
3206.0,0.0263
3205.0,0.0262
3204.0,0.0261
3203.0,0.026
3202.0,0.0259
3201.0,0.0258
3200.0,0.0258
3199.0,0.0257
3198.0,0.0255
3197.0,0.0254
3196.0,0.0252
3195.0,0.0251
3194.0,0.0251
3193.0,0.025
3192.0,0.0249
3191.0,0.0248
3190.0,0.0247
3189.0,0.0246
3188.0,0.0245
3187.0,0.0243
3186.0,0.0242
3185.0,0.0241
3184.0,0.0239
3183.0,0.0237
3182.0,0.0236
3181.0,0.0235
3180.0,0.0234
3179.0,0.0233
3178.0,0.0232
3177.0,0.0231
3176.0,0.0231
3175.0,0.023
3174.0,0.0229
3173.0,0.0228
3172.0,0.0228
3171.0,0.0227
3170.0,0.0226
3169.0,0.0224
3168.0,0.0222
3167.0,0.022
3166.0,0.0217
3165.0,0.0216
3164.0,0.0216
3163.0,0.0216
3162.0,0.0216
3161.0,0.0216
3160.0,0.0215
3159.0,0.0215
3158.0,0.0214
3157.0,0.0213
3156.0,0.0212
3155.0,0.0211
3154.0,0.0211
3153.0,0.021
3152.0,0.0209
3151.0,0.0207
3150.0,0.0206
3149.0,0.0205
3148.0,0.0204
3147.0,0.0203
3146.0,0.0202
3145.0,0.02
3144.0,0.0199
3143.0,0.0198
3142.0,0.0197
3141.0,0.0197
3140.0,0.0197
3139.0,0.0197
3138.0,0.0197
3137.0,0.0196
3136.0,0.0195
3135.0,0.0194
3134.0,0.0192
3133.0,0.0191
3132.0,0.0189
3131.0,0.0188
3130.0,0.0187
3129.0,0.0187
3128.0,0.0186
3127.0,0.0185
3126.0,0.0184
3125.0,0.0183
3124.0,0.0182
3123.0,0.0181
3122.0,0.0182
3121.0,0.0182
3120.0,0.0182
3119.0,0.0181
3118.0,0.0179
3117.0,0.0178
3116.0,0.0178
3115.0,0.0177
3114.0,0.0176
3113.0,0.0175
3112.0,0.0174
3111.0,0.0173
3110.0,0.0171
3109.0,0.017
3108.0,0.0168
3107.0,0.0167
3106.0,0.0167
3105.0,0.0166
3104.0,0.0165
3103.0,0.0165
3102.0,0.0164
3101.0,0.0164
3100.0,0.0163
3099.0,0.0163
3098.0,0.0162
3097.0,0.0161
3096.0,0.016
3095.0,0.0159
3094.0,0.0158
3093.0,0.0157
3092.0,0.0155
3091.0,0.0154
3090.0,0.0153
3089.0,0.0152
3088.0,0.0152
3087.0,0.0152
3086.0,0.0151
3085.0,0.0151
3084.0,0.015
3083.0,0.0149
3082.0,0.0148
3081.0,0.0146
3080.0,0.0144
3079.0,0.0143
3078.0,0.0142
3077.0,0.0142
3076.0,0.0142
3075.0,0.0141
3074.0,0.014
3073.0,0.0139
3072.0,0.0138
3071.0,0.0137
3070.0,0.0137
3069.0,0.0136
3068.0,0.0136
3067.0,0.0135
3066.0,0.0135
3065.0,0.0135
3064.0,0.0134
3063.0,0.0133
3062.0,0.0132
3061.0,0.0131
3060.0,0.013
3059.0,0.0129
3058.0,0.0128
3057.0,0.0127
3056.0,0.0126
3055.0,0.0125
3054.0,0.0123
3053.0,0.0122
3052.0,0.0121
3051.0,0.012
3050.0,0.012
3049.0,0.0119
3048.0,0.0118
3047.0,0.0117
3046.0,0.0115
3045.0,0.0115
3044.0,0.0114
3043.0,0.0113
3042.0,0.0112
3041.0,0.0111
3040.0,0.011
3039.0,0.0109
3038.0,0.0109
3037.0,0.0108
3036.0,0.0109
3035.0,0.0109
3034.0,0.0109
3033.0,0.0108
3032.0,0.0108
3031.0,0.0107
3030.0,0.0107
3029.0,0.0107
3028.0,0.0107
3027.0,0.0107
3026.0,0.0106
3025.0,0.0105
3024.0,0.0103
3023.0,0.0102
3022.0,0.0101
3021.0,0.01
3020.0,0.0099
3019.0,0.0099
3018.0,0.0098
3017.0,0.0098
3016.0,0.0097
3015.0,0.0097
3014.0,0.0096
3013.0,0.0095
3012.0,0.0094
3011.0,0.0093
3010.0,0.0092
3009.0,0.0092
3008.0,0.0092
3007.0,0.0091
3006.0,0.009
3005.0,0.009
3004.0,0.0089
3003.0,0.0089
3002.0,0.0088
3001.0,0.0088
3000.0,0.0089
2999.0,0.009
2998.0,0.0091
2997.0,0.0091
2996.0,0.0092
2995.0,0.0092
2994.0,0.0093
2993.0,0.0094
2992.0,0.0096
2991.0,0.0097
2990.0,0.0098
2989.0,0.01
2988.0,0.0103
2987.0,0.0107
2986.0,0.0111
2985.0,0.0116
2984.0,0.0121
2983.0,0.0127
2982.0,0.0133
2981.0,0.0141
2980.0,0.0151
2979.0,0.0163
2978.0,0.0176
2977.0,0.0192
2976.0,0.021
2975.0,0.0232
2974.0,0.0257
2973.0,0.0286
2972.0,0.0319
2971.0,0.0356
2970.0,0.0397
2969.0,0.0442
2968.0,0.0491
2967.0,0.0542
2966.0,0.0597
2965.0,0.0652
2964.0,0.0706
2963.0,0.0754
2962.0,0.0793
2961.0,0.0821
2960.0,0.084
2959.0,0.0851
2958.0,0.086
2957.0,0.0871
2956.0,0.0887
2955.0,0.0911
2954.0,0.0941
2953.0,0.0973
2952.0,0.1002
2951.0,0.102
2950.0,0.1021
2949.0,0.1003
2948.0,0.0966
2947.0,0.0914
2946.0,0.0853
2945.0,0.0789
2944.0,0.073
2943.0,0.0678
2942.0,0.0636
2941.0,0.0606
2940.0,0.0586
2939.0,0.0577
2938.0,0.0578
2937.0,0.0588
2936.0,0.0606
2935.0,0.0632
2934.0,0.0665
2933.0,0.0705
2932.0,0.0749
2931.0,0.0797
2930.0,0.0848
2929.0,0.0901
2928.0,0.0954
2927.0,0.1007
2926.0,0.1059
2925.0,0.1109
2924.0,0.1158
2923.0,0.1206
2922.0,0.1254
2921.0,0.1298
2920.0,0.1336
2919.0,0.1362
2918.0,0.1373
2917.0,0.1365
2916.0,0.134
2915.0,0.1303
2914.0,0.1259
2913.0,0.1214
2912.0,0.1172
2911.0,0.1135
2910.0,0.1103
2909.0,0.1074
2908.0,0.1048
2907.0,0.1023
2906.0,0.0998
2905.0,0.0972
2904.0,0.0943
2903.0,0.0914
2902.0,0.0885
2901.0,0.0856
2900.0,0.0828
2899.0,0.0801
2898.0,0.0776
2897.0,0.0752
2896.0,0.0731
2895.0,0.0714
2894.0,0.0699
2893.0,0.0686
2892.0,0.0676
2891.0,0.0668
2890.0,0.0663
2889.0,0.066
2888.0,0.0658
2887.0,0.0658
2886.0,0.0659
2885.0,0.0662
2884.0,0.0667
2883.0,0.0673
2882.0,0.068
2881.0,0.0688
2880.0,0.0696
2879.0,0.0702
2878.0,0.0704
2877.0,0.0703
2876.0,0.0698
2875.0,0.0693
2874.0,0.0691
2873.0,0.0692
2872.0,0.0698
2871.0,0.0707
2870.0,0.0718
2869.0,0.0728
2868.0,0.0733
2867.0,0.073
2866.0,0.0718
2865.0,0.0695
2864.0,0.0663
2863.0,0.0625
2862.0,0.0588
2861.0,0.0555
2860.0,0.0529
2859.0,0.0511
2858.0,0.05
2857.0,0.0497
2856.0,0.0499
2855.0,0.0507
2854.0,0.0518
2853.0,0.0531
2852.0,0.0544
2851.0,0.0556
2850.0,0.0565
2849.0,0.0571
2848.0,0.0576
2847.0,0.0584
2846.0,0.0596
2845.0,0.0615
2844.0,0.064
2843.0,0.0669
2842.0,0.0697
2841.0,0.0723
2840.0,0.0742
2839.0,0.0752
2838.0,0.0749
2837.0,0.0734
2836.0,0.0705
2835.0,0.0666
2834.0,0.0622
2833.0,0.0577
2832.0,0.0534
2831.0,0.0496
2830.0,0.0464
2829.0,0.0437
2828.0,0.0415
2827.0,0.0397
2826.0,0.0382
2825.0,0.0369
2824.0,0.0357
2823.0,0.0347
2822.0,0.0338
2821.0,0.0331
2820.0,0.0324
2819.0,0.0318
2818.0,0.0312
2817.0,0.0306
2816.0,0.0301
2815.0,0.0297
2814.0,0.0293
2813.0,0.0289
2812.0,0.0286
2811.0,0.0283
2810.0,0.0279
2809.0,0.0276
2808.0,0.0272
2807.0,0.0268
2806.0,0.0265
2805.0,0.0261
2804.0,0.0258
2803.0,0.0254
2802.0,0.0251
2801.0,0.0248
2800.0,0.0245
2799.0,0.0243
2798.0,0.0241
2797.0,0.0238
2796.0,0.0236
2795.0,0.0233
2794.0,0.0231
2793.0,0.023
2792.0,0.0229
2791.0,0.0227
2790.0,0.0225
2789.0,0.0222
2788.0,0.0219
2787.0,0.0217
2786.0,0.0215
2785.0,0.0213
2784.0,0.0211
2783.0,0.0209
2782.0,0.0208
2781.0,0.0207
2780.0,0.0205
2779.0,0.0204
2778.0,0.0203
2777.0,0.0201
2776.0,0.02
2775.0,0.0198
2774.0,0.0197
2773.0,0.0195
2772.0,0.0194
2771.0,0.0194
2770.0,0.0194
2769.0,0.0194
2768.0,0.0194
2767.0,0.0193
2766.0,0.0192
2765.0,0.0191
2764.0,0.0189
2763.0,0.0188
2762.0,0.0187
2761.0,0.0186
2760.0,0.0185
2759.0,0.0184
2758.0,0.0184
2757.0,0.0184
2756.0,0.0183
2755.0,0.0183
2754.0,0.0183
2753.0,0.0182
2752.0,0.0181
2751.0,0.0181
2750.0,0.0181
2749.0,0.018
2748.0,0.018
2747.0,0.018
2746.0,0.018
2745.0,0.018
2744.0,0.018
2743.0,0.018
2742.0,0.018
2741.0,0.018
2740.0,0.018
2739.0,0.018
2738.0,0.018
2737.0,0.018
2736.0,0.018
2735.0,0.018
2734.0,0.0181
2733.0,0.0182
2732.0,0.0183
2731.0,0.0184
2730.0,0.0186
2729.0,0.0187
2728.0,0.0188
2727.0,0.0189
2726.0,0.019
2725.0,0.0191
2724.0,0.0192
2723.0,0.0192
2722.0,0.0192
2721.0,0.0191
2720.0,0.0191
2719.0,0.019
2718.0,0.0188
2717.0,0.0186
2716.0,0.0184
2715.0,0.0183
2714.0,0.0181
2713.0,0.0179
2712.0,0.0178
2711.0,0.0177
2710.0,0.0176
2709.0,0.0176
2708.0,0.0175
2707.0,0.0175
2706.0,0.0175
2705.0,0.0174
2704.0,0.0173
2703.0,0.0172
2702.0,0.0171
2701.0,0.0169
2700.0,0.0168
2699.0,0.0167
2698.0,0.0166
2697.0,0.0165
2696.0,0.0165
2695.0,0.0165
2694.0,0.0165
2693.0,0.0166
2692.0,0.0166
2691.0,0.0166
2690.0,0.0166
2689.0,0.0165
2688.0,0.0165
2687.0,0.0165
2686.0,0.0166
2685.0,0.0166
2684.0,0.0166
2683.0,0.0165
2682.0,0.0164
2681.0,0.0164
2680.0,0.0164
2679.0,0.0164
2678.0,0.0164
2677.0,0.0164
2676.0,0.0164
2675.0,0.0164
2674.0,0.0164
2673.0,0.0164
2672.0,0.0163
2671.0,0.0162
2670.0,0.0162
2669.0,0.0162
2668.0,0.0162
2667.0,0.0163
2666.0,0.0163
2665.0,0.0163
2664.0,0.0162
2663.0,0.0161
2662.0,0.0161
2661.0,0.0161
2660.0,0.0161
2659.0,0.0161
2658.0,0.0161
2657.0,0.016
2656.0,0.016
2655.0,0.016
2654.0,0.016
2653.0,0.016
2652.0,0.0159
2651.0,0.0158
2650.0,0.0157
2649.0,0.0156
2648.0,0.0156
2647.0,0.0156
2646.0,0.0156
2645.0,0.0156
2644.0,0.0155
2643.0,0.0154
2642.0,0.0153
2641.0,0.0153
2640.0,0.0152
2639.0,0.0152
2638.0,0.0152
2637.0,0.0153
2636.0,0.0153
2635.0,0.0154
2634.0,0.0154
2633.0,0.0154
2632.0,0.0154
2631.0,0.0154
2630.0,0.0154
2629.0,0.0154
2628.0,0.0154
2627.0,0.0154
2626.0,0.0154
2625.0,0.0154
2624.0,0.0155
2623.0,0.0155
2622.0,0.0155
2621.0,0.0155
2620.0,0.0155
2619.0,0.0155
2618.0,0.0155
2617.0,0.0154
2616.0,0.0154
2615.0,0.0154
2614.0,0.0154
2613.0,0.0154
2612.0,0.0154
2611.0,0.0154
2610.0,0.0154
2609.0,0.0153
2608.0,0.0152
2607.0,0.0151
2606.0,0.0152
2605.0,0.0152
2604.0,0.0152
2603.0,0.0152
2602.0,0.0152
2601.0,0.0152
2600.0,0.0151
2599.0,0.0151
2598.0,0.0151
2597.0,0.0151
2596.0,0.0151
2595.0,0.0151
2594.0,0.015
2593.0,0.0149
2592.0,0.0149
2591.0,0.0149
2590.0,0.015
2589.0,0.0152
2588.0,0.0153
2587.0,0.0153
2586.0,0.0154
2585.0,0.0154
2584.0,0.0154
2583.0,0.0154
2582.0,0.0153
2581.0,0.0153
2580.0,0.0153
2579.0,0.0153
2578.0,0.0153
2577.0,0.0153
2576.0,0.0152
2575.0,0.0152
2574.0,0.0151
2573.0,0.015
2572.0,0.0148
2571.0,0.0147
2570.0,0.0147
2569.0,0.0147
2568.0,0.0147
2567.0,0.0146
2566.0,0.0146
2565.0,0.0147
2564.0,0.0147
2563.0,0.0147
2562.0,0.0147
2561.0,0.0147
2560.0,0.0146
2559.0,0.0146
2558.0,0.0146
2557.0,0.0146
2556.0,0.0146
2555.0,0.0145
2554.0,0.0145
2553.0,0.0144
2552.0,0.0144
2551.0,0.0144
2550.0,0.0144
2549.0,0.0145
2548.0,0.0145
2547.0,0.0145
2546.0,0.0144
2545.0,0.0144
2544.0,0.0143
2543.0,0.0143
2542.0,0.0143
2541.0,0.0143
2540.0,0.0143
2539.0,0.0143
2538.0,0.0142
2537.0,0.0142
2536.0,0.0141
2535.0,0.0142
2534.0,0.0143
2533.0,0.0143
2532.0,0.0143
2531.0,0.0143
2530.0,0.0142
2529.0,0.0142
2528.0,0.0142
2527.0,0.0142
2526.0,0.0142
2525.0,0.0142
2524.0,0.0142
2523.0,0.0141
2522.0,0.0141
2521.0,0.014
2520.0,0.0139
2519.0,0.0138
2518.0,0.0138
2517.0,0.0137
2516.0,0.0138
2515.0,0.0138
2514.0,0.0139
2513.0,0.0139
2512.0,0.014
2511.0,0.014
2510.0,0.0139
2509.0,0.0139
2508.0,0.0138
2507.0,0.0138
2506.0,0.0138
2505.0,0.0138
2504.0,0.0138
2503.0,0.0138
2502.0,0.0138
2501.0,0.0139
2500.0,0.0139
2499.0,0.0139
2498.0,0.0139
2497.0,0.0139
2496.0,0.0139
2495.0,0.0138
2494.0,0.0138
2493.0,0.0138
2492.0,0.0139
2491.0,0.0139
2490.0,0.0139
2489.0,0.014
2488.0,0.0139
2487.0,0.0139
2486.0,0.0138
2485.0,0.0138
2484.0,0.0137
2483.0,0.0137
2482.0,0.0138
2481.0,0.0138
2480.0,0.0138
2479.0,0.0138
2478.0,0.0138
2477.0,0.0138
2476.0,0.0138
2475.0,0.0138
2474.0,0.0138
2473.0,0.0139
2472.0,0.0139
2471.0,0.0139
2470.0,0.0139
2469.0,0.0138
2468.0,0.0138
2467.0,0.0138
2466.0,0.0138
2465.0,0.0138
2464.0,0.0138
2463.0,0.0138
2462.0,0.0137
2461.0,0.0137
2460.0,0.0137
2459.0,0.0138
2458.0,0.0139
2457.0,0.0139
2456.0,0.014
2455.0,0.0139
2454.0,0.0139
2453.0,0.0139
2452.0,0.0138
2451.0,0.0138
2450.0,0.0138
2449.0,0.0138
2448.0,0.0139
2447.0,0.0138
2446.0,0.0138
2445.0,0.0138
2444.0,0.0138
2443.0,0.0139
2442.0,0.0139
2441.0,0.0138
2440.0,0.0138
2439.0,0.0137
2438.0,0.0137
2437.0,0.0137
2436.0,0.0137
2435.0,0.0138
2434.0,0.0139
2433.0,0.0139
2432.0,0.0139
2431.0,0.0138
2430.0,0.0138
2429.0,0.0138
2428.0,0.0139
2427.0,0.0139
2426.0,0.0139
2425.0,0.0139
2424.0,0.0139
2423.0,0.0138
2422.0,0.0138
2421.0,0.0138
2420.0,0.0138
2419.0,0.0139
2418.0,0.0139
2417.0,0.014
2416.0,0.014
2415.0,0.014
2414.0,0.014
2413.0,0.014
2412.0,0.014
2411.0,0.014
2410.0,0.014
2409.0,0.014
2408.0,0.014
2407.0,0.0141
2406.0,0.014
2405.0,0.014
2404.0,0.014
2403.0,0.0139
2402.0,0.0139
2401.0,0.0139
2400.0,0.0139
2399.0,0.0139
2398.0,0.014
2397.0,0.014
2396.0,0.014
2395.0,0.0141
2394.0,0.014
2393.0,0.014
2392.0,0.0139
2391.0,0.0138
2390.0,0.0137
2389.0,0.0135
2388.0,0.0132
2387.0,0.013
2386.0,0.0127
2385.0,0.0124
2384.0,0.0122
2383.0,0.0122
2382.0,0.0123
2381.0,0.0126
2380.0,0.0129
2379.0,0.0132
2378.0,0.0133
2377.0,0.0132
2376.0,0.0128
2375.0,0.0121
2374.0,0.0114
2373.0,0.0111
2372.0,0.0112
2371.0,0.0116
2370.0,0.012
2369.0,0.0121
2368.0,0.0119
2367.0,0.0112
2366.0,0.0103
2365.0,0.0095
2364.0,0.009
2363.0,0.0092
2362.0,0.0102
2361.0,0.0114
2360.0,0.0119
2359.0,0.0115
2358.0,0.0109
2357.0,0.0104
2356.0,0.0101
2355.0,0.0094
2354.0,0.0084
2353.0,0.0069
2352.0,0.0047
2351.0,0.0027
2350.0,0.0025
2349.0,0.0048
2348.0,0.0085
2347.0,0.0111
2346.0,0.0114
2345.0,0.0098
2344.0,0.008
2343.0,0.0069
2342.0,0.0068
2341.0,0.0075
2340.0,0.0084
2339.0,0.0088
2338.0,0.009
2337.0,0.0093
2336.0,0.0095
2335.0,0.0098
2334.0,0.0103
2333.0,0.011
2332.0,0.0111
2331.0,0.0106
2330.0,0.0094
2329.0,0.0081
2328.0,0.0071
2327.0,0.0069
2326.0,0.0076
2325.0,0.0088
2324.0,0.0099
2323.0,0.0106
2322.0,0.0107
2321.0,0.0103
2320.0,0.0095
2319.0,0.0089
2318.0,0.0085
2317.0,0.0087
2316.0,0.0091
2315.0,0.0096
2314.0,0.0099
2313.0,0.01
2312.0,0.0098
2311.0,0.0096
2310.0,0.0095
2309.0,0.0097
2308.0,0.01
2307.0,0.0104
2306.0,0.0107
2305.0,0.0109
2304.0,0.0109
2303.0,0.0108
2302.0,0.0107
2301.0,0.0108
2300.0,0.0109
2299.0,0.011
2298.0,0.011
2297.0,0.0111
2296.0,0.0112
2295.0,0.0114
2294.0,0.0115
2293.0,0.0117
2292.0,0.0119
2291.0,0.0121
2290.0,0.0123
2289.0,0.0126
2288.0,0.0128
2287.0,0.0129
2286.0,0.0131
2285.0,0.0132
2284.0,0.0134
2283.0,0.0135
2282.0,0.0135
2281.0,0.0134
2280.0,0.0134
2279.0,0.0134
2278.0,0.0133
2277.0,0.0133
2276.0,0.0134
2275.0,0.0134
2274.0,0.0135
2273.0,0.0135
2272.0,0.0135
2271.0,0.0135
2270.0,0.0135
2269.0,0.0135
2268.0,0.0136
2267.0,0.0136
2266.0,0.0136
2265.0,0.0136
2264.0,0.0136
2263.0,0.0136
2262.0,0.0136
2261.0,0.0136
2260.0,0.0137
2259.0,0.0137
2258.0,0.0138
2257.0,0.0138
2256.0,0.0138
2255.0,0.0138
2254.0,0.0138
2253.0,0.0139
2252.0,0.0139
2251.0,0.014
2250.0,0.014
2249.0,0.014
2248.0,0.0141
2247.0,0.0141
2246.0,0.0141
2245.0,0.0141
2244.0,0.0141
2243.0,0.0142
2242.0,0.0142
2241.0,0.0143
2240.0,0.0144
2239.0,0.0144
2238.0,0.0144
2237.0,0.0143
2236.0,0.0143
2235.0,0.0143
2234.0,0.0143
2233.0,0.0143
2232.0,0.0143
2231.0,0.0143
2230.0,0.0143
2229.0,0.0144
2228.0,0.0145
2227.0,0.0145
2226.0,0.0145
2225.0,0.0145
2224.0,0.0143
2223.0,0.0143
2222.0,0.0142
2221.0,0.0143
2220.0,0.0143
2219.0,0.0144
2218.0,0.0143
2217.0,0.0143
2216.0,0.0144
2215.0,0.0144
2214.0,0.0144
2213.0,0.0144
2212.0,0.0144
2211.0,0.0143
2210.0,0.0143
2209.0,0.0144
2208.0,0.0144
2207.0,0.0145
2206.0,0.0146
2205.0,0.0146
2204.0,0.0146
2203.0,0.0146
2202.0,0.0147
2201.0,0.0146
2200.0,0.0146
2199.0,0.0145
2198.0,0.0145
2197.0,0.0145
2196.0,0.0145
2195.0,0.0145
2194.0,0.0146
2193.0,0.0146
2192.0,0.0146
2191.0,0.0146
2190.0,0.0146
2189.0,0.0146
2188.0,0.0145
2187.0,0.0145
2186.0,0.0145
2185.0,0.0146
2184.0,0.0146
2183.0,0.0146
2182.0,0.0146
2181.0,0.0146
2180.0,0.0147
2179.0,0.0147
2178.0,0.0147
2177.0,0.0147
2176.0,0.0147
2175.0,0.0146
2174.0,0.0147
2173.0,0.0147
2172.0,0.0147
2171.0,0.0146
2170.0,0.0146
2169.0,0.0146
2168.0,0.0146
2167.0,0.0147
2166.0,0.0147
2165.0,0.0146
2164.0,0.0146
2163.0,0.0146
2162.0,0.0146
2161.0,0.0146
2160.0,0.0146
2159.0,0.0146
2158.0,0.0146
2157.0,0.0145
2156.0,0.0145
2155.0,0.0146
2154.0,0.0146
2153.0,0.0146
2152.0,0.0145
2151.0,0.0145
2150.0,0.0145
2149.0,0.0146
2148.0,0.0146
2147.0,0.0146
2146.0,0.0146
2145.0,0.0146
2144.0,0.0146
2143.0,0.0146
2142.0,0.0146
2141.0,0.0146
2140.0,0.0146
2139.0,0.0146
2138.0,0.0146
2137.0,0.0145
2136.0,0.0145
2135.0,0.0146
2134.0,0.0146
2133.0,0.0147
2132.0,0.0147
2131.0,0.0147
2130.0,0.0147
2129.0,0.0147
2128.0,0.0146
2127.0,0.0146
2126.0,0.0145
2125.0,0.0146
2124.0,0.0146
2123.0,0.0146
2122.0,0.0146
2121.0,0.0146
2120.0,0.0146
2119.0,0.0146
2118.0,0.0147
2117.0,0.0147
2116.0,0.0146
2115.0,0.0146
2114.0,0.0145
2113.0,0.0145
2112.0,0.0144
2111.0,0.0145
2110.0,0.0145
2109.0,0.0146
2108.0,0.0147
2107.0,0.0146
2106.0,0.0146
2105.0,0.0146
2104.0,0.0146
2103.0,0.0146
2102.0,0.0146
2101.0,0.0146
2100.0,0.0146
2099.0,0.0146
2098.0,0.0146
2097.0,0.0146
2096.0,0.0146
2095.0,0.0146
2094.0,0.0147
2093.0,0.0147
2092.0,0.0147
2091.0,0.0148
2090.0,0.0148
2089.0,0.0147
2088.0,0.0147
2087.0,0.0147
2086.0,0.0146
2085.0,0.0146
2084.0,0.0146
2083.0,0.0146
2082.0,0.0146
2081.0,0.0146
2080.0,0.0146
2079.0,0.0146
2078.0,0.0146
2077.0,0.0146
2076.0,0.0146
2075.0,0.0147
2074.0,0.0147
2073.0,0.0147
2072.0,0.0146
2071.0,0.0146
2070.0,0.0146
2069.0,0.0146
2068.0,0.0146
2067.0,0.0146
2066.0,0.0146
2065.0,0.0146
2064.0,0.0147
2063.0,0.0147
2062.0,0.0147
2061.0,0.0147
2060.0,0.0147
2059.0,0.0147
2058.0,0.0147
2057.0,0.0147
2056.0,0.0147
2055.0,0.0147
2054.0,0.0147
2053.0,0.0147
2052.0,0.0147
2051.0,0.0147
2050.0,0.0147
2049.0,0.0147
2048.0,0.0147
2047.0,0.0147
2046.0,0.0147
2045.0,0.0146
2044.0,0.0146
2043.0,0.0147
2042.0,0.0147
2041.0,0.0147
2040.0,0.0147
2039.0,0.0146
2038.0,0.0146
2037.0,0.0146
2036.0,0.0147
2035.0,0.0147
2034.0,0.0148
2033.0,0.0148
2032.0,0.0148
2031.0,0.0148
2030.0,0.0148
2029.0,0.0148
2028.0,0.0147
2027.0,0.0147
2026.0,0.0147
2025.0,0.0147
2024.0,0.0147
2023.0,0.0148
2022.0,0.0148
2021.0,0.0148
2020.0,0.0148
2019.0,0.0148
2018.0,0.0148
2017.0,0.0148
2016.0,0.0149
2015.0,0.0149
2014.0,0.0149
2013.0,0.0149
2012.0,0.0149
2011.0,0.0149
2010.0,0.0149
2009.0,0.0149
2008.0,0.0149
2007.0,0.0149
2006.0,0.0149
2005.0,0.0149
2004.0,0.0149
2003.0,0.0148
2002.0,0.0148
2001.0,0.0148
2000.0,0.0148
1999.0,0.0148
1998.0,0.0148
1997.0,0.0148
1996.0,0.0148
1995.0,0.0148
1994.0,0.0148
1993.0,0.0149
1992.0,0.0148
1991.0,0.0148
1990.0,0.0148
1989.0,0.0148
1988.0,0.0149
1987.0,0.0149
1986.0,0.0149
1985.0,0.0149
1984.0,0.0149
1983.0,0.0149
1982.0,0.0149
1981.0,0.0149
1980.0,0.0149
1979.0,0.0149
1978.0,0.0149
1977.0,0.0148
1976.0,0.0149
1975.0,0.0149
1974.0,0.0149
1973.0,0.015
1972.0,0.015
1971.0,0.015
1970.0,0.015
1969.0,0.015
1968.0,0.015
1967.0,0.015
1966.0,0.015
1965.0,0.0151
1964.0,0.0152
1963.0,0.0152
1962.0,0.0151
1961.0,0.015
1960.0,0.015
1959.0,0.015
1958.0,0.0151
1957.0,0.0151
1956.0,0.0151
1955.0,0.0151
1954.0,0.0151
1953.0,0.0151
1952.0,0.0151
1951.0,0.0151
1950.0,0.0151
1949.0,0.0152
1948.0,0.0152
1947.0,0.0151
1946.0,0.0151
1945.0,0.0152
1944.0,0.0152
1943.0,0.0153
1942.0,0.0153
1941.0,0.0152
1940.0,0.0151
1939.0,0.0151
1938.0,0.0151
1937.0,0.0151
1936.0,0.0152
1935.0,0.0152
1934.0,0.0152
1933.0,0.0152
1932.0,0.0153
1931.0,0.0153
1930.0,0.0153
1929.0,0.0153
1928.0,0.0152
1927.0,0.0153
1926.0,0.0153
1925.0,0.0154
1924.0,0.0155
1923.0,0.0155
1922.0,0.0154
1921.0,0.0154
1920.0,0.0153
1919.0,0.0152
1918.0,0.0151
1917.0,0.0151
1916.0,0.0151
1915.0,0.0151
1914.0,0.0152
1913.0,0.0153
1912.0,0.0154
1911.0,0.0154
1910.0,0.0155
1909.0,0.0155
1908.0,0.0155
1907.0,0.0155
1906.0,0.0155
1905.0,0.0154
1904.0,0.0154
1903.0,0.0153
1902.0,0.0153
1901.0,0.0153
1900.0,0.0153
1899.0,0.0153
1898.0,0.0154
1897.0,0.0155
1896.0,0.0155
1895.0,0.0155
1894.0,0.0156
1893.0,0.0156
1892.0,0.0156
1891.0,0.0156
1890.0,0.0156
1889.0,0.0156
1888.0,0.0157
1887.0,0.0156
1886.0,0.0156
1885.0,0.0156
1884.0,0.0155
1883.0,0.0155
1882.0,0.0155
1881.0,0.0156
1880.0,0.0156
1879.0,0.0156
1878.0,0.0156
1877.0,0.0157
1876.0,0.0157
1875.0,0.0156
1874.0,0.0156
1873.0,0.0156
1872.0,0.0156
1871.0,0.0156
1870.0,0.0156
1869.0,0.0155
1868.0,0.0155
1867.0,0.0156
1866.0,0.0156
1865.0,0.0156
1864.0,0.0157
1863.0,0.0157
1862.0,0.0157
1861.0,0.0157
1860.0,0.0157
1859.0,0.0157
1858.0,0.0157
1857.0,0.0157
1856.0,0.0156
1855.0,0.0156
1854.0,0.0156
1853.0,0.0157
1852.0,0.0158
1851.0,0.0158
1850.0,0.0158
1849.0,0.0158
1848.0,0.0158
1847.0,0.0158
1846.0,0.0158
1845.0,0.0158
1844.0,0.0157
1843.0,0.0157
1842.0,0.0158
1841.0,0.0158
1840.0,0.0158
1839.0,0.0157
1838.0,0.0157
1837.0,0.0158
1836.0,0.0158
1835.0,0.0159
1834.0,0.0159
1833.0,0.0159
1832.0,0.0159
1831.0,0.0158
1830.0,0.0158
1829.0,0.0159
1828.0,0.016
1827.0,0.016
1826.0,0.016
1825.0,0.016
1824.0,0.0159
1823.0,0.0159
1822.0,0.0159
1821.0,0.0159
1820.0,0.0159
1819.0,0.0159
1818.0,0.0159
1817.0,0.0159
1816.0,0.0159
1815.0,0.016
1814.0,0.0159
1813.0,0.0159
1812.0,0.0159
1811.0,0.016
1810.0,0.0161
1809.0,0.0161
1808.0,0.0162
1807.0,0.0162
1806.0,0.0161
1805.0,0.0162
1804.0,0.0162
1803.0,0.0163
1802.0,0.0163
1801.0,0.0162
1800.0,0.0162
1799.0,0.0162
1798.0,0.0162
1797.0,0.0162
1796.0,0.0161
1795.0,0.0161
1794.0,0.016
1793.0,0.0159
1792.0,0.0159
1791.0,0.016
1790.0,0.016
1789.0,0.0161
1788.0,0.0161
1787.0,0.0161
1786.0,0.0161
1785.0,0.0161
1784.0,0.0161
1783.0,0.0161
1782.0,0.0161
1781.0,0.0161
1780.0,0.0162
1779.0,0.0162
1778.0,0.0162
1777.0,0.0163
1776.0,0.0163
1775.0,0.0163
1774.0,0.0163
1773.0,0.0164
1772.0,0.0164
1771.0,0.0165
1770.0,0.0165
1769.0,0.0165
1768.0,0.0165
1767.0,0.0166
1766.0,0.0166
1765.0,0.0166
1764.0,0.0166
1763.0,0.0166
1762.0,0.0165
1761.0,0.0166
1760.0,0.0167
1759.0,0.0168
1758.0,0.0169
1757.0,0.017
1756.0,0.0172
1755.0,0.0173
1754.0,0.0174
1753.0,0.0175
1752.0,0.0176
1751.0,0.0176
1750.0,0.0176
1749.0,0.0176
1748.0,0.0177
1747.0,0.0179
1746.0,0.0181
1745.0,0.0183
1744.0,0.0185
1743.0,0.0186
1742.0,0.0186
1741.0,0.0187
1740.0,0.0187
1739.0,0.0187
1738.0,0.0186
1737.0,0.0186
1736.0,0.0186
1735.0,0.0186
1734.0,0.0186
1733.0,0.0187
1732.0,0.0187
1731.0,0.0188
1730.0,0.0189
1729.0,0.0189
1728.0,0.0188
1727.0,0.0188
1726.0,0.0188
1725.0,0.0188
1724.0,0.0188
1723.0,0.0189
1722.0,0.019
1721.0,0.0191
1720.0,0.0192
1719.0,0.0192
1718.0,0.019
1717.0,0.0188
1716.0,0.0189
1715.0,0.0191
1714.0,0.0192
1713.0,0.0193
1712.0,0.0194
1711.0,0.0195
1710.0,0.0196
1709.0,0.0196
1708.0,0.0197
1707.0,0.0197
1706.0,0.0198
1705.0,0.02
1704.0,0.0201
1703.0,0.0201
1702.0,0.02
1701.0,0.02
1700.0,0.0201
1699.0,0.0201
1698.0,0.0202
1697.0,0.0204
1696.0,0.0208
1695.0,0.0211
1694.0,0.0213
1693.0,0.0215
1692.0,0.0217
1691.0,0.0218
1690.0,0.0219
1689.0,0.0221
1688.0,0.0222
1687.0,0.0224
1686.0,0.0225
1685.0,0.0228
1684.0,0.0232
1683.0,0.0234
1682.0,0.0235
1681.0,0.0236
1680.0,0.0239
1679.0,0.0241
1678.0,0.0243
1677.0,0.0244
1676.0,0.0246
1675.0,0.0247
1674.0,0.0247
1673.0,0.0248
1672.0,0.0249
1671.0,0.0251
1670.0,0.0253
1669.0,0.0257
1668.0,0.0259
1667.0,0.026
1666.0,0.0261
1665.0,0.0261
1664.0,0.0262
1663.0,0.0264
1662.0,0.0267
1661.0,0.027
1660.0,0.0271
1659.0,0.0272
1658.0,0.0273
1657.0,0.0273
1656.0,0.0274
1655.0,0.0274
1654.0,0.0275
1653.0,0.0279
1652.0,0.028
1651.0,0.0279
1650.0,0.0279
1649.0,0.0279
1648.0,0.0279
1647.0,0.0281
1646.0,0.0284
1645.0,0.0286
1644.0,0.0286
1643.0,0.0286
1642.0,0.0286
1641.0,0.0285
1640.0,0.0284
1639.0,0.0282
1638.0,0.028
1637.0,0.0277
1636.0,0.0277
1635.0,0.0277
1634.0,0.0275
1633.0,0.0273
1632.0,0.0271
1631.0,0.027
1630.0,0.0268
1629.0,0.0267
1628.0,0.0265
1627.0,0.0263
1626.0,0.0261
1625.0,0.0259
1624.0,0.0256
1623.0,0.0254
1622.0,0.0253
1621.0,0.0253
1620.0,0.0252
1619.0,0.025
1618.0,0.0247
1617.0,0.0245
1616.0,0.0244
1615.0,0.0244
1614.0,0.0244
1613.0,0.0243
1612.0,0.0242
1611.0,0.0241
1610.0,0.024
1609.0,0.0239
1608.0,0.0239
1607.0,0.0239
1606.0,0.0239
1605.0,0.0239
1604.0,0.0239
1603.0,0.0238
1602.0,0.0237
1601.0,0.0237
1600.0,0.0236
1599.0,0.0235
1598.0,0.0234
1597.0,0.0233
1596.0,0.0232
1595.0,0.0231
1594.0,0.023
1593.0,0.0229
1592.0,0.0228
1591.0,0.0228
1590.0,0.0228
1589.0,0.0228
1588.0,0.0229
1587.0,0.0229
1586.0,0.0229
1585.0,0.023
1584.0,0.023
1583.0,0.023
1582.0,0.0229
1581.0,0.0229
1580.0,0.0229
1579.0,0.0228
1578.0,0.0226
1577.0,0.0224
1576.0,0.0223
1575.0,0.0223
1574.0,0.0223
1573.0,0.0223
1572.0,0.0223
1571.0,0.0222
1570.0,0.0221
1569.0,0.0221
1568.0,0.0221
1567.0,0.022
1566.0,0.0219
1565.0,0.0218
1564.0,0.0218
1563.0,0.0218
1562.0,0.0218
1561.0,0.0219
1560.0,0.022
1559.0,0.022
1558.0,0.0217
1557.0,0.0212
1556.0,0.0209
1555.0,0.0208
1554.0,0.0209
1553.0,0.021
1552.0,0.0212
1551.0,0.0213
1550.0,0.0213
1549.0,0.0212
1548.0,0.0212
1547.0,0.0212
1546.0,0.0211
1545.0,0.0211
1544.0,0.0209
1543.0,0.0207
1542.0,0.0203
1541.0,0.0202
1540.0,0.0203
1539.0,0.0203
1538.0,0.0202
1537.0,0.0201
1536.0,0.0202
1535.0,0.0201
1534.0,0.02
1533.0,0.0199
1532.0,0.0199
1531.0,0.0199
1530.0,0.0199
1529.0,0.0199
1528.0,0.0198
1527.0,0.0196
1526.0,0.0193
1525.0,0.0192
1524.0,0.0191
1523.0,0.019
1522.0,0.019
1521.0,0.0191
1520.0,0.0192
1519.0,0.0192
1518.0,0.0192
1517.0,0.0193
1516.0,0.0194
1515.0,0.0193
1514.0,0.0193
1513.0,0.0193
1512.0,0.0194
1511.0,0.0194
1510.0,0.0195
1509.0,0.0195
1508.0,0.0195
1507.0,0.0196
1506.0,0.0193
1505.0,0.019
1504.0,0.0189
1503.0,0.0189
1502.0,0.0189
1501.0,0.019
1500.0,0.019
1499.0,0.019
1498.0,0.0191
1497.0,0.0194
1496.0,0.0198
1495.0,0.0201
1494.0,0.0202
1493.0,0.0204
1492.0,0.0205
1491.0,0.0204
1490.0,0.0201
1489.0,0.0201
1488.0,0.0202
1487.0,0.0202
1486.0,0.0203
1485.0,0.0204
1484.0,0.0206
1483.0,0.0208
1482.0,0.0211
1481.0,0.0215
1480.0,0.0219
1479.0,0.0224
1478.0,0.0231
1477.0,0.0242
1476.0,0.0255
1475.0,0.027
1474.0,0.0291
1473.0,0.0326
1472.0,0.0366
1471.0,0.0397
1470.0,0.0424
1469.0,0.0453
1468.0,0.0485
1467.0,0.0522
1466.0,0.0569
1465.0,0.0626
1464.0,0.0676
1463.0,0.0706
1462.0,0.0723
1461.0,0.0733
1460.0,0.074
1459.0,0.0746
1458.0,0.0761
1457.0,0.0785
1456.0,0.0799
1455.0,0.0801
1454.0,0.08
1453.0,0.0797
1452.0,0.0789
1451.0,0.0776
1450.0,0.0756
1449.0,0.0727
1448.0,0.0688
1447.0,0.0645
1446.0,0.0605
1445.0,0.057
1444.0,0.0538
1443.0,0.0511
1442.0,0.0489
1441.0,0.0473
1440.0,0.0462
1439.0,0.0455
1438.0,0.0454
1437.0,0.0455
1436.0,0.0452
1435.0,0.0442
1434.0,0.0426
1433.0,0.0406
1432.0,0.0384
1431.0,0.0364
1430.0,0.0347
1429.0,0.0333
1428.0,0.0323
1427.0,0.0317
1426.0,0.0312
1425.0,0.0306
1424.0,0.0301
1423.0,0.0297
1422.0,0.0295
1421.0,0.0291
1420.0,0.0288
1419.0,0.0285
1418.0,0.0284
1417.0,0.0282
1416.0,0.0279
1415.0,0.0277
1414.0,0.0275
1413.0,0.0273
1412.0,0.027
1411.0,0.0268
1410.0,0.0266
1409.0,0.0264
1408.0,0.0262
1407.0,0.0261
1406.0,0.0259
1405.0,0.0257
1404.0,0.0255
1403.0,0.0254
1402.0,0.0253
1401.0,0.0251
1400.0,0.025
1399.0,0.0249
1398.0,0.0249
1397.0,0.0247
1396.0,0.0245
1395.0,0.0244
1394.0,0.0244
1393.0,0.0243
1392.0,0.0243
1391.0,0.0244
1390.0,0.0246
1389.0,0.0249
1388.0,0.0256
1387.0,0.0268
1386.0,0.0286
1385.0,0.0311
1384.0,0.0348
1383.0,0.0401
1382.0,0.0475
1381.0,0.057
1380.0,0.069
1379.0,0.0828
1378.0,0.0959
1377.0,0.1055
1376.0,0.1091
1375.0,0.1054
1374.0,0.0955
1373.0,0.084
1372.0,0.0738
1371.0,0.0653
1370.0,0.0581
1369.0,0.0523
1368.0,0.0481
1367.0,0.0453
1366.0,0.0437
1365.0,0.0429
1364.0,0.0428
1363.0,0.0434
1362.0,0.0444
1361.0,0.0455
1360.0,0.0461
1359.0,0.0463
1358.0,0.0458
1357.0,0.0447
1356.0,0.0432
1355.0,0.0414
1354.0,0.0396
1353.0,0.038
1352.0,0.0367
1351.0,0.0355
1350.0,0.0345
1349.0,0.0338
1348.0,0.0331
1347.0,0.0326
1346.0,0.0321
1345.0,0.0316
1344.0,0.0311
1343.0,0.0308
1342.0,0.0305
1341.0,0.0303
1340.0,0.0301
1339.0,0.03
1338.0,0.0299
1337.0,0.0298
1336.0,0.0297
1335.0,0.0297
1334.0,0.0298
1333.0,0.03
1332.0,0.0302
1331.0,0.0304
1330.0,0.0305
1329.0,0.0305
1328.0,0.0303
1327.0,0.0301
1326.0,0.0298
1325.0,0.0296
1324.0,0.0293
1323.0,0.029
1322.0,0.0287
1321.0,0.0285
1320.0,0.0284
1319.0,0.0282
1318.0,0.0281
1317.0,0.028
1316.0,0.0279
1315.0,0.0278
1314.0,0.0278
1313.0,0.0278
1312.0,0.0278
1311.0,0.0278
1310.0,0.0279
1309.0,0.0282
1308.0,0.0287
1307.0,0.0293
1306.0,0.0299
1305.0,0.0303
1304.0,0.0304
1303.0,0.0303
1302.0,0.0301
1301.0,0.0298
1300.0,0.0297
1299.0,0.0296
1298.0,0.0296
1297.0,0.0296
1296.0,0.0296
1295.0,0.0295
1294.0,0.0294
1293.0,0.0292
1292.0,0.029
1291.0,0.0288
1290.0,0.0286
1289.0,0.0283
1288.0,0.0281
1287.0,0.028
1286.0,0.0279
1285.0,0.0279
1284.0,0.0278
1283.0,0.0277
1282.0,0.0276
1281.0,0.0275
1280.0,0.0274
1279.0,0.0274
1278.0,0.0274
1277.0,0.0274
1276.0,0.0274
1275.0,0.0274
1274.0,0.0274
1273.0,0.0273
1272.0,0.0273
1271.0,0.0273
1270.0,0.0274
1269.0,0.0275
1268.0,0.0276
1267.0,0.0277
1266.0,0.0277
1265.0,0.0278
1264.0,0.0279
1263.0,0.028
1262.0,0.0282
1261.0,0.0285
1260.0,0.0289
1259.0,0.0294
1258.0,0.0299
1257.0,0.0303
1256.0,0.0306
1255.0,0.0306
1254.0,0.0303
1253.0,0.0299
1252.0,0.0295
1251.0,0.029
1250.0,0.0287
1249.0,0.0285
1248.0,0.0284
1247.0,0.0283
1246.0,0.0282
1245.0,0.0281
1244.0,0.028
1243.0,0.0279
1242.0,0.0279
1241.0,0.0278
1240.0,0.0278
1239.0,0.0278
1238.0,0.0278
1237.0,0.0278
1236.0,0.0277
1235.0,0.0277
1234.0,0.0276
1233.0,0.0276
1232.0,0.0276
1231.0,0.0276
1230.0,0.0276
1229.0,0.0276
1228.0,0.0277
1227.0,0.0278
1226.0,0.028
1225.0,0.0281
1224.0,0.0283
1223.0,0.0285
1222.0,0.0287
1221.0,0.0288
1220.0,0.0289
1219.0,0.0289
1218.0,0.029
1217.0,0.029
1216.0,0.029
1215.0,0.029
1214.0,0.0289
1213.0,0.0289
1212.0,0.0288
1211.0,0.0287
1210.0,0.0287
1209.0,0.0288
1208.0,0.0289
1207.0,0.0291
1206.0,0.0293
1205.0,0.0296
1204.0,0.03
1203.0,0.0303
1202.0,0.0306
1201.0,0.0308
1200.0,0.031
1199.0,0.0311
1198.0,0.0312
1197.0,0.0311
1196.0,0.0311
1195.0,0.031
1194.0,0.031
1193.0,0.0311
1192.0,0.0313
1191.0,0.0316
1190.0,0.032
1189.0,0.0326
1188.0,0.0333
1187.0,0.0341
1186.0,0.035
1185.0,0.036
1184.0,0.037
1183.0,0.038
1182.0,0.039
1181.0,0.0399
1180.0,0.0407
1179.0,0.0413
1178.0,0.0419
1177.0,0.0425
1176.0,0.043
1175.0,0.0436
1174.0,0.0442
1173.0,0.0448
1172.0,0.0455
1171.0,0.0464
1170.0,0.0473
1169.0,0.0481
1168.0,0.0485
1167.0,0.0485
1166.0,0.0479
1165.0,0.0471
1164.0,0.0459
1163.0,0.0447
1162.0,0.0436
1161.0,0.0426
1160.0,0.0419
1159.0,0.0413
1158.0,0.0409
1157.0,0.0407
1156.0,0.0405
1155.0,0.0404
1154.0,0.0404
1153.0,0.0404
1152.0,0.0403
1151.0,0.0402
1150.0,0.04
1149.0,0.0399
1148.0,0.04
1147.0,0.0401
1146.0,0.0405
1145.0,0.041
1144.0,0.0416
1143.0,0.0424
1142.0,0.0432
1141.0,0.0441
1140.0,0.045
1139.0,0.0459
1138.0,0.0465
1137.0,0.0469
1136.0,0.047
1135.0,0.0468
1134.0,0.0464
1133.0,0.0459
1132.0,0.0455
1131.0,0.045
1130.0,0.0447
1129.0,0.0445
1128.0,0.0443
1127.0,0.044
1126.0,0.0435
1125.0,0.0427
1124.0,0.0418
1123.0,0.0408
1122.0,0.0398
1121.0,0.0389
1120.0,0.0381
1119.0,0.0373
1118.0,0.0366
1117.0,0.036
1116.0,0.0355
1115.0,0.0351
1114.0,0.0348
1113.0,0.0346
1112.0,0.0344
1111.0,0.0343
1110.0,0.0342
1109.0,0.0342
1108.0,0.0342
1107.0,0.0344
1106.0,0.0346
1105.0,0.0349
1104.0,0.0351
1103.0,0.0352
1102.0,0.0352
1101.0,0.035
1100.0,0.0347
1099.0,0.0344
1098.0,0.0342
1097.0,0.0339
1096.0,0.0336
1095.0,0.0333
1094.0,0.0329
1093.0,0.0326
1092.0,0.0324
1091.0,0.0323
1090.0,0.0322
1089.0,0.032
1088.0,0.0318
1087.0,0.0316
1086.0,0.0315
1085.0,0.0314
1084.0,0.0313
1083.0,0.0312
1082.0,0.031
1081.0,0.0309
1080.0,0.0308
1079.0,0.0307
1078.0,0.0306
1077.0,0.0305
1076.0,0.0304
1075.0,0.0302
1074.0,0.0301
1073.0,0.03
1072.0,0.0299
1071.0,0.0299
1070.0,0.0298
1069.0,0.0298
1068.0,0.0298
1067.0,0.0298
1066.0,0.0298
1065.0,0.0297
1064.0,0.0297
1063.0,0.0296
1062.0,0.0295
1061.0,0.0295
1060.0,0.0295
1059.0,0.0296
1058.0,0.0296
1057.0,0.0297
1056.0,0.0297
1055.0,0.0296
1054.0,0.0296
1053.0,0.0296
1052.0,0.0297
1051.0,0.0299
1050.0,0.0301
1049.0,0.0303
1048.0,0.0306
1047.0,0.031
1046.0,0.0312
1045.0,0.0313
1044.0,0.0313
1043.0,0.0313
1042.0,0.0313
1041.0,0.0312
1040.0,0.0312
1039.0,0.0312
1038.0,0.0312
1037.0,0.0311
1036.0,0.031
1035.0,0.0308
1034.0,0.0307
1033.0,0.0306
1032.0,0.0306
1031.0,0.0306
1030.0,0.0307
1029.0,0.0308
1028.0,0.031
1027.0,0.0311
1026.0,0.0313
1025.0,0.0315
1024.0,0.0316
1023.0,0.0317
1022.0,0.0318
1021.0,0.0319
1020.0,0.0321
1019.0,0.0322
1018.0,0.0321
1017.0,0.032
1016.0,0.0318
1015.0,0.0316
1014.0,0.0314
1013.0,0.0312
1012.0,0.031
1011.0,0.0309
1010.0,0.0309
1009.0,0.031
1008.0,0.0312
1007.0,0.0315
1006.0,0.032
1005.0,0.0326
1004.0,0.0334
1003.0,0.0346
1002.0,0.0363
1001.0,0.0386
1000.0,0.0411
999.0,0.0435
998.0,0.0449
997.0,0.0448
996.0,0.0436
995.0,0.0416
994.0,0.0394
993.0,0.0375
992.0,0.0361
991.0,0.0349
990.0,0.0341
989.0,0.0335
988.0,0.0331
987.0,0.0329
986.0,0.0327
985.0,0.0327
984.0,0.0328
983.0,0.033
982.0,0.0335
981.0,0.0342
980.0,0.0353
979.0,0.0369
978.0,0.0389
977.0,0.0413
976.0,0.044
975.0,0.0467
974.0,0.0489
973.0,0.05
972.0,0.0496
971.0,0.048
970.0,0.0455
969.0,0.0429
968.0,0.0407
967.0,0.0389
966.0,0.0376
965.0,0.0367
964.0,0.0359
963.0,0.0354
962.0,0.035
961.0,0.0346
960.0,0.0342
959.0,0.0338
958.0,0.0336
957.0,0.0334
956.0,0.0334
955.0,0.0333
954.0,0.0331
953.0,0.033
952.0,0.0329
951.0,0.0329
950.0,0.0329
949.0,0.0329
948.0,0.0328
947.0,0.0328
946.0,0.033
945.0,0.0332
944.0,0.0334
943.0,0.0337
942.0,0.0339
941.0,0.0341
940.0,0.0341
939.0,0.0341
938.0,0.0339
937.0,0.0336
936.0,0.0333
935.0,0.033
934.0,0.0329
933.0,0.0329
932.0,0.0329
931.0,0.0329
930.0,0.033
929.0,0.033
928.0,0.0331
927.0,0.0331
926.0,0.0331
925.0,0.033
924.0,0.0329
923.0,0.033
922.0,0.0331
921.0,0.0333
920.0,0.0335
919.0,0.0336
918.0,0.0336
917.0,0.0335
916.0,0.0336
915.0,0.0337
914.0,0.0339
913.0,0.0341
912.0,0.0342
911.0,0.0343
910.0,0.0344
909.0,0.0345
908.0,0.0347
907.0,0.0349
906.0,0.0352
905.0,0.0357
904.0,0.0364
903.0,0.0375
902.0,0.0386
901.0,0.0397
900.0,0.0405
899.0,0.0408
898.0,0.0407
897.0,0.0401
896.0,0.0394
895.0,0.0386
894.0,0.0379
893.0,0.0374
892.0,0.0371
891.0,0.037
890.0,0.0369
889.0,0.0368
888.0,0.0368
887.0,0.0368
886.0,0.0368
885.0,0.0367
884.0,0.0366
883.0,0.0365
882.0,0.0365
881.0,0.0366
880.0,0.0367
879.0,0.0369
878.0,0.037
877.0,0.037
876.0,0.0371
875.0,0.0371
874.0,0.0372
873.0,0.0372
872.0,0.0372
871.0,0.0372
870.0,0.0372
869.0,0.0372
868.0,0.0373
867.0,0.0373
866.0,0.0373
865.0,0.0373
864.0,0.0374
863.0,0.0376
862.0,0.0377
861.0,0.0378
860.0,0.0379
859.0,0.038
858.0,0.0381
857.0,0.0382
856.0,0.0384
855.0,0.0385
854.0,0.0386
853.0,0.0388
852.0,0.039
851.0,0.0392
850.0,0.0394
849.0,0.0396
848.0,0.0399
847.0,0.0405
846.0,0.0416
845.0,0.0433
844.0,0.0459
843.0,0.049
842.0,0.0518
841.0,0.0532
840.0,0.0527
839.0,0.0508
838.0,0.0484
837.0,0.0463
836.0,0.0449
835.0,0.044
834.0,0.0435
833.0,0.0432
832.0,0.043
831.0,0.0428
830.0,0.0426
829.0,0.0425
828.0,0.0424
827.0,0.0424
826.0,0.0424
825.0,0.0424
824.0,0.0425
823.0,0.0425
822.0,0.0426
821.0,0.0427
820.0,0.0428
819.0,0.0429
818.0,0.0431
817.0,0.0434
816.0,0.0438
815.0,0.0445
814.0,0.0453
813.0,0.0463
812.0,0.0473
811.0,0.0482
810.0,0.0489
809.0,0.0494
808.0,0.0496
807.0,0.0495
806.0,0.049
805.0,0.0483
804.0,0.0475
803.0,0.0469
802.0,0.0466
801.0,0.0464
800.0,0.0463
799.0,0.0461
798.0,0.046
797.0,0.0458
796.0,0.0457
795.0,0.0456
794.0,0.0456
793.0,0.0457
792.0,0.0458
791.0,0.0458
790.0,0.0459
789.0,0.0458
788.0,0.0457
787.0,0.0457
786.0,0.0457
785.0,0.0457
784.0,0.0457
783.0,0.0457
782.0,0.0457
781.0,0.0457
780.0,0.0457
779.0,0.0456
778.0,0.0455
777.0,0.0456
776.0,0.0459
775.0,0.0463
774.0,0.0466
773.0,0.0468
772.0,0.047
771.0,0.0472
770.0,0.0475
769.0,0.0476
768.0,0.0477
767.0,0.0478
766.0,0.0478
765.0,0.0479
764.0,0.048
763.0,0.0481
762.0,0.0484
761.0,0.0487
760.0,0.0489
759.0,0.0491
758.0,0.0491
757.0,0.0492
756.0,0.0495
755.0,0.0497
754.0,0.0498
753.0,0.0499
752.0,0.0499
751.0,0.0501
750.0,0.0502
749.0,0.0504
748.0,0.0506
747.0,0.0507
746.0,0.0509
745.0,0.0511
744.0,0.0514
743.0,0.0515
742.0,0.0515
741.0,0.0514
740.0,0.0514
739.0,0.0514
738.0,0.0513
737.0,0.0511
736.0,0.0511
735.0,0.0513
734.0,0.0518
733.0,0.0527
732.0,0.0536
731.0,0.0543
730.0,0.0548
729.0,0.0552
728.0,0.0553
727.0,0.0553
726.0,0.0552
725.0,0.055
724.0,0.055
723.0,0.0553
722.0,0.0557
721.0,0.0563
720.0,0.0569
719.0,0.0571
718.0,0.0568
717.0,0.0564
716.0,0.056
715.0,0.0558
714.0,0.0557
713.0,0.0555
712.0,0.0554
711.0,0.0552
710.0,0.0553
709.0,0.0555
708.0,0.056
707.0,0.0564
706.0,0.0568
705.0,0.0572
704.0,0.0579
703.0,0.0589
702.0,0.06
701.0,0.061
700.0,0.0617
699.0,0.0621
698.0,0.062
697.0,0.0617
696.0,0.0612
695.0,0.0606
694.0,0.0598
693.0,0.0589
692.0,0.0582
691.0,0.0576
690.0,0.0571
689.0,0.0568
688.0,0.0564
687.0,0.0562
686.0,0.0561
685.0,0.0558
684.0,0.0553
683.0,0.0548
682.0,0.0548
681.0,0.0554
680.0,0.0563
679.0,0.0569
678.0,0.0572
677.0,0.057
676.0,0.0565
675.0,0.0558
674.0,0.0551
673.0,0.0544
672.0,0.0542
671.0,0.0555
670.0,0.0592
669.0,0.0647
668.0,0.0677
667.0,0.0646
666.0,0.0598
665.0,0.0568
664.0,0.0554
663.0,0.0544
662.0,0.0535
661.0,0.053
660.0,0.0531
659.0,0.0533
658.0,0.0534
657.0,0.0537
656.0,0.0544
655.0,0.0552
654.0,0.0559
653.0,0.0564
652.0,0.0565
651.0,0.0563
650.0,0.0557
649.0,0.055
648.0,0.0548
647.0,0.055
646.0,0.0552
645.0,0.0551
644.0,0.0548
643.0,0.0548
642.0,0.055
641.0,0.0556
640.0,0.0564
639.0,0.0574
638.0,0.0585
637.0,0.0596
636.0,0.0606
635.0,0.0615
634.0,0.0619
633.0,0.0615
632.0,0.0605
631.0,0.0595
630.0,0.0588
629.0,0.0587
628.0,0.0587
627.0,0.0587
626.0,0.0585
625.0,0.0582
624.0,0.0577
623.0,0.0572
622.0,0.0572
621.0,0.0579
620.0,0.0589
619.0,0.0596
618.0,0.0596
617.0,0.0592
616.0,0.0589
615.0,0.0586
614.0,0.0585
613.0,0.0587
612.0,0.0594
611.0,0.0603
610.0,0.0606
609.0,0.06
608.0,0.0588
607.0,0.0576
606.0,0.0567
605.0,0.0564
604.0,0.0568
603.0,0.0575
602.0,0.0582
601.0,0.0586
600.0,0.0587
