cm-1,A
4000.0,0.009
3999.0,0.009
3998.0,0.009
3997.0,0.0089
3996.0,0.0089
3995.0,0.0088
3994.0,0.0088
3993.0,0.0089
3992.0,0.0089
3991.0,0.009
3990.0,0.0089
3989.0,0.0088
3988.0,0.0087
3987.0,0.0087
3986.0,0.0087
3985.0,0.0088
3984.0,0.0088
3983.0,0.0089
3982.0,0.0089
3981.0,0.0089
3980.0,0.0089
3979.0,0.0088
3978.0,0.0088
3977.0,0.0088
3976.0,0.0088
3975.0,0.0088
3974.0,0.0089
3973.0,0.0089
3972.0,0.0089
3971.0,0.0089
3970.0,0.0088
3969.0,0.0088
3968.0,0.0087
3967.0,0.0088
3966.0,0.0088
3965.0,0.0089
3964.0,0.0089
3963.0,0.009
3962.0,0.009
3961.0,0.0089
3960.0,0.0088
3959.0,0.0088
3958.0,0.0087
3957.0,0.0088
3956.0,0.0089
3955.0,0.0089
3954.0,0.009
3953.0,0.009
3952.0,0.0089
3951.0,0.0089
3950.0,0.0088
3949.0,0.0088
3948.0,0.0088
3947.0,0.0088
3946.0,0.0087
3945.0,0.0088
3944.0,0.0088
3943.0,0.0089
3942.0,0.0089
3941.0,0.0088
3940.0,0.0087
3939.0,0.0087
3938.0,0.0087
3937.0,0.0087
3936.0,0.0087
3935.0,0.0087
3934.0,0.0087
3933.0,0.0088
3932.0,0.0088
3931.0,0.0088
3930.0,0.0087
3929.0,0.0087
3928.0,0.0086
3927.0,0.0087
3926.0,0.0087
3925.0,0.0088
3924.0,0.0088
3923.0,0.0087
3922.0,0.0087
3921.0,0.0088
3920.0,0.0089
3919.0,0.0089
3918.0,0.0089
3917.0,0.0088
3916.0,0.0087
3915.0,0.0086
3914.0,0.0086
3913.0,0.0087
3912.0,0.0088
3911.0,0.0089
3910.0,0.0089
3909.0,0.0088
3908.0,0.0086
3907.0,0.0085
3906.0,0.0084
3905.0,0.0084
3904.0,0.0084
3903.0,0.0082
3902.0,0.0081
3901.0,0.0081
3900.0,0.0083
3899.0,0.0084
3898.0,0.0084
3897.0,0.0084
3896.0,0.0085
3895.0,0.0085
3894.0,0.0086
3893.0,0.0088
3892.0,0.009
3891.0,0.009
3890.0,0.0088
3889.0,0.0087
3888.0,0.0088
3887.0,0.0091
3886.0,0.0092
3885.0,0.009
3884.0,0.0087
3883.0,0.0086
3882.0,0.0088
3881.0,0.0089
3880.0,0.0089
3879.0,0.0086
3878.0,0.0084
3877.0,0.0085
3876.0,0.0085
3875.0,0.0085
3874.0,0.0083
3873.0,0.0081
3872.0,0.008
3871.0,0.0082
3870.0,0.0084
3869.0,0.0084
3868.0,0.0082
3867.0,0.0082
3866.0,0.0084
3865.0,0.0085
3864.0,0.0085
3863.0,0.0084
3862.0,0.0083
3861.0,0.0084
3860.0,0.0084
3859.0,0.0084
3858.0,0.0083
3857.0,0.0081
3856.0,0.0079
3855.0,0.0081
3854.0,0.0085
3853.0,0.0086
3852.0,0.0084
3851.0,0.0084
3850.0,0.0088
3849.0,0.0092
3848.0,0.0092
3847.0,0.0091
3846.0,0.009
3845.0,0.0088
3844.0,0.0087
3843.0,0.0086
3842.0,0.0084
3841.0,0.0082
3840.0,0.0082
3839.0,0.0082
3838.0,0.0083
3837.0,0.0082
3836.0,0.0083
3835.0,0.0084
3834.0,0.0085
3833.0,0.0087
3832.0,0.0088
3831.0,0.0087
3830.0,0.0087
3829.0,0.0087
3828.0,0.0088
3827.0,0.0089
3826.0,0.0087
3825.0,0.0085
3824.0,0.0083
3823.0,0.0084
3822.0,0.0086
3821.0,0.0087
3820.0,0.0083
3819.0,0.008
3818.0,0.0082
3817.0,0.0086
3816.0,0.009
3815.0,0.0091
3814.0,0.0091
3813.0,0.0092
3812.0,0.0093
3811.0,0.0092
3810.0,0.009
3809.0,0.0089
3808.0,0.0089
3807.0,0.0089
3806.0,0.0088
3805.0,0.0086
3804.0,0.0086
3803.0,0.0088
3802.0,0.0091
3801.0,0.0091
3800.0,0.0088
3799.0,0.0087
3798.0,0.009
3797.0,0.0092
3796.0,0.0093
3795.0,0.0093
3794.0,0.0093
3793.0,0.0094
3792.0,0.0095
3791.0,0.0095
3790.0,0.0095
3789.0,0.0094
3788.0,0.0093
3787.0,0.0092
3786.0,0.0093
3785.0,0.0093
3784.0,0.0093
3783.0,0.0092
3782.0,0.0092
3781.0,0.0093
3780.0,0.0095
3779.0,0.0095
3778.0,0.0094
3777.0,0.0094
3776.0,0.0095
3775.0,0.0095
3774.0,0.0094
3773.0,0.0093
3772.0,0.0093
3771.0,0.0093
3770.0,0.0094
3769.0,0.0094
3768.0,0.0093
3767.0,0.0093
3766.0,0.0093
3765.0,0.0092
3764.0,0.0091
3763.0,0.009
3762.0,0.009
3761.0,0.0091
3760.0,0.0092
3759.0,0.0092
3758.0,0.0091
3757.0,0.0089
3756.0,0.0086
3755.0,0.0083
3754.0,0.0081
3753.0,0.008
3752.0,0.0081
3751.0,0.0084
3750.0,0.0085
3749.0,0.0084
3748.0,0.0083
3747.0,0.0083
3746.0,0.0086
3745.0,0.009
3744.0,0.009
3743.0,0.0087
3742.0,0.0087
3741.0,0.0089
3740.0,0.009
3739.0,0.0089
3738.0,0.0087
3737.0,0.0086
3736.0,0.0087
3735.0,0.0087
3734.0,0.0087
3733.0,0.0089
3732.0,0.009
3731.0,0.0092
3730.0,0.0092
3729.0,0.0092
3728.0,0.0093
3727.0,0.0093
3726.0,0.0093
3725.0,0.0093
3724.0,0.0094
3723.0,0.0095
3722.0,0.0095
3721.0,0.0095
3720.0,0.0094
3719.0,0.0095
3718.0,0.0095
3717.0,0.0094
3716.0,0.0093
3715.0,0.0092
3714.0,0.0091
3713.0,0.0092
3712.0,0.0092
3711.0,0.0092
3710.0,0.0091
3709.0,0.0091
3708.0,0.0091
3707.0,0.0093
3706.0,0.0093
3705.0,0.0093
3704.0,0.0092
3703.0,0.0092
3702.0,0.0092
3701.0,0.0091
3700.0,0.0091
3699.0,0.0091
3698.0,0.0091
3697.0,0.0091
3696.0,0.009
3695.0,0.0088
3694.0,0.0086
3693.0,0.0084
3692.0,0.0084
3691.0,0.0085
3690.0,0.0087
3689.0,0.0088
3688.0,0.0087
3687.0,0.0087
3686.0,0.0087
3685.0,0.0089
3684.0,0.009
3683.0,0.009
3682.0,0.0089
3681.0,0.0088
3680.0,0.0084
3679.0,0.008
3678.0,0.0076
3677.0,0.0076
3676.0,0.0079
3675.0,0.008
3674.0,0.0076
3673.0,0.0075
3672.0,0.0076
3671.0,0.008
3670.0,0.0083
3669.0,0.0084
3668.0,0.0083
3667.0,0.0085
3666.0,0.0087
3665.0,0.0089
3664.0,0.009
3663.0,0.009
3662.0,0.009
3661.0,0.009
3660.0,0.0088
3659.0,0.0086
3658.0,0.0086
3657.0,0.0086
3656.0,0.0086
3655.0,0.0085
3654.0,0.0083
3653.0,0.0081
3652.0,0.0079
3651.0,0.0078
3650.0,0.0079
3649.0,0.0081
3648.0,0.0082
3647.0,0.0083
3646.0,0.0086
3645.0,0.0089
3644.0,0.0093
3643.0,0.0096
3642.0,0.0099
3641.0,0.01
3640.0,0.01
3639.0,0.01
3638.0,0.0099
3637.0,0.0099
3636.0,0.0099
3635.0,0.0099
3634.0,0.0099
3633.0,0.0097
3632.0,0.0094
3631.0,0.0092
3630.0,0.0093
3629.0,0.0095
3628.0,0.0095
3627.0,0.0095
3626.0,0.0097
3625.0,0.0101
3624.0,0.0102
3623.0,0.0103
3622.0,0.0102
3621.0,0.0103
3620.0,0.0103
3619.0,0.0102
3618.0,0.01
3617.0,0.0098
3616.0,0.0099
3615.0,0.0101
3614.0,0.0102
3613.0,0.0102
3612.0,0.01
3611.0,0.01
3610.0,0.0101
3609.0,0.0104
3608.0,0.0107
3607.0,0.0108
3606.0,0.0107
3605.0,0.0107
3604.0,0.0107
3603.0,0.0108
3602.0,0.0109
3601.0,0.011
3600.0,0.0109
3599.0,0.0109
3598.0,0.0109
3597.0,0.0109
3596.0,0.011
3595.0,0.0111
3594.0,0.0111
3593.0,0.011
3592.0,0.0108
3591.0,0.0107
3590.0,0.0106
3589.0,0.0105
3588.0,0.0105
3587.0,0.0105
3586.0,0.0105
3585.0,0.0106
3584.0,0.0109
3583.0,0.0111
3582.0,0.0113
3581.0,0.0114
3580.0,0.0114
3579.0,0.0113
3578.0,0.0113
3577.0,0.0114
3576.0,0.0115
3575.0,0.0116
3574.0,0.0117
3573.0,0.0117
3572.0,0.0116
3571.0,0.0114
3570.0,0.0112
3569.0,0.0111
3568.0,0.011
3567.0,0.011
3566.0,0.011
3565.0,0.0111
3564.0,0.0112
3563.0,0.0114
3562.0,0.0115
3561.0,0.0116
3560.0,0.0117
3559.0,0.0119
3558.0,0.0119
3557.0,0.012
3556.0,0.012
3555.0,0.012
3554.0,0.0121
3553.0,0.0121
3552.0,0.0121
3551.0,0.012
3550.0,0.0119
3549.0,0.0119
3548.0,0.012
3547.0,0.0121
3546.0,0.0122
3545.0,0.0122
3544.0,0.0122
3543.0,0.0122
3542.0,0.0123
3541.0,0.0124
3540.0,0.0124
3539.0,0.0124
3538.0,0.0124
3537.0,0.0125
3536.0,0.0125
3535.0,0.0125
3534.0,0.0125
3533.0,0.0124
3532.0,0.0123
3531.0,0.0123
3530.0,0.0123
3529.0,0.0124
3528.0,0.0125
3527.0,0.0126
3526.0,0.0126
3525.0,0.0127
3524.0,0.0127
3523.0,0.0127
3522.0,0.0126
3521.0,0.0125
3520.0,0.0125
3519.0,0.0126
3518.0,0.0126
3517.0,0.0127
3516.0,0.0127
3515.0,0.0127
3514.0,0.0127
3513.0,0.0127
3512.0,0.0127
3511.0,0.0128
3510.0,0.0129
3509.0,0.0129
3508.0,0.0129
3507.0,0.0129
3506.0,0.0129
3505.0,0.013
3504.0,0.0131
3503.0,0.0131
3502.0,0.0131
3501.0,0.0131
3500.0,0.0131
3499.0,0.0132
3498.0,0.0133
3497.0,0.0132
3496.0,0.0132
3495.0,0.0131
3494.0,0.013
3493.0,0.013
3492.0,0.0131
3491.0,0.0132
3490.0,0.0133
3489.0,0.0134
3488.0,0.0135
3487.0,0.0135
3486.0,0.0134
3485.0,0.0133
3484.0,0.0132
3483.0,0.0132
3482.0,0.0132
3481.0,0.0132
3480.0,0.0133
3479.0,0.0133
3478.0,0.0135
3477.0,0.0136
3476.0,0.0137
3475.0,0.0137
3474.0,0.0137
3473.0,0.0136
3472.0,0.0136
3471.0,0.0136
3470.0,0.0136
3469.0,0.0136
3468.0,0.0136
3467.0,0.0137
3466.0,0.0138
3465.0,0.0139
3464.0,0.014
3463.0,0.0139
3462.0,0.0139
3461.0,0.0138
3460.0,0.0137
3459.0,0.0137
3458.0,0.0137
3457.0,0.0138
3456.0,0.0138
3455.0,0.0139
3454.0,0.0138
3453.0,0.0138
3452.0,0.0137
3451.0,0.0136
3450.0,0.0137
3449.0,0.0138
3448.0,0.0139
3447.0,0.0139
3446.0,0.0139
3445.0,0.0139
3444.0,0.0139
3443.0,0.014
3442.0,0.014
3441.0,0.0141
3440.0,0.0141
3439.0,0.0141
3438.0,0.0141
3437.0,0.0141
3436.0,0.014
3435.0,0.014
3434.0,0.014
3433.0,0.014
3432.0,0.014
3431.0,0.0141
3430.0,0.0141
3429.0,0.0141
3428.0,0.0142
3427.0,0.0142
3426.0,0.0143
3425.0,0.0143
3424.0,0.0143
3423.0,0.0143
3422.0,0.0143
3421.0,0.0144
3420.0,0.0145
3419.0,0.0146
3418.0,0.0146
3417.0,0.0145
3416.0,0.0144
3415.0,0.0143
3414.0,0.0143
3413.0,0.0143
3412.0,0.0144
3411.0,0.0145
3410.0,0.0146
3409.0,0.0145
3408.0,0.0145
3407.0,0.0144
3406.0,0.0144
3405.0,0.0143
3404.0,0.0143
3403.0,0.0143
3402.0,0.0143
3401.0,0.0144
3400.0,0.0145
3399.0,0.0145
3398.0,0.0146
3397.0,0.0145
3396.0,0.0145
3395.0,0.0145
3394.0,0.0145
3393.0,0.0144
3392.0,0.0144
3391.0,0.0144
3390.0,0.0144
3389.0,0.0145
3388.0,0.0145
3387.0,0.0145
3386.0,0.0145
3385.0,0.0145
3384.0,0.0145
3383.0,0.0145
3382.0,0.0144
3381.0,0.0144
3380.0,0.0143
3379.0,0.0143
3378.0,0.0144
3377.0,0.0144
3376.0,0.0144
3375.0,0.0144
3374.0,0.0144
3373.0,0.0143
3372.0,0.0143
3371.0,0.0143
3370.0,0.0143
3369.0,0.0143
3368.0,0.0143
3367.0,0.0144
3366.0,0.0143
3365.0,0.0143
3364.0,0.0143
3363.0,0.0143
3362.0,0.0143
3361.0,0.0144
3360.0,0.0144
3359.0,0.0145
3358.0,0.0144
3357.0,0.0144
3356.0,0.0144
3355.0,0.0143
3354.0,0.0143
3353.0,0.0143
3352.0,0.0143
3351.0,0.0143
3350.0,0.0143
3349.0,0.0142
3348.0,0.0142
3347.0,0.0141
3346.0,0.0141
3345.0,0.0141
3344.0,0.0141
3343.0,0.0142
3342.0,0.0143
3341.0,0.0143
3340.0,0.0143
3339.0,0.0143
3338.0,0.0143
3337.0,0.0143
3336.0,0.0143
3335.0,0.0142
3334.0,0.014
3333.0,0.0139
3332.0,0.0138
3331.0,0.0137
3330.0,0.0137
3329.0,0.0138
3328.0,0.0139
3327.0,0.0139
3326.0,0.0139
3325.0,0.0139
3324.0,0.0138
3323.0,0.0139
3322.0,0.0139
3321.0,0.0139
3320.0,0.0139
3319.0,0.0138
3318.0,0.0138
3317.0,0.0138
3316.0,0.0138
3315.0,0.0139
3314.0,0.0139
3313.0,0.0139
3312.0,0.0139
3311.0,0.0139
3310.0,0.0138
3309.0,0.0138
3308.0,0.0138
3307.0,0.0138
3306.0,0.0138
3305.0,0.0137
3304.0,0.0136
3303.0,0.0136
3302.0,0.0136
3301.0,0.0136
3300.0,0.0136
3299.0,0.0136
3298.0,0.0136
3297.0,0.0136
3296.0,0.0136
3295.0,0.0136
3294.0,0.0136
3293.0,0.0136
3292.0,0.0135
3291.0,0.0135
3290.0,0.0135
3289.0,0.0135
3288.0,0.0134
3287.0,0.0134
3286.0,0.0134
3285.0,0.0134
3284.0,0.0134
3283.0,0.0133
3282.0,0.0133
3281.0,0.0133
3280.0,0.0134
3279.0,0.0134
3278.0,0.0134
3277.0,0.0134
3276.0,0.0134
3275.0,0.0134
3274.0,0.0134
3273.0,0.0133
3272.0,0.0133
3271.0,0.0132
3270.0,0.0132
3269.0,0.0132
3268.0,0.0132
3267.0,0.0132
3266.0,0.0132
3265.0,0.0131
3264.0,0.0131
3263.0,0.013
3262.0,0.013
3261.0,0.013
3260.0,0.0129
3259.0,0.0128
3258.0,0.0128
3257.0,0.0128
3256.0,0.0128
3255.0,0.0128
3254.0,0.0128
3253.0,0.0128
3252.0,0.0128
3251.0,0.0128
3250.0,0.0128
3249.0,0.0128
3248.0,0.0129
3247.0,0.0129
3246.0,0.0129
3245.0,0.0128
3244.0,0.0128
3243.0,0.0127
3242.0,0.0127
3241.0,0.0127
3240.0,0.0127
3239.0,0.0127
3238.0,0.0127
3237.0,0.0127
3236.0,0.0127
3235.0,0.0127
3234.0,0.0127
3233.0,0.0127
3232.0,0.0127
3231.0,0.0127
3230.0,0.0128
3229.0,0.0127
3228.0,0.0127
3227.0,0.0126
3226.0,0.0125
3225.0,0.0125
3224.0,0.0125
3223.0,0.0125
3222.0,0.0125
3221.0,0.0126
3220.0,0.0127
3219.0,0.0127
3218.0,0.0127
3217.0,0.0126
3216.0,0.0125
3215.0,0.0125
3214.0,0.0125
3213.0,0.0125
3212.0,0.0126
3211.0,0.0126
3210.0,0.0127
3209.0,0.0126
3208.0,0.0125
3207.0,0.0125
3206.0,0.0124
3205.0,0.0125
3204.0,0.0125
3203.0,0.0125
3202.0,0.0124
3201.0,0.0123
3200.0,0.0123
3199.0,0.0123
3198.0,0.0124
3197.0,0.0124
3196.0,0.0125
3195.0,0.0125
3194.0,0.0124
3193.0,0.0124
3192.0,0.0124
3191.0,0.0123
3190.0,0.0123
3189.0,0.0123
3188.0,0.0123
3187.0,0.0123
3186.0,0.0123
3185.0,0.0123
3184.0,0.0123
3183.0,0.0123
3182.0,0.0122
3181.0,0.012
3180.0,0.0118
3179.0,0.0117
3178.0,0.0117
3177.0,0.0117
3176.0,0.0117
3175.0,0.0118
3174.0,0.0118
3173.0,0.0119
3172.0,0.0118
3171.0,0.0117
3170.0,0.0116
3169.0,0.0116
3168.0,0.0116
3167.0,0.0116
3166.0,0.0115
3165.0,0.0115
3164.0,0.0115
3163.0,0.0114
3162.0,0.0114
3161.0,0.0114
3160.0,0.0114
3159.0,0.0115
3158.0,0.0115
3157.0,0.0116
3156.0,0.0116
3155.0,0.0115
3154.0,0.0114
3153.0,0.0113
3152.0,0.0113
3151.0,0.0113
3150.0,0.0113
3149.0,0.0113
3148.0,0.0112
3147.0,0.0111
3146.0,0.0111
3145.0,0.0111
3144.0,0.0111
3143.0,0.0111
3142.0,0.011
3141.0,0.0109
3140.0,0.0109
3139.0,0.011
3138.0,0.011
3137.0,0.0109
3136.0,0.0109
3135.0,0.0108
3134.0,0.0107
3133.0,0.0106
3132.0,0.0105
3131.0,0.0103
3130.0,0.0103
3129.0,0.0103
3128.0,0.0104
3127.0,0.0104
3126.0,0.0105
3125.0,0.0105
3124.0,0.0105
3123.0,0.0105
3122.0,0.0103
3121.0,0.0102
3120.0,0.01
3119.0,0.01
3118.0,0.01
3117.0,0.01
3116.0,0.0101
3115.0,0.01
3114.0,0.01
3113.0,0.0099
3112.0,0.0099
3111.0,0.0098
3110.0,0.0098
3109.0,0.0097
3108.0,0.0096
3107.0,0.0096
3106.0,0.0095
3105.0,0.0095
3104.0,0.0095
3103.0,0.0095
3102.0,0.0095
3101.0,0.0095
3100.0,0.0095
3099.0,0.0094
3098.0,0.0094
3097.0,0.0093
3096.0,0.0093
3095.0,0.0091
3094.0,0.009
3093.0,0.009
3092.0,0.0089
3091.0,0.0089
3090.0,0.0088
3089.0,0.0088
3088.0,0.0088
3087.0,0.0088
3086.0,0.0088
3085.0,0.0087
3084.0,0.0086
3083.0,0.0086
3082.0,0.0085
3081.0,0.0085
3080.0,0.0084
3079.0,0.0084
3078.0,0.0084
3077.0,0.0084
3076.0,0.0084
3075.0,0.0083
3074.0,0.0082
3073.0,0.0081
3072.0,0.008
3071.0,0.0079
3070.0,0.0079
3069.0,0.0079
3068.0,0.0078
3067.0,0.0078
3066.0,0.0078
3065.0,0.0077
3064.0,0.0077
3063.0,0.0076
3062.0,0.0076
3061.0,0.0075
3060.0,0.0074
3059.0,0.0074
3058.0,0.0074
3057.0,0.0073
3056.0,0.0073
3055.0,0.0072
3054.0,0.0071
3053.0,0.0071
3052.0,0.007
3051.0,0.0069
3050.0,0.0068
3049.0,0.0068
3048.0,0.0067
3047.0,0.0067
3046.0,0.0066
3045.0,0.0065
3044.0,0.0065
3043.0,0.0064
3042.0,0.0062
3041.0,0.0061
3040.0,0.006
3039.0,0.0059
3038.0,0.0058
3037.0,0.0058
3036.0,0.0058
3035.0,0.0057
3034.0,0.0056
3033.0,0.0054
3032.0,0.0053
3031.0,0.0052
3030.0,0.0051
3029.0,0.005
3028.0,0.0049
3027.0,0.0047
3026.0,0.0045
3025.0,0.0043
3024.0,0.0041
3023.0,0.0039
3022.0,0.0038
3021.0,0.0037
3020.0,0.0036
3019.0,0.0035
3018.0,0.0034
3017.0,0.0033
3016.0,0.0031
3015.0,0.003
3014.0,0.0029
3013.0,0.0027
3012.0,0.0026
3011.0,0.0024
3010.0,0.0022
3009.0,0.002
3008.0,0.0019
3007.0,0.0018
3006.0,0.0018
3005.0,0.0017
3004.0,0.0016
3003.0,0.0015
3002.0,0.0013
3001.0,0.0011
3000.0,0.0009
2999.0,0.0007
2998.0,0.0007
2997.0,0.0007
2996.0,0.0008
2995.0,0.0009
2994.0,0.0011
2993.0,0.0011
2992.0,0.0011
2991.0,0.001
2990.0,0.001
2989.0,0.0012
2988.0,0.0016
2987.0,0.0021
2986.0,0.0027
2985.0,0.0034
2984.0,0.0041
2983.0,0.0049
2982.0,0.0059
2981.0,0.007
2980.0,0.0084
2979.0,0.01
2978.0,0.0118
2977.0,0.0139
2976.0,0.0162
2975.0,0.0189
2974.0,0.022
2973.0,0.0256
2972.0,0.0297
2971.0,0.0343
2970.0,0.0394
2969.0,0.0451
2968.0,0.0515
2967.0,0.0583
2966.0,0.0656
2965.0,0.0731
2964.0,0.0805
2963.0,0.0877
2962.0,0.094
2961.0,0.0993
2960.0,0.1033
2959.0,0.106
2958.0,0.1079
2957.0,0.1094
2956.0,0.111
2955.0,0.1131
2954.0,0.1158
2953.0,0.1188
2952.0,0.1216
2951.0,0.1235
2950.0,0.1238
2949.0,0.1221
2948.0,0.1181
2947.0,0.1121
2946.0,0.1047
2945.0,0.0965
2944.0,0.0885
2943.0,0.0813
2942.0,0.0752
2941.0,0.0706
2940.0,0.0673
2939.0,0.0653
2938.0,0.0645
2937.0,0.0647
2936.0,0.066
2935.0,0.0682
2934.0,0.0714
2933.0,0.0753
2932.0,0.08
2931.0,0.0853
2930.0,0.0908
2929.0,0.0964
2928.0,0.1018
2927.0,0.1071
2926.0,0.112
2925.0,0.1169
2924.0,0.1215
2923.0,0.1262
2922.0,0.1308
2921.0,0.1353
2920.0,0.1394
2919.0,0.1426
2918.0,0.1445
2917.0,0.1449
2916.0,0.1437
2915.0,0.1412
2914.0,0.1379
2913.0,0.1343
2912.0,0.1309
2911.0,0.1279
2910.0,0.1253
2909.0,0.123
2908.0,0.1207
2907.0,0.1184
2906.0,0.1159
2905.0,0.1132
2904.0,0.1101
2903.0,0.1068
2902.0,0.1033
2901.0,0.0998
2900.0,0.0965
2899.0,0.0934
2898.0,0.0904
2897.0,0.0875
2896.0,0.0849
2895.0,0.0827
2894.0,0.0808
2893.0,0.0793
2892.0,0.0781
2891.0,0.0773
2890.0,0.0768
2889.0,0.0765
2888.0,0.0766
2887.0,0.0768
2886.0,0.0772
2885.0,0.0778
2884.0,0.0786
2883.0,0.0796
2882.0,0.081
2881.0,0.0825
2880.0,0.084
2879.0,0.0852
2878.0,0.086
2877.0,0.0862
2876.0,0.086
2875.0,0.0855
2874.0,0.0852
2873.0,0.0852
2872.0,0.0858
2871.0,0.0868
2870.0,0.0882
2869.0,0.0895
2868.0,0.0904
2867.0,0.0904
2866.0,0.0892
2865.0,0.0865
2864.0,0.0825
2863.0,0.0776
2862.0,0.0723
2861.0,0.0672
2860.0,0.0626
2859.0,0.0589
2858.0,0.0559
2857.0,0.0536
2856.0,0.0521
2855.0,0.0511
2854.0,0.0505
2853.0,0.0504
2852.0,0.0507
2851.0,0.0514
2850.0,0.0526
2849.0,0.0543
2848.0,0.0566
2847.0,0.0596
2846.0,0.0632
2845.0,0.0674
2844.0,0.0721
2843.0,0.0772
2842.0,0.0824
2841.0,0.0873
2840.0,0.0914
2839.0,0.0943
2838.0,0.0955
2837.0,0.0947
2836.0,0.092
2835.0,0.0876
2834.0,0.0822
2833.0,0.0764
2832.0,0.0707
2831.0,0.0656
2830.0,0.0611
2829.0,0.0573
2828.0,0.0542
2827.0,0.0516
2826.0,0.0494
2825.0,0.0477
2824.0,0.0461
2823.0,0.0448
2822.0,0.0436
2821.0,0.0425
2820.0,0.0415
2819.0,0.0407
2818.0,0.0399
2817.0,0.0393
2816.0,0.0387
2815.0,0.0381
2814.0,0.0376
2813.0,0.0371
2812.0,0.0366
2811.0,0.0362
2810.0,0.0357
2809.0,0.0353
2808.0,0.0348
2807.0,0.0343
2806.0,0.0338
2805.0,0.0333
2804.0,0.0328
2803.0,0.0322
2802.0,0.0318
2801.0,0.0314
2800.0,0.0311
2799.0,0.0308
2798.0,0.0306
2797.0,0.0304
2796.0,0.0302
2795.0,0.03
2794.0,0.0297
2793.0,0.0294
2792.0,0.0291
2791.0,0.0287
2790.0,0.0284
2789.0,0.028
2788.0,0.0277
2787.0,0.0273
2786.0,0.027
2785.0,0.0268
2784.0,0.0266
2783.0,0.0264
2782.0,0.0262
2781.0,0.026
2780.0,0.0259
2779.0,0.0257
2778.0,0.0255
2777.0,0.0253
2776.0,0.025
2775.0,0.0248
2774.0,0.0246
2773.0,0.0245
2772.0,0.0244
2771.0,0.0244
2770.0,0.0242
2769.0,0.0241
2768.0,0.024
2767.0,0.0238
2766.0,0.0238
2765.0,0.0237
2764.0,0.0236
2763.0,0.0235
2762.0,0.0234
2761.0,0.0233
2760.0,0.0232
2759.0,0.0231
2758.0,0.0231
2757.0,0.0231
2756.0,0.023
2755.0,0.023
2754.0,0.0229
2753.0,0.0228
2752.0,0.0227
2751.0,0.0226
2750.0,0.0225
2749.0,0.0224
2748.0,0.0224
2747.0,0.0224
2746.0,0.0224
2745.0,0.0224
2744.0,0.0224
2743.0,0.0224
2742.0,0.0225
2741.0,0.0225
2740.0,0.0226
2739.0,0.0226
2738.0,0.0227
2737.0,0.0228
2736.0,0.0228
2735.0,0.0229
2734.0,0.0229
2733.0,0.023
2732.0,0.0231
2731.0,0.0232
2730.0,0.0233
2729.0,0.0235
2728.0,0.0237
2727.0,0.0239
2726.0,0.0241
2725.0,0.0243
2724.0,0.0245
2723.0,0.0245
2722.0,0.0245
2721.0,0.0244
2720.0,0.0242
2719.0,0.024
2718.0,0.0237
2717.0,0.0235
2716.0,0.0232
2715.0,0.023
2714.0,0.0228
2713.0,0.0227
2712.0,0.0225
2711.0,0.0223
2710.0,0.0221
2709.0,0.0219
2708.0,0.0218
2707.0,0.0217
2706.0,0.0216
2705.0,0.0215
2704.0,0.0214
2703.0,0.0213
2702.0,0.0212
2701.0,0.0212
2700.0,0.0211
2699.0,0.021
2698.0,0.021
2697.0,0.0209
2696.0,0.0209
2695.0,0.0208
2694.0,0.0207
2693.0,0.0207
2692.0,0.0206
2691.0,0.0206
2690.0,0.0206
2689.0,0.0205
2688.0,0.0205
2687.0,0.0205
2686.0,0.0204
2685.0,0.0204
2684.0,0.0204
2683.0,0.0204
2682.0,0.0204
2681.0,0.0204
2680.0,0.0204
2679.0,0.0204
2678.0,0.0204
2677.0,0.0204
2676.0,0.0203
2675.0,0.0203
2674.0,0.0203
2673.0,0.0203
2672.0,0.0203
2671.0,0.0203
2670.0,0.0203
2669.0,0.0202
2668.0,0.0201
2667.0,0.0201
2666.0,0.02
2665.0,0.02
2664.0,0.0201
2663.0,0.0201
2662.0,0.0201
2661.0,0.0201
2660.0,0.0201
2659.0,0.0201
2658.0,0.02
2657.0,0.0199
2656.0,0.0197
2655.0,0.0196
2654.0,0.0195
2653.0,0.0195
2652.0,0.0195
2651.0,0.0195
2650.0,0.0196
2649.0,0.0196
2648.0,0.0195
2647.0,0.0194
2646.0,0.0193
2645.0,0.0192
2644.0,0.0192
2643.0,0.0192
2642.0,0.0192
2641.0,0.0192
2640.0,0.0191
2639.0,0.0191
2638.0,0.019
2637.0,0.0189
2636.0,0.0189
2635.0,0.0188
2634.0,0.0188
2633.0,0.0188
2632.0,0.0188
2631.0,0.0188
2630.0,0.0189
2629.0,0.0189
2628.0,0.0189
2627.0,0.0189
2626.0,0.0189
2625.0,0.0189
2624.0,0.0189
2623.0,0.0189
2622.0,0.0189
2621.0,0.019
2620.0,0.019
2619.0,0.019
2618.0,0.0191
2617.0,0.019
2616.0,0.019
2615.0,0.019
2614.0,0.019
2613.0,0.019
2612.0,0.019
2611.0,0.019
2610.0,0.0189
2609.0,0.0189
2608.0,0.0188
2607.0,0.0187
2606.0,0.0187
2605.0,0.0186
2604.0,0.0185
2603.0,0.0184
2602.0,0.0183
2601.0,0.0182
2600.0,0.0181
2599.0,0.0181
2598.0,0.0182
2597.0,0.0182
2596.0,0.0182
2595.0,0.0182
2594.0,0.0182
2593.0,0.0183
2592.0,0.0184
2591.0,0.0184
2590.0,0.0184
2589.0,0.0184
2588.0,0.0185
2587.0,0.0186
2586.0,0.0187
2585.0,0.0188
2584.0,0.0187
2583.0,0.0186
2582.0,0.0186
2581.0,0.0185
2580.0,0.0186
2579.0,0.0186
2578.0,0.0186
2577.0,0.0186
2576.0,0.0185
2575.0,0.0184
2574.0,0.0183
2573.0,0.0183
2572.0,0.0183
2571.0,0.0183
2570.0,0.0182
2569.0,0.0181
2568.0,0.018
2567.0,0.0179
2566.0,0.0179
2565.0,0.0177
2564.0,0.0176
2563.0,0.0176
2562.0,0.0175
2561.0,0.0176
2560.0,0.0176
2559.0,0.0176
2558.0,0.0175
2557.0,0.0175
2556.0,0.0174
2555.0,0.0174
2554.0,0.0173
2553.0,0.0172
2552.0,0.0173
2551.0,0.0173
2550.0,0.0173
2549.0,0.0173
2548.0,0.0172
2547.0,0.0172
2546.0,0.0171
2545.0,0.0171
2544.0,0.0171
2543.0,0.0171
2542.0,0.017
2541.0,0.017
2540.0,0.017
2539.0,0.017
2538.0,0.017
2537.0,0.017
2536.0,0.0169
2535.0,0.0168
2534.0,0.0168
2533.0,0.0168
2532.0,0.0168
2531.0,0.0168
2530.0,0.0168
2529.0,0.0168
2528.0,0.0167
2527.0,0.0166
2526.0,0.0166
2525.0,0.0166
2524.0,0.0166
2523.0,0.0166
2522.0,0.0166
2521.0,0.0165
2520.0,0.0165
2519.0,0.0165
2518.0,0.0165
2517.0,0.0164
2516.0,0.0164
2515.0,0.0163
2514.0,0.0163
2513.0,0.0163
2512.0,0.0163
2511.0,0.0163
2510.0,0.0162
2509.0,0.0162
2508.0,0.0162
2507.0,0.0162
2506.0,0.0162
2505.0,0.0162
2504.0,0.0162
2503.0,0.0162
2502.0,0.0162
2501.0,0.0162
2500.0,0.0162
2499.0,0.0163
2498.0,0.0162
2497.0,0.0162
2496.0,0.0161
2495.0,0.016
2494.0,0.016
2493.0,0.016
2492.0,0.016
2491.0,0.016
2490.0,0.0161
2489.0,0.0161
2488.0,0.0161
2487.0,0.0161
2486.0,0.0161
2485.0,0.0161
2484.0,0.0161
2483.0,0.0161
2482.0,0.0161
2481.0,0.0161
2480.0,0.016
2479.0,0.0159
2478.0,0.0158
2477.0,0.0158
2476.0,0.0158
2475.0,0.0159
2474.0,0.0159
2473.0,0.0159
2472.0,0.0159
2471.0,0.0158
2470.0,0.0158
2469.0,0.0157
2468.0,0.0157
2467.0,0.0157
2466.0,0.0157
2465.0,0.0158
2464.0,0.0158
2463.0,0.0158
2462.0,0.0157
2461.0,0.0157
2460.0,0.0157
2459.0,0.0157
2458.0,0.0158
2457.0,0.0158
2456.0,0.0158
2455.0,0.0158
2454.0,0.0157
2453.0,0.0157
2452.0,0.0157
2451.0,0.0156
2450.0,0.0156
2449.0,0.0156
2448.0,0.0156
2447.0,0.0157
2446.0,0.0157
2445.0,0.0158
2444.0,0.0158
2443.0,0.0157
2442.0,0.0157
2441.0,0.0156
2440.0,0.0156
2439.0,0.0156
2438.0,0.0156
2437.0,0.0156
2436.0,0.0156
2435.0,0.0156
2434.0,0.0156
2433.0,0.0156
2432.0,0.0156
2431.0,0.0157
2430.0,0.0157
2429.0,0.0158
2428.0,0.0158
2427.0,0.0158
2426.0,0.0158
2425.0,0.0158
2424.0,0.0157
2423.0,0.0157
2422.0,0.0156
2421.0,0.0156
2420.0,0.0156
2419.0,0.0156
2418.0,0.0157
2417.0,0.0157
2416.0,0.0157
2415.0,0.0157
2414.0,0.0157
2413.0,0.0156
2412.0,0.0155
2411.0,0.0155
2410.0,0.0155
2409.0,0.0156
2408.0,0.0156
2407.0,0.0156
2406.0,0.0156
2405.0,0.0156
2404.0,0.0156
2403.0,0.0156
2402.0,0.0156
2401.0,0.0155
2400.0,0.0154
2399.0,0.0154
2398.0,0.0154
2397.0,0.0154
2396.0,0.0154
2395.0,0.0154
2394.0,0.0154
2393.0,0.0153
2392.0,0.0153
2391.0,0.0153
2390.0,0.0154
2389.0,0.0153
2388.0,0.0153
2387.0,0.0153
2386.0,0.0153
2385.0,0.0154
2384.0,0.0154
2383.0,0.0155
2382.0,0.0155
2381.0,0.0155
2380.0,0.0155
2379.0,0.0155
2378.0,0.0156
2377.0,0.0156
2376.0,0.0156
2375.0,0.0155
2374.0,0.0155
2373.0,0.0153
2372.0,0.0149
2371.0,0.0145
2370.0,0.0145
2369.0,0.0151
2368.0,0.016
2367.0,0.0168
2366.0,0.0176
2365.0,0.0184
2364.0,0.019
2363.0,0.0185
2362.0,0.0168
2361.0,0.0145
2360.0,0.0129
2359.0,0.0129
2358.0,0.0146
2357.0,0.0165
2356.0,0.017
2355.0,0.016
2354.0,0.0147
2353.0,0.0143
2352.0,0.0147
2351.0,0.0153
2350.0,0.0157
2349.0,0.0157
2348.0,0.0156
2347.0,0.0155
2346.0,0.0155
2345.0,0.0155
2344.0,0.0156
2343.0,0.0159
2342.0,0.0163
2341.0,0.0163
2340.0,0.0158
2339.0,0.0152
2338.0,0.0153
2337.0,0.0159
2336.0,0.0163
2335.0,0.0162
2334.0,0.0156
2333.0,0.0148
2332.0,0.0142
2331.0,0.0139
2330.0,0.0141
2329.0,0.0145
2328.0,0.0149
2327.0,0.0151
2326.0,0.0153
2325.0,0.0155
2324.0,0.0155
2323.0,0.0154
2322.0,0.0154
2321.0,0.0154
2320.0,0.0154
2319.0,0.0156
2318.0,0.0157
2317.0,0.0158
2316.0,0.0158
2315.0,0.0157
2314.0,0.0157
2313.0,0.0158
2312.0,0.0159
2311.0,0.016
2310.0,0.0161
2309.0,0.0162
2308.0,0.0162
2307.0,0.0162
2306.0,0.016
2305.0,0.0158
2304.0,0.0157
2303.0,0.0156
2302.0,0.0156
2301.0,0.0156
2300.0,0.0156
2299.0,0.0155
2298.0,0.0154
2297.0,0.0153
2296.0,0.0152
2295.0,0.0152
2294.0,0.0151
2293.0,0.0151
2292.0,0.0151
2291.0,0.0151
2290.0,0.015
2289.0,0.015
2288.0,0.0149
2287.0,0.0148
2286.0,0.0148
2285.0,0.0148
2284.0,0.0147
2283.0,0.0147
2282.0,0.0146
2281.0,0.0146
2280.0,0.0146
2279.0,0.0146
2278.0,0.0147
2277.0,0.0147
2276.0,0.0148
2275.0,0.0148
2274.0,0.0148
2273.0,0.0149
2272.0,0.0149
2271.0,0.0149
2270.0,0.0149
2269.0,0.0148
2268.0,0.0148
2267.0,0.0147
2266.0,0.0147
2265.0,0.0148
2264.0,0.0148
2263.0,0.0148
2262.0,0.0148
2261.0,0.0149
2260.0,0.0149
2259.0,0.0149
2258.0,0.0149
2257.0,0.0149
2256.0,0.0149
2255.0,0.0149
2254.0,0.0148
2253.0,0.0148
2252.0,0.0148
2251.0,0.0148
2250.0,0.0148
2249.0,0.0148
2248.0,0.0147
2247.0,0.0147
2246.0,0.0147
2245.0,0.0147
2244.0,0.0147
2243.0,0.0147
2242.0,0.0147
2241.0,0.0147
2240.0,0.0147
2239.0,0.0147
2238.0,0.0147
2237.0,0.0147
2236.0,0.0146
2235.0,0.0146
2234.0,0.0145
2233.0,0.0145
2232.0,0.0145
2231.0,0.0145
2230.0,0.0145
2229.0,0.0145
2228.0,0.0146
2227.0,0.0146
2226.0,0.0146
2225.0,0.0145
2224.0,0.0145
2223.0,0.0145
2222.0,0.0145
2221.0,0.0146
2220.0,0.0146
2219.0,0.0145
2218.0,0.0145
2217.0,0.0145
2216.0,0.0145
2215.0,0.0145
2214.0,0.0145
2213.0,0.0145
2212.0,0.0145
2211.0,0.0145
2210.0,0.0145
2209.0,0.0145
2208.0,0.0145
2207.0,0.0145
2206.0,0.0146
2205.0,0.0146
2204.0,0.0146
2203.0,0.0146
2202.0,0.0146
2201.0,0.0146
2200.0,0.0146
2199.0,0.0146
2198.0,0.0146
2197.0,0.0146
2196.0,0.0146
2195.0,0.0146
2194.0,0.0146
2193.0,0.0146
2192.0,0.0146
2191.0,0.0146
2190.0,0.0146
2189.0,0.0146
2188.0,0.0146
2187.0,0.0146
2186.0,0.0145
2185.0,0.0145
2184.0,0.0146
2183.0,0.0146
2182.0,0.0147
2181.0,0.0147
2180.0,0.0148
2179.0,0.0148
2178.0,0.0148
2177.0,0.0148
2176.0,0.0147
2175.0,0.0147
2174.0,0.0147
2173.0,0.0147
2172.0,0.0147
2171.0,0.0147
2170.0,0.0147
2169.0,0.0146
2168.0,0.0146
2167.0,0.0145
2166.0,0.0145
2165.0,0.0144
2164.0,0.0144
2163.0,0.0144
2162.0,0.0144
2161.0,0.0144
2160.0,0.0144
2159.0,0.0144
2158.0,0.0144
2157.0,0.0145
2156.0,0.0145
2155.0,0.0145
2154.0,0.0145
2153.0,0.0145
2152.0,0.0145
2151.0,0.0145
2150.0,0.0145
2149.0,0.0145
2148.0,0.0145
2147.0,0.0145
2146.0,0.0144
2145.0,0.0144
2144.0,0.0143
2143.0,0.0143
2142.0,0.0143
2141.0,0.0143
2140.0,0.0143
2139.0,0.0144
2138.0,0.0144
2137.0,0.0144
2136.0,0.0144
2135.0,0.0144
2134.0,0.0144
2133.0,0.0143
2132.0,0.0144
2131.0,0.0144
2130.0,0.0145
2129.0,0.0145
2128.0,0.0145
2127.0,0.0144
2126.0,0.0143
2125.0,0.0143
2124.0,0.0142
2123.0,0.0143
2122.0,0.0143
2121.0,0.0143
2120.0,0.0143
2119.0,0.0142
2118.0,0.0142
2117.0,0.0141
2116.0,0.0141
2115.0,0.0142
2114.0,0.0142
2113.0,0.0142
2112.0,0.0142
2111.0,0.0143
2110.0,0.0142
2109.0,0.0142
2108.0,0.0142
2107.0,0.0142
2106.0,0.0142
2105.0,0.0143
2104.0,0.0143
2103.0,0.0143
2102.0,0.0143
2101.0,0.0142
2100.0,0.0142
2099.0,0.0142
2098.0,0.0143
2097.0,0.0143
2096.0,0.0142
2095.0,0.0142
2094.0,0.0142
2093.0,0.0141
2092.0,0.0141
2091.0,0.0141
2090.0,0.0141
2089.0,0.0142
2088.0,0.0142
2087.0,0.0142
2086.0,0.0142
2085.0,0.0142
2084.0,0.0141
2083.0,0.0141
2082.0,0.0141
2081.0,0.0141
2080.0,0.0141
2079.0,0.0141
2078.0,0.0142
2077.0,0.0142
2076.0,0.0142
2075.0,0.0141
2074.0,0.0141
2073.0,0.0141
2072.0,0.0141
2071.0,0.0141
2070.0,0.0142
2069.0,0.0142
2068.0,0.0141
2067.0,0.0141
2066.0,0.0141
2065.0,0.0141
2064.0,0.0142
2063.0,0.0142
2062.0,0.0141
2061.0,0.0141
2060.0,0.0141
2059.0,0.0141
2058.0,0.0141
2057.0,0.014
2056.0,0.014
2055.0,0.014
2054.0,0.014
2053.0,0.0141
2052.0,0.0141
2051.0,0.0142
2050.0,0.0142
2049.0,0.0142
2048.0,0.0142
2047.0,0.0142
2046.0,0.0141
2045.0,0.0141
2044.0,0.014
2043.0,0.014
2042.0,0.014
2041.0,0.014
2040.0,0.014
2039.0,0.014
2038.0,0.014
2037.0,0.0141
2036.0,0.0141
2035.0,0.0141
2034.0,0.0141
2033.0,0.0141
2032.0,0.0141
2031.0,0.0141
2030.0,0.0141
2029.0,0.0141
2028.0,0.0141
2027.0,0.0141
2026.0,0.0141
2025.0,0.0141
2024.0,0.0141
2023.0,0.0141
2022.0,0.0141
2021.0,0.0141
2020.0,0.0141
2019.0,0.0141
2018.0,0.0141
2017.0,0.0142
2016.0,0.0143
2015.0,0.0143
2014.0,0.0142
2013.0,0.0141
2012.0,0.0141
2011.0,0.014
2010.0,0.014
2009.0,0.014
2008.0,0.0141
2007.0,0.0141
2006.0,0.0141
2005.0,0.0141
2004.0,0.0141
2003.0,0.0141
2002.0,0.0141
2001.0,0.0141
2000.0,0.0141
1999.0,0.0141
1998.0,0.0141
1997.0,0.0141
1996.0,0.0141
1995.0,0.0141
1994.0,0.0141
1993.0,0.0142
1992.0,0.0142
1991.0,0.0142
1990.0,0.0142
1989.0,0.0141
1988.0,0.0141
1987.0,0.0141
1986.0,0.014
1985.0,0.014
1984.0,0.014
1983.0,0.014
1982.0,0.014
1981.0,0.014
1980.0,0.014
1979.0,0.014
1978.0,0.0141
1977.0,0.0141
1976.0,0.014
1975.0,0.014
1974.0,0.014
1973.0,0.014
1972.0,0.014
1971.0,0.014
1970.0,0.014
1969.0,0.014
1968.0,0.014
1967.0,0.014
1966.0,0.0141
1965.0,0.0141
1964.0,0.014
1963.0,0.014
1962.0,0.014
1961.0,0.0141
1960.0,0.0141
1959.0,0.0141
1958.0,0.0141
1957.0,0.0141
1956.0,0.0141
1955.0,0.0141
1954.0,0.0141
1953.0,0.014
1952.0,0.014
1951.0,0.0139
1950.0,0.0139
1949.0,0.014
1948.0,0.014
1947.0,0.014
1946.0,0.0141
1945.0,0.0141
1944.0,0.0141
1943.0,0.0141
1942.0,0.0141
1941.0,0.014
1940.0,0.014
1939.0,0.014
1938.0,0.014
1937.0,0.0139
1936.0,0.0139
1935.0,0.0139
1934.0,0.0139
1933.0,0.0139
1932.0,0.0139
1931.0,0.0139
1930.0,0.0139
1929.0,0.0139
1928.0,0.0139
1927.0,0.0139
1926.0,0.0139
1925.0,0.0139
1924.0,0.014
1923.0,0.014
1922.0,0.014
1921.0,0.014
1920.0,0.014
1919.0,0.014
1918.0,0.0141
1917.0,0.0141
1916.0,0.0141
1915.0,0.0141
1914.0,0.0141
1913.0,0.0142
1912.0,0.0142
1911.0,0.0141
1910.0,0.0141
1909.0,0.0141
1908.0,0.0141
1907.0,0.0141
1906.0,0.014
1905.0,0.014
1904.0,0.014
1903.0,0.014
1902.0,0.014
1901.0,0.014
1900.0,0.014
1899.0,0.014
1898.0,0.014
1897.0,0.0141
1896.0,0.0142
1895.0,0.0142
1894.0,0.0142
1893.0,0.0142
1892.0,0.0142
1891.0,0.0141
1890.0,0.0141
1889.0,0.0141
1888.0,0.0141
1887.0,0.0141
1886.0,0.0141
1885.0,0.0142
1884.0,0.0142
1883.0,0.0141
1882.0,0.0141
1881.0,0.014
1880.0,0.014
1879.0,0.014
1878.0,0.014
1877.0,0.0141
1876.0,0.0141
1875.0,0.0141
1874.0,0.014
1873.0,0.014
1872.0,0.014
1871.0,0.0139
1870.0,0.0139
1869.0,0.014
1868.0,0.014
1867.0,0.014
1866.0,0.0141
1865.0,0.0141
1864.0,0.0141
1863.0,0.0141
1862.0,0.0141
1861.0,0.0141
1860.0,0.0141
1859.0,0.0141
1858.0,0.014
1857.0,0.014
1856.0,0.014
1855.0,0.014
1854.0,0.014
1853.0,0.014
1852.0,0.014
1851.0,0.014
1850.0,0.014
1849.0,0.0141
1848.0,0.0141
1847.0,0.0142
1846.0,0.0143
1845.0,0.0143
1844.0,0.0143
1843.0,0.0143
1842.0,0.0142
1841.0,0.0142
1840.0,0.0142
1839.0,0.0142
1838.0,0.0141
1837.0,0.0141
1836.0,0.0141
1835.0,0.0141
1834.0,0.0141
1833.0,0.0141
1832.0,0.0141
1831.0,0.0142
1830.0,0.0142
1829.0,0.0142
1828.0,0.0142
1827.0,0.0142
1826.0,0.0142
1825.0,0.0142
1824.0,0.0141
1823.0,0.014
1822.0,0.014
1821.0,0.014
1820.0,0.014
1819.0,0.0141
1818.0,0.0141
1817.0,0.0141
1816.0,0.0141
1815.0,0.0141
1814.0,0.014
1813.0,0.014
1812.0,0.014
1811.0,0.014
1810.0,0.014
1809.0,0.014
1808.0,0.014
1807.0,0.0141
1806.0,0.0141
1805.0,0.0141
1804.0,0.014
1803.0,0.0139
1802.0,0.0139
1801.0,0.0139
1800.0,0.0139
1799.0,0.014
1798.0,0.014
1797.0,0.014
1796.0,0.014
1795.0,0.014
1794.0,0.0141
1793.0,0.0141
1792.0,0.0141
1791.0,0.014
1790.0,0.014
1789.0,0.014
1788.0,0.014
1787.0,0.0141
1786.0,0.0141
1785.0,0.0141
1784.0,0.014
1783.0,0.014
1782.0,0.014
1781.0,0.014
1780.0,0.014
1779.0,0.014
1778.0,0.014
1777.0,0.014
1776.0,0.014
1775.0,0.014
1774.0,0.014
1773.0,0.014
1772.0,0.014
1771.0,0.014
1770.0,0.014
1769.0,0.0142
1768.0,0.0143
1767.0,0.0143
1766.0,0.0142
1765.0,0.0142
1764.0,0.0143
1763.0,0.0144
1762.0,0.0144
1761.0,0.0143
1760.0,0.0143
1759.0,0.0143
1758.0,0.0143
1757.0,0.0143
1756.0,0.0142
1755.0,0.0143
1754.0,0.0144
1753.0,0.0145
1752.0,0.0145
1751.0,0.0145
1750.0,0.0145
1749.0,0.0145
1748.0,0.0145
1747.0,0.0145
1746.0,0.0145
1745.0,0.0146
1744.0,0.0147
1743.0,0.0148
1742.0,0.0148
1741.0,0.0148
1740.0,0.0148
1739.0,0.0147
1738.0,0.0147
1737.0,0.0147
1736.0,0.0147
1735.0,0.0147
1734.0,0.0147
1733.0,0.0147
1732.0,0.0147
1731.0,0.0147
1730.0,0.0147
1729.0,0.0148
1728.0,0.0148
1727.0,0.0148
1726.0,0.0148
1725.0,0.0149
1724.0,0.0149
1723.0,0.0148
1722.0,0.0148
1721.0,0.0147
1720.0,0.0147
1719.0,0.0147
1718.0,0.0148
1717.0,0.015
1716.0,0.015
1715.0,0.015
1714.0,0.015
1713.0,0.015
1712.0,0.015
1711.0,0.015
1710.0,0.015
1709.0,0.0149
1708.0,0.0149
1707.0,0.0149
1706.0,0.0149
1705.0,0.0149
1704.0,0.015
1703.0,0.0152
1702.0,0.0155
1701.0,0.0156
1700.0,0.0156
1699.0,0.0155
1698.0,0.0156
1697.0,0.0158
1696.0,0.0159
1695.0,0.0158
1694.0,0.0156
1693.0,0.0156
1692.0,0.0156
1691.0,0.0156
1690.0,0.0157
1689.0,0.0158
1688.0,0.0159
1687.0,0.016
1686.0,0.016
1685.0,0.016
1684.0,0.0161
1683.0,0.0161
1682.0,0.0162
1681.0,0.0164
1680.0,0.0164
1679.0,0.0165
1678.0,0.0165
1677.0,0.0165
1676.0,0.0166
1675.0,0.0165
1674.0,0.0164
1673.0,0.0164
1672.0,0.0164
1671.0,0.0165
1670.0,0.0166
1669.0,0.0167
1668.0,0.0167
1667.0,0.0168
1666.0,0.0168
1665.0,0.0168
1664.0,0.0167
1663.0,0.0168
1662.0,0.0168
1661.0,0.0168
1660.0,0.0169
1659.0,0.0169
1658.0,0.0168
1657.0,0.0168
1656.0,0.0168
1655.0,0.0168
1654.0,0.0169
1653.0,0.0172
1652.0,0.017
1651.0,0.017
1650.0,0.017
1649.0,0.0168
1648.0,0.0167
1647.0,0.0169
1646.0,0.0171
1645.0,0.0172
1644.0,0.0173
1643.0,0.0174
1642.0,0.0174
1641.0,0.0174
1640.0,0.0173
1639.0,0.0172
1638.0,0.0172
1637.0,0.0173
1636.0,0.0175
1635.0,0.0175
1634.0,0.0174
1633.0,0.0174
1632.0,0.0174
1631.0,0.0174
1630.0,0.0173
1629.0,0.0173
1628.0,0.0173
1627.0,0.0172
1626.0,0.0172
1625.0,0.0171
1624.0,0.0172
1623.0,0.0172
1622.0,0.0172
1621.0,0.0172
1620.0,0.0171
1619.0,0.0171
1618.0,0.017
1617.0,0.017
1616.0,0.017
1615.0,0.0169
1614.0,0.0169
1613.0,0.0169
1612.0,0.0168
1611.0,0.0167
1610.0,0.0166
1609.0,0.0166
1608.0,0.0166
1607.0,0.0166
1606.0,0.0165
1605.0,0.0165
1604.0,0.0165
1603.0,0.0165
1602.0,0.0165
1601.0,0.0165
1600.0,0.0164
1599.0,0.0164
1598.0,0.0163
1597.0,0.0162
1596.0,0.0162
1595.0,0.0161
1594.0,0.0161
1593.0,0.0161
1592.0,0.0161
1591.0,0.016
1590.0,0.016
1589.0,0.016
1588.0,0.0159
1587.0,0.0159
1586.0,0.0158
1585.0,0.0158
1584.0,0.0158
1583.0,0.0158
1582.0,0.0157
1581.0,0.0157
1580.0,0.0156
1579.0,0.0156
1578.0,0.0155
1577.0,0.0155
1576.0,0.0155
1575.0,0.0154
1574.0,0.0154
1573.0,0.0154
1572.0,0.0154
1571.0,0.0153
1570.0,0.0152
1569.0,0.0152
1568.0,0.0152
1567.0,0.0152
1566.0,0.0151
1565.0,0.0151
1564.0,0.0151
1563.0,0.0152
1562.0,0.0152
1561.0,0.0151
1560.0,0.0149
1559.0,0.015
1558.0,0.015
1557.0,0.015
1556.0,0.0152
1555.0,0.0153
1554.0,0.0152
1553.0,0.0151
1552.0,0.015
1551.0,0.015
1550.0,0.015
1549.0,0.0149
1548.0,0.0149
1547.0,0.0148
1546.0,0.0147
1545.0,0.0147
1544.0,0.0147
1543.0,0.0147
1542.0,0.0145
1541.0,0.0146
1540.0,0.0146
1539.0,0.0144
1538.0,0.0142
1537.0,0.0143
1536.0,0.0143
1535.0,0.0142
1534.0,0.0142
1533.0,0.0142
1532.0,0.0142
1531.0,0.0141
1530.0,0.014
1529.0,0.014
1528.0,0.0141
1527.0,0.0141
1526.0,0.014
1525.0,0.0139
1524.0,0.0138
1523.0,0.0137
1522.0,0.0137
1521.0,0.0137
1520.0,0.0137
1519.0,0.0136
1518.0,0.0135
1517.0,0.0135
1516.0,0.0136
1515.0,0.0136
1514.0,0.0135
1513.0,0.0135
1512.0,0.0135
1511.0,0.0134
1510.0,0.0134
1509.0,0.0133
1508.0,0.0133
1507.0,0.0134
1506.0,0.0132
1505.0,0.0131
1504.0,0.0131
1503.0,0.0131
1502.0,0.013
1501.0,0.0129
1500.0,0.0129
1499.0,0.0129
1498.0,0.013
1497.0,0.0132
1496.0,0.0133
1495.0,0.0133
1494.0,0.0133
1493.0,0.0133
1492.0,0.0133
1491.0,0.0132
1490.0,0.0132
1489.0,0.0133
1488.0,0.0134
1487.0,0.0135
1486.0,0.0136
1485.0,0.0138
1484.0,0.0141
1483.0,0.0143
1482.0,0.0146
1481.0,0.0151
1480.0,0.0157
1479.0,0.0162
1478.0,0.0169
1477.0,0.0179
1476.0,0.0193
1475.0,0.0207
1474.0,0.0229
1473.0,0.0269
1472.0,0.0317
1471.0,0.0359
1470.0,0.0396
1469.0,0.0436
1468.0,0.0481
1467.0,0.0531
1466.0,0.0594
1465.0,0.0668
1464.0,0.0733
1463.0,0.0775
1462.0,0.0802
1461.0,0.0822
1460.0,0.0838
1459.0,0.0851
1458.0,0.0873
1457.0,0.0902
1456.0,0.0919
1455.0,0.0923
1454.0,0.0923
1453.0,0.0922
1452.0,0.0916
1451.0,0.0903
1450.0,0.088
1449.0,0.0843
1448.0,0.079
1447.0,0.073
1446.0,0.0676
1445.0,0.0627
1444.0,0.0583
1443.0,0.0544
1442.0,0.0513
1441.0,0.0491
1440.0,0.0477
1439.0,0.0469
1438.0,0.0469
1437.0,0.0473
1436.0,0.047
1435.0,0.0455
1434.0,0.0431
1433.0,0.0401
1432.0,0.0369
1431.0,0.034
1430.0,0.0316
1429.0,0.0298
1428.0,0.0284
1427.0,0.0275
1426.0,0.0267
1425.0,0.0259
1424.0,0.0252
1423.0,0.0247
1422.0,0.0244
1421.0,0.024
1420.0,0.0236
1419.0,0.0233
1418.0,0.023
1417.0,0.0226
1416.0,0.0221
1415.0,0.0217
1414.0,0.0214
1413.0,0.021
1412.0,0.0206
1411.0,0.0203
1410.0,0.02
1409.0,0.0196
1408.0,0.0193
1407.0,0.0191
1406.0,0.019
1405.0,0.0189
1404.0,0.0187
1403.0,0.0186
1402.0,0.0185
1401.0,0.0184
1400.0,0.0182
1399.0,0.0182
1398.0,0.0182
1397.0,0.0179
1396.0,0.0175
1395.0,0.0172
1394.0,0.0171
1393.0,0.0171
1392.0,0.0173
1391.0,0.0176
1390.0,0.018
1389.0,0.0184
1388.0,0.0193
1387.0,0.021
1386.0,0.0237
1385.0,0.0273
1384.0,0.0327
1383.0,0.0405
1382.0,0.051
1381.0,0.0641
1380.0,0.08
1379.0,0.0977
1378.0,0.1144
1377.0,0.1267
1376.0,0.132
1375.0,0.1283
1374.0,0.1166
1373.0,0.1022
1372.0,0.0889
1371.0,0.0774
1370.0,0.0675
1369.0,0.0592
1368.0,0.0531
1367.0,0.0491
1366.0,0.0467
1365.0,0.0455
1364.0,0.0453
1363.0,0.046
1362.0,0.0475
1361.0,0.0491
1360.0,0.0503
1359.0,0.0508
1358.0,0.0503
1357.0,0.0488
1356.0,0.0465
1355.0,0.0438
1354.0,0.0411
1353.0,0.0388
1352.0,0.0368
1351.0,0.0351
1350.0,0.0337
1349.0,0.0325
1348.0,0.0315
1347.0,0.0307
1346.0,0.0299
1345.0,0.0293
1344.0,0.0287
1343.0,0.0282
1342.0,0.0278
1341.0,0.0275
1340.0,0.0272
1339.0,0.027
1338.0,0.0268
1337.0,0.0267
1336.0,0.0266
1335.0,0.0266
1334.0,0.0267
1333.0,0.0269
1332.0,0.0272
1331.0,0.0274
1330.0,0.0275
1329.0,0.0275
1328.0,0.0273
1327.0,0.027
1326.0,0.0266
1325.0,0.0261
1324.0,0.0256
1323.0,0.0252
1322.0,0.0249
1321.0,0.0246
1320.0,0.0244
1319.0,0.0242
1318.0,0.024
1317.0,0.0238
1316.0,0.0235
1315.0,0.0234
1314.0,0.0232
1313.0,0.0232
1312.0,0.0231
1311.0,0.0232
1310.0,0.0233
1309.0,0.0237
1308.0,0.0244
1307.0,0.0253
1306.0,0.0262
1305.0,0.0269
1304.0,0.0272
1303.0,0.0271
1302.0,0.0267
1301.0,0.0263
1300.0,0.0261
1299.0,0.026
1298.0,0.026
1297.0,0.026
1296.0,0.0259
1295.0,0.0258
1294.0,0.0255
1293.0,0.0252
1292.0,0.0248
1291.0,0.0244
1290.0,0.024
1289.0,0.0237
1288.0,0.0235
1287.0,0.0233
1286.0,0.0231
1285.0,0.0229
1284.0,0.0228
1283.0,0.0227
1282.0,0.0225
1281.0,0.0224
1280.0,0.0222
1279.0,0.0221
1278.0,0.022
1277.0,0.0219
1276.0,0.0219
1275.0,0.0218
1274.0,0.0217
1273.0,0.0216
1272.0,0.0215
1271.0,0.0215
1270.0,0.0215
1269.0,0.0215
1268.0,0.0215
1267.0,0.0216
1266.0,0.0217
1265.0,0.0218
1264.0,0.0219
1263.0,0.022
1262.0,0.0222
1261.0,0.0225
1260.0,0.0229
1259.0,0.0235
1258.0,0.0241
1257.0,0.0247
1256.0,0.0251
1255.0,0.0252
1254.0,0.0248
1253.0,0.0242
1252.0,0.0234
1251.0,0.0227
1250.0,0.0222
1249.0,0.0219
1248.0,0.0217
1247.0,0.0216
1246.0,0.0216
1245.0,0.0214
1244.0,0.0213
1243.0,0.0211
1242.0,0.021
1241.0,0.021
1240.0,0.021
1239.0,0.021
1238.0,0.021
1237.0,0.021
1236.0,0.0209
1235.0,0.0208
1234.0,0.0207
1233.0,0.0207
1232.0,0.0207
1231.0,0.0208
1230.0,0.0208
1229.0,0.0209
1228.0,0.021
1227.0,0.0211
1226.0,0.0213
1225.0,0.0216
1224.0,0.0218
1223.0,0.0221
1222.0,0.0224
1221.0,0.0227
1220.0,0.0229
1219.0,0.0231
1218.0,0.0232
1217.0,0.0232
1216.0,0.0231
1215.0,0.023
1214.0,0.0229
1213.0,0.0228
1212.0,0.0227
1211.0,0.0226
1210.0,0.0226
1209.0,0.0225
1208.0,0.0226
1207.0,0.0226
1206.0,0.0226
1205.0,0.0226
1204.0,0.0226
1203.0,0.0226
1202.0,0.0225
1201.0,0.0226
1200.0,0.0226
1199.0,0.0226
1198.0,0.0226
1197.0,0.0227
1196.0,0.0227
1195.0,0.0227
1194.0,0.0227
1193.0,0.0226
1192.0,0.0226
1191.0,0.0226
1190.0,0.0226
1189.0,0.0226
1188.0,0.0226
1187.0,0.0226
1186.0,0.0226
1185.0,0.0226
1184.0,0.0227
1183.0,0.0228
1182.0,0.0229
1181.0,0.023
1180.0,0.0232
1179.0,0.0235
1178.0,0.024
1177.0,0.0246
1176.0,0.0254
1175.0,0.0267
1174.0,0.0283
1173.0,0.0305
1172.0,0.0331
1171.0,0.0359
1170.0,0.0387
1169.0,0.041
1168.0,0.0425
1167.0,0.043
1166.0,0.0426
1165.0,0.0417
1164.0,0.0405
1163.0,0.0393
1162.0,0.0381
1161.0,0.0372
1160.0,0.0365
1159.0,0.0359
1158.0,0.0355
1157.0,0.0353
1156.0,0.0351
1155.0,0.035
1154.0,0.0349
1153.0,0.0348
1152.0,0.0345
1151.0,0.034
1150.0,0.0334
1149.0,0.0326
1148.0,0.0318
1147.0,0.031
1146.0,0.0303
1145.0,0.0297
1144.0,0.0291
1143.0,0.0286
1142.0,0.0281
1141.0,0.0275
1140.0,0.0271
1139.0,0.0266
1138.0,0.0263
1137.0,0.026
1136.0,0.0258
1135.0,0.0255
1134.0,0.0253
1133.0,0.0251
1132.0,0.0249
1131.0,0.0248
1130.0,0.0246
1129.0,0.0245
1128.0,0.0244
1127.0,0.0243
1126.0,0.0241
1125.0,0.024
1124.0,0.0239
1123.0,0.0239
1122.0,0.0238
1121.0,0.0238
1120.0,0.0238
1119.0,0.0237
1118.0,0.0237
1117.0,0.0236
1116.0,0.0236
1115.0,0.0236
1114.0,0.0236
1113.0,0.0236
1112.0,0.0236
1111.0,0.0237
1110.0,0.0239
1109.0,0.0241
1108.0,0.0243
1107.0,0.0247
1106.0,0.0251
1105.0,0.0256
1104.0,0.026
1103.0,0.0262
1102.0,0.0262
1101.0,0.0259
1100.0,0.0255
1099.0,0.0251
1098.0,0.0246
1097.0,0.0241
1096.0,0.0237
1095.0,0.0234
1094.0,0.023
1093.0,0.0227
1092.0,0.0224
1091.0,0.022
1090.0,0.0216
1089.0,0.0212
1088.0,0.0208
1087.0,0.0205
1086.0,0.0202
1085.0,0.0199
1084.0,0.0197
1083.0,0.0194
1082.0,0.0192
1081.0,0.019
1080.0,0.0188
1079.0,0.0185
1078.0,0.0183
1077.0,0.0181
1076.0,0.0179
1075.0,0.0177
1074.0,0.0176
1073.0,0.0176
1072.0,0.0176
1071.0,0.0176
1070.0,0.0176
1069.0,0.0174
1068.0,0.0171
1067.0,0.0169
1066.0,0.0168
1065.0,0.017
1064.0,0.0173
1063.0,0.0175
1062.0,0.0176
1061.0,0.0175
1060.0,0.0174
1059.0,0.0172
1058.0,0.017
1057.0,0.017
1056.0,0.017
1055.0,0.017
1054.0,0.0171
1053.0,0.0172
1052.0,0.0174
1051.0,0.0176
1050.0,0.0179
1049.0,0.0181
1048.0,0.0184
1047.0,0.0187
1046.0,0.0191
1045.0,0.0194
1044.0,0.0195
1043.0,0.0195
1042.0,0.0194
1041.0,0.0193
1040.0,0.0192
1039.0,0.0192
1038.0,0.0192
1037.0,0.0193
1036.0,0.0195
1035.0,0.0198
1034.0,0.02
1033.0,0.0201
1032.0,0.0202
1031.0,0.0202
1030.0,0.0201
1029.0,0.0199
1028.0,0.0197
1027.0,0.0198
1026.0,0.02
1025.0,0.0204
1024.0,0.0206
1023.0,0.0207
1022.0,0.0207
1021.0,0.0207
1020.0,0.0208
1019.0,0.0209
1018.0,0.021
1017.0,0.0211
1016.0,0.0211
1015.0,0.0212
1014.0,0.0213
1013.0,0.0215
1012.0,0.0218
1011.0,0.022
1010.0,0.0222
1009.0,0.0224
1008.0,0.0227
1007.0,0.0231
1006.0,0.0238
1005.0,0.0248
1004.0,0.0262
1003.0,0.0281
1002.0,0.0307
1001.0,0.0341
1000.0,0.0378
999.0,0.0413
998.0,0.0435
997.0,0.0438
996.0,0.0422
995.0,0.0394
994.0,0.0363
993.0,0.0334
992.0,0.0311
991.0,0.0293
990.0,0.0281
989.0,0.0271
988.0,0.0265
987.0,0.026
986.0,0.0256
985.0,0.0254
984.0,0.0254
983.0,0.0257
982.0,0.0263
981.0,0.0274
980.0,0.029
979.0,0.0314
978.0,0.0345
977.0,0.0383
976.0,0.0424
975.0,0.0464
974.0,0.0495
973.0,0.0511
972.0,0.0507
971.0,0.0483
970.0,0.0447
969.0,0.0409
968.0,0.0374
967.0,0.0347
966.0,0.0326
965.0,0.031
964.0,0.0299
963.0,0.029
962.0,0.0283
961.0,0.0277
960.0,0.0272
959.0,0.0267
958.0,0.0262
957.0,0.0258
956.0,0.0254
955.0,0.0251
954.0,0.0249
953.0,0.0248
952.0,0.0246
951.0,0.0245
950.0,0.0244
949.0,0.0243
948.0,0.0242
947.0,0.0243
946.0,0.0244
945.0,0.0245
944.0,0.0247
943.0,0.025
942.0,0.0252
941.0,0.0254
940.0,0.0254
939.0,0.0252
938.0,0.0248
937.0,0.0243
936.0,0.0239
935.0,0.0236
934.0,0.0234
933.0,0.0231
932.0,0.0229
931.0,0.0228
930.0,0.0227
929.0,0.0227
928.0,0.0227
927.0,0.0227
926.0,0.0226
925.0,0.0225
924.0,0.0224
923.0,0.0222
922.0,0.0222
921.0,0.0221
920.0,0.0221
919.0,0.0221
918.0,0.022
917.0,0.022
916.0,0.022
915.0,0.022
914.0,0.022
913.0,0.0221
912.0,0.0221
911.0,0.0221
910.0,0.022
909.0,0.022
908.0,0.0222
907.0,0.0225
906.0,0.023
905.0,0.0239
904.0,0.0251
903.0,0.0266
902.0,0.0282
901.0,0.0297
900.0,0.0309
899.0,0.0315
898.0,0.0312
897.0,0.0303
896.0,0.0289
895.0,0.0275
894.0,0.0262
893.0,0.0253
892.0,0.0246
891.0,0.0242
890.0,0.024
889.0,0.0238
888.0,0.0236
887.0,0.0234
886.0,0.0232
885.0,0.023
884.0,0.0229
883.0,0.0228
882.0,0.0227
881.0,0.0226
880.0,0.0226
879.0,0.0226
878.0,0.0228
877.0,0.0229
876.0,0.0228
875.0,0.0228
874.0,0.0227
873.0,0.0227
872.0,0.0227
871.0,0.0227
870.0,0.0227
869.0,0.0228
868.0,0.0228
867.0,0.0229
866.0,0.023
865.0,0.0231
864.0,0.0231
863.0,0.0232
862.0,0.0232
861.0,0.0232
860.0,0.0233
859.0,0.0233
858.0,0.0234
857.0,0.0235
856.0,0.0236
855.0,0.0237
854.0,0.0239
853.0,0.0241
852.0,0.0243
851.0,0.0246
850.0,0.0249
849.0,0.0254
848.0,0.026
847.0,0.0268
846.0,0.0282
845.0,0.0304
844.0,0.0339
843.0,0.0382
842.0,0.0421
841.0,0.044
840.0,0.0431
839.0,0.0401
838.0,0.0364
837.0,0.0334
836.0,0.0312
835.0,0.0299
834.0,0.0289
833.0,0.0283
832.0,0.0279
831.0,0.0274
830.0,0.0271
829.0,0.0268
828.0,0.0266
827.0,0.0263
826.0,0.0261
825.0,0.0258
824.0,0.0257
823.0,0.0256
822.0,0.0255
821.0,0.0255
820.0,0.0256
819.0,0.0257
818.0,0.026
817.0,0.0265
816.0,0.0271
815.0,0.028
814.0,0.0291
813.0,0.0305
812.0,0.0321
811.0,0.0338
810.0,0.0352
809.0,0.0359
808.0,0.0358
807.0,0.0351
806.0,0.0339
805.0,0.0326
804.0,0.0314
803.0,0.0305
802.0,0.0297
801.0,0.029
800.0,0.0284
799.0,0.0278
798.0,0.0274
797.0,0.0271
796.0,0.0268
795.0,0.0266
794.0,0.0263
793.0,0.0262
792.0,0.0261
791.0,0.026
790.0,0.0259
789.0,0.0258
788.0,0.0255
787.0,0.0252
786.0,0.0249
785.0,0.0246
784.0,0.0243
783.0,0.0241
782.0,0.024
781.0,0.024
780.0,0.0239
779.0,0.0238
778.0,0.0238
777.0,0.0238
776.0,0.0238
775.0,0.0238
774.0,0.0237
773.0,0.0237
772.0,0.0235
771.0,0.0234
770.0,0.0233
769.0,0.0234
768.0,0.0235
767.0,0.0235
766.0,0.0235
765.0,0.0235
764.0,0.0235
763.0,0.0235
762.0,0.0234
761.0,0.0233
760.0,0.0233
759.0,0.0232
758.0,0.0232
757.0,0.0233
756.0,0.0234
755.0,0.0235
754.0,0.0235
753.0,0.0234
752.0,0.0234
751.0,0.0234
750.0,0.0234
749.0,0.0234
748.0,0.0234
747.0,0.0234
746.0,0.0233
745.0,0.0233
744.0,0.0234
743.0,0.0235
742.0,0.0235
741.0,0.0234
740.0,0.0234
739.0,0.0234
738.0,0.0235
737.0,0.0236
736.0,0.0235
735.0,0.0232
734.0,0.0229
733.0,0.0229
732.0,0.023
731.0,0.0231
730.0,0.0233
729.0,0.0235
728.0,0.0236
727.0,0.0236
726.0,0.0235
725.0,0.0234
724.0,0.0233
723.0,0.0232
722.0,0.0232
721.0,0.0232
720.0,0.0232
719.0,0.0231
718.0,0.0231
717.0,0.0231
716.0,0.0232
715.0,0.0232
714.0,0.0232
713.0,0.0231
712.0,0.0232
711.0,0.0234
710.0,0.0236
709.0,0.0237
708.0,0.0237
707.0,0.0237
706.0,0.0237
705.0,0.0237
704.0,0.0238
703.0,0.024
702.0,0.024
701.0,0.0238
700.0,0.0234
699.0,0.0231
698.0,0.0229
697.0,0.023
696.0,0.0232
695.0,0.0234
694.0,0.0237
693.0,0.024
692.0,0.0241
691.0,0.0241
690.0,0.0239
689.0,0.0237
688.0,0.0235
687.0,0.0235
686.0,0.0236
685.0,0.0238
684.0,0.0239
683.0,0.0241
682.0,0.0243
681.0,0.0244
680.0,0.0245
679.0,0.0243
678.0,0.0241
677.0,0.0239
676.0,0.0238
675.0,0.0239
674.0,0.0241
673.0,0.0244
672.0,0.0244
671.0,0.0241
670.0,0.0233
669.0,0.0224
668.0,0.0219
667.0,0.0217
666.0,0.0221
665.0,0.0229
664.0,0.0235
663.0,0.0239
662.0,0.0241
661.0,0.0242
660.0,0.0242
659.0,0.024
658.0,0.0237
657.0,0.0233
656.0,0.023
655.0,0.0229
654.0,0.0231
653.0,0.0233
652.0,0.0234
651.0,0.0234
650.0,0.0238
649.0,0.0245
648.0,0.0251
647.0,0.0253
646.0,0.0251
645.0,0.0249
644.0,0.0249
643.0,0.0251
642.0,0.0253
641.0,0.0254
640.0,0.0253
639.0,0.0252
638.0,0.0252
637.0,0.0255
636.0,0.0258
635.0,0.0259
634.0,0.0256
633.0,0.0252
632.0,0.0249
631.0,0.025
630.0,0.0254
629.0,0.0257
628.0,0.0259
627.0,0.0258
626.0,0.0256
625.0,0.0252
624.0,0.0247
623.0,0.0243
622.0,0.0245
621.0,0.0252
620.0,0.0261
619.0,0.0269
618.0,0.0271
617.0,0.0267
616.0,0.026
615.0,0.0256
614.0,0.0257
613.0,0.0262
612.0,0.0267
611.0,0.0268
610.0,0.0268
609.0,0.0269
608.0,0.027
607.0,0.027
606.0,0.0268
605.0,0.0263
604.0,0.026
603.0,0.026
602.0,0.0261
601.0,0.0265
600.0,0.0268
