cm-1,A
4000.0,0.0041
3999.0,0.0042
3998.0,0.0042
3997.0,0.0043
3996.0,0.0044
3995.0,0.0044
3994.0,0.0043
3993.0,0.0042
3992.0,0.0041
3991.0,0.0041
3990.0,0.0041
3989.0,0.0042
3988.0,0.0042
3987.0,0.0043
3986.0,0.0043
3985.0,0.0043
3984.0,0.0043
3983.0,0.0042
3982.0,0.0042
3981.0,0.0042
3980.0,0.0042
3979.0,0.0042
3978.0,0.0042
3977.0,0.0042
3976.0,0.0042
3975.0,0.0043
3974.0,0.0043
3973.0,0.0044
3972.0,0.0044
3971.0,0.0043
3970.0,0.0042
3969.0,0.0041
3968.0,0.0041
3967.0,0.0041
3966.0,0.0041
3965.0,0.0041
3964.0,0.0042
3963.0,0.0042
3962.0,0.0043
3961.0,0.0043
3960.0,0.0042
3959.0,0.0042
3958.0,0.0041
3957.0,0.0041
3956.0,0.0041
3955.0,0.0042
3954.0,0.0043
3953.0,0.0044
3952.0,0.0045
3951.0,0.0045
3950.0,0.0045
3949.0,0.0044
3948.0,0.0044
3947.0,0.0043
3946.0,0.0044
3945.0,0.0045
3944.0,0.0045
3943.0,0.0045
3942.0,0.0045
3941.0,0.0045
3940.0,0.0045
3939.0,0.0046
3938.0,0.0045
3937.0,0.0045
3936.0,0.0045
3935.0,0.0044
3934.0,0.0044
3933.0,0.0045
3932.0,0.0045
3931.0,0.0045
3930.0,0.0045
3929.0,0.0044
3928.0,0.0043
3927.0,0.0043
3926.0,0.0044
3925.0,0.0046
3924.0,0.0047
3923.0,0.0047
3922.0,0.0047
3921.0,0.0046
3920.0,0.0045
3919.0,0.0045
3918.0,0.0044
3917.0,0.0044
3916.0,0.0044
3915.0,0.0044
3914.0,0.0045
3913.0,0.0045
3912.0,0.0046
3911.0,0.0046
3910.0,0.0047
3909.0,0.0048
3908.0,0.0048
3907.0,0.0047
3906.0,0.0047
3905.0,0.0046
3904.0,0.0045
3903.0,0.0045
3902.0,0.0045
3901.0,0.0046
3900.0,0.0047
3899.0,0.0047
3898.0,0.0046
3897.0,0.0045
3896.0,0.0045
3895.0,0.0045
3894.0,0.0045
3893.0,0.0046
3892.0,0.0047
3891.0,0.0047
3890.0,0.0046
3889.0,0.0045
3888.0,0.0044
3887.0,0.0043
3886.0,0.0043
3885.0,0.0043
3884.0,0.0044
3883.0,0.0045
3882.0,0.0047
3881.0,0.0047
3880.0,0.0046
3879.0,0.0045
3878.0,0.0044
3877.0,0.0044
3876.0,0.0045
3875.0,0.0046
3874.0,0.0045
3873.0,0.0045
3872.0,0.0045
3871.0,0.0046
3870.0,0.0046
3869.0,0.0046
3868.0,0.0046
3867.0,0.0047
3866.0,0.0047
3865.0,0.0047
3864.0,0.0047
3863.0,0.0048
3862.0,0.0048
3861.0,0.0048
3860.0,0.0047
3859.0,0.0046
3858.0,0.0045
3857.0,0.0043
3856.0,0.0042
3855.0,0.0042
3854.0,0.0044
3853.0,0.0043
3852.0,0.0041
3851.0,0.0042
3850.0,0.0043
3849.0,0.0045
3848.0,0.0046
3847.0,0.0047
3846.0,0.0048
3845.0,0.0048
3844.0,0.0048
3843.0,0.0047
3842.0,0.0045
3841.0,0.0043
3840.0,0.0042
3839.0,0.0042
3838.0,0.0041
3837.0,0.0042
3836.0,0.0043
3835.0,0.0046
3834.0,0.0048
3833.0,0.005
3832.0,0.0051
3831.0,0.005
3830.0,0.0049
3829.0,0.0049
3828.0,0.0048
3827.0,0.0048
3826.0,0.0048
3825.0,0.0047
3824.0,0.0046
3823.0,0.0045
3822.0,0.0045
3821.0,0.0045
3820.0,0.0046
3819.0,0.0047
3818.0,0.0048
3817.0,0.0048
3816.0,0.0048
3815.0,0.0046
3814.0,0.0047
3813.0,0.0048
3812.0,0.0049
3811.0,0.0049
3810.0,0.0048
3809.0,0.0048
3808.0,0.0048
3807.0,0.0047
3806.0,0.0046
3805.0,0.0045
3804.0,0.0046
3803.0,0.0047
3802.0,0.0049
3801.0,0.0049
3800.0,0.0049
3799.0,0.005
3798.0,0.0051
3797.0,0.0052
3796.0,0.0051
3795.0,0.005
3794.0,0.005
3793.0,0.005
3792.0,0.005
3791.0,0.0049
3790.0,0.0048
3789.0,0.0048
3788.0,0.0047
3787.0,0.0047
3786.0,0.0048
3785.0,0.0049
3784.0,0.005
3783.0,0.0051
3782.0,0.0052
3781.0,0.0052
3780.0,0.0052
3779.0,0.0052
3778.0,0.0052
3777.0,0.0052
3776.0,0.0051
3775.0,0.005
3774.0,0.005
3773.0,0.005
3772.0,0.005
3771.0,0.005
3770.0,0.005
3769.0,0.0049
3768.0,0.005
3767.0,0.0051
3766.0,0.0053
3765.0,0.0053
3764.0,0.0053
3763.0,0.0052
3762.0,0.0051
3761.0,0.0051
3760.0,0.0051
3759.0,0.0051
3758.0,0.0051
3757.0,0.005
3756.0,0.0048
3755.0,0.0047
3754.0,0.0047
3753.0,0.0047
3752.0,0.0048
3751.0,0.0049
3750.0,0.0049
3749.0,0.0048
3748.0,0.005
3747.0,0.0052
3746.0,0.0055
3745.0,0.0055
3744.0,0.0052
3743.0,0.0051
3742.0,0.0052
3741.0,0.0054
3740.0,0.0055
3739.0,0.0055
3738.0,0.0055
3737.0,0.0056
3736.0,0.0057
3735.0,0.0057
3734.0,0.0057
3733.0,0.0058
3732.0,0.0058
3731.0,0.0058
3730.0,0.0058
3729.0,0.0058
3728.0,0.0058
3727.0,0.0058
3726.0,0.0058
3725.0,0.0059
3724.0,0.0059
3723.0,0.0058
3722.0,0.0057
3721.0,0.0055
3720.0,0.0054
3719.0,0.0053
3718.0,0.0052
3717.0,0.0052
3716.0,0.0051
3715.0,0.005
3714.0,0.0049
3713.0,0.0049
3712.0,0.0052
3711.0,0.0055
3710.0,0.0057
3709.0,0.0058
3708.0,0.0057
3707.0,0.0057
3706.0,0.0056
3705.0,0.0055
3704.0,0.0054
3703.0,0.0054
3702.0,0.0053
3701.0,0.0053
3700.0,0.0053
3699.0,0.0053
3698.0,0.0054
3697.0,0.0054
3696.0,0.0055
3695.0,0.0056
3694.0,0.0056
3693.0,0.0055
3692.0,0.0052
3691.0,0.005
3690.0,0.005
3689.0,0.0051
3688.0,0.0052
3687.0,0.0054
3686.0,0.0056
3685.0,0.0057
3684.0,0.0058
3683.0,0.0057
3682.0,0.0056
3681.0,0.0055
3680.0,0.0053
3679.0,0.0052
3678.0,0.0051
3677.0,0.0051
3676.0,0.0051
3675.0,0.0051
3674.0,0.0051
3673.0,0.0053
3672.0,0.0054
3671.0,0.0054
3670.0,0.0054
3669.0,0.0054
3668.0,0.0055
3667.0,0.0056
3666.0,0.0058
3665.0,0.0058
3664.0,0.0058
3663.0,0.0057
3662.0,0.0056
3661.0,0.0055
3660.0,0.0054
3659.0,0.0055
3658.0,0.0056
3657.0,0.0057
3656.0,0.0057
3655.0,0.0056
3654.0,0.0056
3653.0,0.0056
3652.0,0.0056
3651.0,0.0058
3650.0,0.006
3649.0,0.0061
3648.0,0.0061
3647.0,0.0061
3646.0,0.0061
3645.0,0.0062
3644.0,0.0062
3643.0,0.0063
3642.0,0.0063
3641.0,0.0063
3640.0,0.0063
3639.0,0.0063
3638.0,0.0063
3637.0,0.0063
3636.0,0.0063
3635.0,0.0063
3634.0,0.0062
3633.0,0.0062
3632.0,0.0062
3631.0,0.0063
3630.0,0.0064
3629.0,0.0065
3628.0,0.0064
3627.0,0.0064
3626.0,0.0066
3625.0,0.0067
3624.0,0.0066
3623.0,0.0065
3622.0,0.0063
3621.0,0.0062
3620.0,0.0063
3619.0,0.0065
3618.0,0.0067
3617.0,0.0067
3616.0,0.0067
3615.0,0.0066
3614.0,0.0065
3613.0,0.0065
3612.0,0.0065
3611.0,0.0065
3610.0,0.0066
3609.0,0.0067
3608.0,0.0068
3607.0,0.0069
3606.0,0.0069
3605.0,0.0069
3604.0,0.007
3603.0,0.0071
3602.0,0.0072
3601.0,0.0072
3600.0,0.0073
3599.0,0.0073
3598.0,0.0073
3597.0,0.0073
3596.0,0.0074
3595.0,0.0076
3594.0,0.0077
3593.0,0.0077
3592.0,0.0076
3591.0,0.0074
3590.0,0.0072
3589.0,0.0071
3588.0,0.0072
3587.0,0.0074
3586.0,0.0076
3585.0,0.0076
3584.0,0.0077
3583.0,0.0077
3582.0,0.0077
3581.0,0.0077
3580.0,0.0078
3579.0,0.0078
3578.0,0.0079
3577.0,0.0079
3576.0,0.0079
3575.0,0.0079
3574.0,0.0078
3573.0,0.0079
3572.0,0.0079
3571.0,0.008
3570.0,0.0081
3569.0,0.0082
3568.0,0.0083
3567.0,0.0083
3566.0,0.0082
3565.0,0.0082
3564.0,0.0082
3563.0,0.0084
3562.0,0.0085
3561.0,0.0086
3560.0,0.0086
3559.0,0.0086
3558.0,0.0086
3557.0,0.0085
3556.0,0.0084
3555.0,0.0084
3554.0,0.0084
3553.0,0.0085
3552.0,0.0086
3551.0,0.0088
3550.0,0.0088
3549.0,0.0088
3548.0,0.0087
3547.0,0.0086
3546.0,0.0085
3545.0,0.0086
3544.0,0.0086
3543.0,0.0086
3542.0,0.0087
3541.0,0.0088
3540.0,0.0088
3539.0,0.0088
3538.0,0.0088
3537.0,0.0088
3536.0,0.0089
3535.0,0.0089
3534.0,0.009
3533.0,0.0091
3532.0,0.0093
3531.0,0.0095
3530.0,0.0096
3529.0,0.0096
3528.0,0.0096
3527.0,0.0095
3526.0,0.0095
3525.0,0.0094
3524.0,0.0095
3523.0,0.0095
3522.0,0.0095
3521.0,0.0095
3520.0,0.0095
3519.0,0.0096
3518.0,0.0097
3517.0,0.0099
3516.0,0.01
3515.0,0.01
3514.0,0.0101
3513.0,0.0101
3512.0,0.0102
3511.0,0.0102
3510.0,0.0102
3509.0,0.0101
3508.0,0.01
3507.0,0.01
3506.0,0.01
3505.0,0.0101
3504.0,0.0103
3503.0,0.0104
3502.0,0.0104
3501.0,0.0103
3500.0,0.0102
3499.0,0.0102
3498.0,0.0102
3497.0,0.0103
3496.0,0.0104
3495.0,0.0105
3494.0,0.0105
3493.0,0.0106
3492.0,0.0105
3491.0,0.0105
3490.0,0.0104
3489.0,0.0104
3488.0,0.0104
3487.0,0.0104
3486.0,0.0104
3485.0,0.0104
3484.0,0.0105
3483.0,0.0107
3482.0,0.0108
3481.0,0.0109
3480.0,0.011
3479.0,0.011
3478.0,0.011
3477.0,0.011
3476.0,0.0111
3475.0,0.0111
3474.0,0.011
3473.0,0.011
3472.0,0.0111
3471.0,0.0111
3470.0,0.0111
3469.0,0.011
3468.0,0.0109
3467.0,0.0108
3466.0,0.0107
3465.0,0.0106
3464.0,0.0106
3463.0,0.0106
3462.0,0.0107
3461.0,0.0109
3460.0,0.0111
3459.0,0.0112
3458.0,0.0113
3457.0,0.0113
3456.0,0.0112
3455.0,0.0111
3454.0,0.0111
3453.0,0.0112
3452.0,0.0113
3451.0,0.0115
3450.0,0.0116
3449.0,0.0116
3448.0,0.0115
3447.0,0.0113
3446.0,0.0113
3445.0,0.0112
3444.0,0.0113
3443.0,0.0114
3442.0,0.0115
3441.0,0.0116
3440.0,0.0117
3439.0,0.0117
3438.0,0.0117
3437.0,0.0117
3436.0,0.0117
3435.0,0.0118
3434.0,0.0119
3433.0,0.0119
3432.0,0.0119
3431.0,0.0119
3430.0,0.0118
3429.0,0.0118
3428.0,0.0117
3427.0,0.0117
3426.0,0.0117
3425.0,0.0118
3424.0,0.0119
3423.0,0.012
3422.0,0.0121
3421.0,0.0121
3420.0,0.0122
3419.0,0.0122
3418.0,0.0122
3417.0,0.0122
3416.0,0.0122
3415.0,0.0122
3414.0,0.0122
3413.0,0.0122
3412.0,0.0121
3411.0,0.0119
3410.0,0.0118
3409.0,0.0118
3408.0,0.0119
3407.0,0.012
3406.0,0.012
3405.0,0.0119
3404.0,0.0119
3403.0,0.0118
3402.0,0.0118
3401.0,0.0119
3400.0,0.0119
3399.0,0.012
3398.0,0.012
3397.0,0.012
3396.0,0.012
3395.0,0.0119
3394.0,0.0119
3393.0,0.0119
3392.0,0.0119
3391.0,0.0119
3390.0,0.0119
3389.0,0.0118
3388.0,0.0118
3387.0,0.0117
3386.0,0.0118
3385.0,0.0119
3384.0,0.012
3383.0,0.0121
3382.0,0.0122
3381.0,0.0122
3380.0,0.0121
3379.0,0.0121
3378.0,0.012
3377.0,0.0119
3376.0,0.0119
3375.0,0.0119
3374.0,0.0118
3373.0,0.0117
3372.0,0.0116
3371.0,0.0115
3370.0,0.0116
3369.0,0.0117
3368.0,0.0117
3367.0,0.0117
3366.0,0.0116
3365.0,0.0116
3364.0,0.0116
3363.0,0.0115
3362.0,0.0115
3361.0,0.0115
3360.0,0.0115
3359.0,0.0115
3358.0,0.0114
3357.0,0.0113
3356.0,0.0113
3355.0,0.0113
3354.0,0.0114
3353.0,0.0114
3352.0,0.0115
3351.0,0.0114
3350.0,0.0114
3349.0,0.0113
3348.0,0.0113
3347.0,0.0113
3346.0,0.0113
3345.0,0.0114
3344.0,0.0115
3343.0,0.0115
3342.0,0.0114
3341.0,0.0113
3340.0,0.0111
3339.0,0.0111
3338.0,0.0111
3337.0,0.0111
3336.0,0.0111
3335.0,0.0112
3334.0,0.0112
3333.0,0.0113
3332.0,0.0113
3331.0,0.0112
3330.0,0.0112
3329.0,0.0111
3328.0,0.011
3327.0,0.0109
3326.0,0.0109
3325.0,0.0109
3324.0,0.011
3323.0,0.011
3322.0,0.0111
3321.0,0.0111
3320.0,0.011
3319.0,0.0109
3318.0,0.0107
3317.0,0.0106
3316.0,0.0105
3315.0,0.0105
3314.0,0.0105
3313.0,0.0106
3312.0,0.0106
3311.0,0.0107
3310.0,0.0107
3309.0,0.0107
3308.0,0.0107
3307.0,0.0107
3306.0,0.0107
3305.0,0.0106
3304.0,0.0105
3303.0,0.0105
3302.0,0.0106
3301.0,0.0107
3300.0,0.0106
3299.0,0.0105
3298.0,0.0103
3297.0,0.0102
3296.0,0.0102
3295.0,0.0102
3294.0,0.0102
3293.0,0.0102
3292.0,0.0102
3291.0,0.0102
3290.0,0.0102
3289.0,0.0102
3288.0,0.0101
3287.0,0.0101
3286.0,0.0101
3285.0,0.01
3284.0,0.01
3283.0,0.0101
3282.0,0.0101
3281.0,0.0102
3280.0,0.0104
3279.0,0.0105
3278.0,0.0105
3277.0,0.0105
3276.0,0.0104
3275.0,0.0103
3274.0,0.0102
3273.0,0.0102
3272.0,0.0102
3271.0,0.0103
3270.0,0.0103
3269.0,0.0103
3268.0,0.0103
3267.0,0.0102
3266.0,0.0102
3265.0,0.0102
3264.0,0.0102
3263.0,0.0101
3262.0,0.01
3261.0,0.0099
3260.0,0.0098
3259.0,0.0098
3258.0,0.0097
3257.0,0.0097
3256.0,0.0097
3255.0,0.0097
3254.0,0.0097
3253.0,0.0096
3252.0,0.0095
3251.0,0.0095
3250.0,0.0094
3249.0,0.0095
3248.0,0.0096
3247.0,0.0096
3246.0,0.0096
3245.0,0.0096
3244.0,0.0096
3243.0,0.0096
3242.0,0.0096
3241.0,0.0095
3240.0,0.0095
3239.0,0.0095
3238.0,0.0095
3237.0,0.0096
3236.0,0.0097
3235.0,0.0097
3234.0,0.0096
3233.0,0.0096
3232.0,0.0095
3231.0,0.0094
3230.0,0.0093
3229.0,0.0091
3228.0,0.009
3227.0,0.009
3226.0,0.009
3225.0,0.0091
3224.0,0.0092
3223.0,0.0093
3222.0,0.0093
3221.0,0.0092
3220.0,0.0092
3219.0,0.0092
3218.0,0.0092
3217.0,0.0092
3216.0,0.0093
3215.0,0.0093
3214.0,0.0093
3213.0,0.0093
3212.0,0.0092
3211.0,0.0091
3210.0,0.0091
3209.0,0.009
3208.0,0.009
3207.0,0.009
3206.0,0.009
3205.0,0.009
3204.0,0.0089
3203.0,0.0089
3202.0,0.0088
3201.0,0.0088
3200.0,0.0088
3199.0,0.0088
3198.0,0.0089
3197.0,0.0089
3196.0,0.0089
3195.0,0.0088
3194.0,0.0089
3193.0,0.0089
3192.0,0.0089
3191.0,0.0089
3190.0,0.0089
3189.0,0.0089
3188.0,0.0088
3187.0,0.0088
3186.0,0.0087
3185.0,0.0087
3184.0,0.0087
3183.0,0.0086
3182.0,0.0086
3181.0,0.0085
3180.0,0.0085
3179.0,0.0084
3178.0,0.0085
3177.0,0.0086
3176.0,0.0087
3175.0,0.0087
3174.0,0.0087
3173.0,0.0086
3172.0,0.0086
3171.0,0.0086
3170.0,0.0086
3169.0,0.0086
3168.0,0.0085
3167.0,0.0084
3166.0,0.0083
3165.0,0.0081
3164.0,0.008
3163.0,0.0079
3162.0,0.0078
3161.0,0.0079
3160.0,0.0079
3159.0,0.008
3158.0,0.008
3157.0,0.008
3156.0,0.008
3155.0,0.008
3154.0,0.008
3153.0,0.008
3152.0,0.0079
3151.0,0.0078
3150.0,0.0078
3149.0,0.0078
3148.0,0.0078
3147.0,0.0078
3146.0,0.0077
3145.0,0.0077
3144.0,0.0077
3143.0,0.0078
3142.0,0.0078
3141.0,0.0077
3140.0,0.0076
3139.0,0.0075
3138.0,0.0075
3137.0,0.0076
3136.0,0.0076
3135.0,0.0076
3134.0,0.0076
3133.0,0.0075
3132.0,0.0074
3131.0,0.0074
3130.0,0.0074
3129.0,0.0075
3128.0,0.0076
3127.0,0.0075
3126.0,0.0074
3125.0,0.0073
3124.0,0.0072
3123.0,0.0072
3122.0,0.0071
3121.0,0.0071
3120.0,0.007
3119.0,0.0069
3118.0,0.0069
3117.0,0.0069
3116.0,0.007
3115.0,0.007
3114.0,0.007
3113.0,0.007
3112.0,0.0069
3111.0,0.0068
3110.0,0.0067
3109.0,0.0066
3108.0,0.0067
3107.0,0.0067
3106.0,0.0067
3105.0,0.0067
3104.0,0.0067
3103.0,0.0066
3102.0,0.0065
3101.0,0.0065
3100.0,0.0065
3099.0,0.0066
3098.0,0.0066
3097.0,0.0065
3096.0,0.0064
3095.0,0.0064
3094.0,0.0064
3093.0,0.0064
3092.0,0.0065
3091.0,0.0064
3090.0,0.0063
3089.0,0.0062
3088.0,0.0062
3087.0,0.0062
3086.0,0.0062
3085.0,0.0062
3084.0,0.0061
3083.0,0.006
3082.0,0.0059
3081.0,0.0059
3080.0,0.0059
3079.0,0.0059
3078.0,0.006
3077.0,0.006
3076.0,0.006
3075.0,0.006
3074.0,0.0059
3073.0,0.0059
3072.0,0.0058
3071.0,0.0057
3070.0,0.0057
3069.0,0.0056
3068.0,0.0055
3067.0,0.0054
3066.0,0.0054
3065.0,0.0053
3064.0,0.0053
3063.0,0.0053
3062.0,0.0053
3061.0,0.0053
3060.0,0.0053
3059.0,0.0053
3058.0,0.0053
3057.0,0.0053
3056.0,0.0053
3055.0,0.0053
3054.0,0.0052
3053.0,0.0051
3052.0,0.0051
3051.0,0.0051
3050.0,0.0052
3049.0,0.0052
3048.0,0.0051
3047.0,0.005
3046.0,0.0049
3045.0,0.0049
3044.0,0.0049
3043.0,0.0049
3042.0,0.0049
3041.0,0.0049
3040.0,0.0048
3039.0,0.0047
3038.0,0.0046
3037.0,0.0045
3036.0,0.0045
3035.0,0.0045
3034.0,0.0045
3033.0,0.0045
3032.0,0.0045
3031.0,0.0044
3030.0,0.0044
3029.0,0.0043
3028.0,0.0043
3027.0,0.0042
3026.0,0.0042
3025.0,0.0042
3024.0,0.0041
3023.0,0.004
3022.0,0.004
3021.0,0.004
3020.0,0.004
3019.0,0.004
3018.0,0.0041
3017.0,0.0041
3016.0,0.0041
3015.0,0.0041
3014.0,0.004
3013.0,0.0039
3012.0,0.0038
3011.0,0.0036
3010.0,0.0036
3009.0,0.0036
3008.0,0.0036
3007.0,0.0037
3006.0,0.0038
3005.0,0.0039
3004.0,0.0039
3003.0,0.0039
3002.0,0.0039
3001.0,0.0039
3000.0,0.004
2999.0,0.0041
2998.0,0.0043
2997.0,0.0044
2996.0,0.0045
2995.0,0.0046
2994.0,0.0047
2993.0,0.0049
2992.0,0.0051
2991.0,0.0054
2990.0,0.0058
2989.0,0.0062
2988.0,0.0066
2987.0,0.007
2986.0,0.0075
2985.0,0.0081
2984.0,0.0087
2983.0,0.0095
2982.0,0.0105
2981.0,0.0116
2980.0,0.0129
2979.0,0.0143
2978.0,0.016
2977.0,0.018
2976.0,0.0202
2975.0,0.0227
2974.0,0.0256
2973.0,0.0289
2972.0,0.0326
2971.0,0.0369
2970.0,0.0417
2969.0,0.047
2968.0,0.0527
2967.0,0.0588
2966.0,0.0651
2965.0,0.0715
2964.0,0.0777
2963.0,0.0833
2962.0,0.0879
2961.0,0.0914
2960.0,0.0939
2959.0,0.0956
2958.0,0.0971
2957.0,0.0987
2956.0,0.1009
2955.0,0.1037
2954.0,0.1071
2953.0,0.1106
2952.0,0.1136
2951.0,0.1154
2950.0,0.1153
2949.0,0.113
2948.0,0.1086
2947.0,0.1023
2946.0,0.0949
2945.0,0.0871
2944.0,0.0796
2943.0,0.073
2942.0,0.0677
2941.0,0.0638
2940.0,0.0612
2939.0,0.0599
2938.0,0.0597
2937.0,0.0606
2936.0,0.0625
2935.0,0.0653
2934.0,0.0689
2933.0,0.0732
2932.0,0.078
2931.0,0.0832
2930.0,0.0886
2929.0,0.0942
2928.0,0.0997
2927.0,0.1052
2926.0,0.1103
2925.0,0.1153
2924.0,0.12
2923.0,0.1246
2922.0,0.1292
2921.0,0.1336
2920.0,0.1373
2919.0,0.1397
2918.0,0.1406
2917.0,0.1397
2916.0,0.1372
2915.0,0.1336
2914.0,0.1296
2913.0,0.1255
2912.0,0.1217
2911.0,0.1183
2910.0,0.1154
2909.0,0.1128
2908.0,0.1103
2907.0,0.1076
2906.0,0.1048
2905.0,0.1017
2904.0,0.0984
2903.0,0.0951
2902.0,0.0918
2901.0,0.0885
2900.0,0.0853
2899.0,0.0822
2898.0,0.0794
2897.0,0.0768
2896.0,0.0745
2895.0,0.0725
2894.0,0.0709
2893.0,0.0696
2892.0,0.0686
2891.0,0.068
2890.0,0.0676
2889.0,0.0675
2888.0,0.0675
2887.0,0.0676
2886.0,0.068
2885.0,0.0686
2884.0,0.0694
2883.0,0.0705
2882.0,0.0717
2881.0,0.0731
2880.0,0.0743
2879.0,0.0752
2878.0,0.0757
2877.0,0.0758
2876.0,0.0756
2875.0,0.0752
2874.0,0.0751
2873.0,0.0753
2872.0,0.0759
2871.0,0.0768
2870.0,0.0779
2869.0,0.0788
2868.0,0.0792
2867.0,0.0787
2866.0,0.0769
2865.0,0.0737
2864.0,0.0693
2863.0,0.0644
2862.0,0.0594
2861.0,0.0548
2860.0,0.0508
2859.0,0.0476
2858.0,0.0451
2857.0,0.0432
2856.0,0.042
2855.0,0.0413
2854.0,0.0411
2853.0,0.0412
2852.0,0.0418
2851.0,0.0426
2850.0,0.0439
2849.0,0.0456
2848.0,0.0479
2847.0,0.0506
2846.0,0.0539
2845.0,0.0577
2844.0,0.0619
2843.0,0.0663
2842.0,0.0706
2841.0,0.0745
2840.0,0.0776
2839.0,0.0795
2838.0,0.0799
2837.0,0.0786
2836.0,0.0756
2835.0,0.0713
2834.0,0.0662
2833.0,0.0608
2832.0,0.0557
2831.0,0.0511
2830.0,0.0472
2829.0,0.044
2828.0,0.0414
2827.0,0.0393
2826.0,0.0376
2825.0,0.0362
2824.0,0.0349
2823.0,0.0338
2822.0,0.0328
2821.0,0.0319
2820.0,0.031
2819.0,0.0302
2818.0,0.0295
2817.0,0.029
2816.0,0.0285
2815.0,0.0281
2814.0,0.0277
2813.0,0.0273
2812.0,0.027
2811.0,0.0266
2810.0,0.0262
2809.0,0.0258
2808.0,0.0254
2807.0,0.0251
2806.0,0.0247
2805.0,0.0243
2804.0,0.0239
2803.0,0.0235
2802.0,0.0231
2801.0,0.0228
2800.0,0.0224
2799.0,0.0221
2798.0,0.0219
2797.0,0.0217
2796.0,0.0215
2795.0,0.0213
2794.0,0.0211
2793.0,0.0209
2792.0,0.0207
2791.0,0.0204
2790.0,0.0202
2789.0,0.0199
2788.0,0.0196
2787.0,0.0193
2786.0,0.0191
2785.0,0.0189
2784.0,0.0187
2783.0,0.0186
2782.0,0.0184
2781.0,0.0182
2780.0,0.0181
2779.0,0.0181
2778.0,0.018
2777.0,0.018
2776.0,0.0178
2775.0,0.0177
2774.0,0.0175
2773.0,0.0173
2772.0,0.0172
2771.0,0.0172
2770.0,0.0172
2769.0,0.0171
2768.0,0.017
2767.0,0.0169
2766.0,0.0168
2765.0,0.0166
2764.0,0.0166
2763.0,0.0165
2762.0,0.0165
2761.0,0.0165
2760.0,0.0165
2759.0,0.0165
2758.0,0.0164
2757.0,0.0163
2756.0,0.0162
2755.0,0.0161
2754.0,0.0159
2753.0,0.0158
2752.0,0.0158
2751.0,0.0157
2750.0,0.0157
2749.0,0.0157
2748.0,0.0157
2747.0,0.0156
2746.0,0.0156
2745.0,0.0157
2744.0,0.0157
2743.0,0.0158
2742.0,0.0158
2741.0,0.0159
2740.0,0.016
2739.0,0.0161
2738.0,0.0161
2737.0,0.0161
2736.0,0.0162
2735.0,0.0163
2734.0,0.0164
2733.0,0.0164
2732.0,0.0165
2731.0,0.0165
2730.0,0.0166
2729.0,0.0168
2728.0,0.017
2727.0,0.0172
2726.0,0.0174
2725.0,0.0175
2724.0,0.0176
2723.0,0.0176
2722.0,0.0176
2721.0,0.0175
2720.0,0.0173
2719.0,0.0171
2718.0,0.0169
2717.0,0.0167
2716.0,0.0165
2715.0,0.0163
2714.0,0.0162
2713.0,0.016
2712.0,0.0159
2711.0,0.0158
2710.0,0.0157
2709.0,0.0156
2708.0,0.0155
2707.0,0.0155
2706.0,0.0154
2705.0,0.0154
2704.0,0.0152
2703.0,0.015
2702.0,0.0149
2701.0,0.0147
2700.0,0.0147
2699.0,0.0147
2698.0,0.0146
2697.0,0.0146
2696.0,0.0145
2695.0,0.0145
2694.0,0.0146
2693.0,0.0146
2692.0,0.0147
2691.0,0.0147
2690.0,0.0147
2689.0,0.0146
2688.0,0.0146
2687.0,0.0145
2686.0,0.0145
2685.0,0.0144
2684.0,0.0144
2683.0,0.0143
2682.0,0.0142
2681.0,0.0143
2680.0,0.0143
2679.0,0.0143
2678.0,0.0142
2677.0,0.0142
2676.0,0.0142
2675.0,0.0141
2674.0,0.0142
2673.0,0.0142
2672.0,0.0143
2671.0,0.0143
2670.0,0.0143
2669.0,0.0142
2668.0,0.0141
2667.0,0.0141
2666.0,0.0141
2665.0,0.0141
2664.0,0.0141
2663.0,0.0142
2662.0,0.0142
2661.0,0.0142
2660.0,0.0142
2659.0,0.0142
2658.0,0.0142
2657.0,0.0141
2656.0,0.0141
2655.0,0.0141
2654.0,0.014
2653.0,0.0138
2652.0,0.0137
2651.0,0.0136
2650.0,0.0136
2649.0,0.0136
2648.0,0.0136
2647.0,0.0137
2646.0,0.0137
2645.0,0.0137
2644.0,0.0137
2643.0,0.0136
2642.0,0.0135
2641.0,0.0135
2640.0,0.0134
2639.0,0.0135
2638.0,0.0135
2637.0,0.0135
2636.0,0.0135
2635.0,0.0134
2634.0,0.0134
2633.0,0.0133
2632.0,0.0133
2631.0,0.0132
2630.0,0.0132
2629.0,0.0131
2628.0,0.0132
2627.0,0.0132
2626.0,0.0133
2625.0,0.0134
2624.0,0.0134
2623.0,0.0134
2622.0,0.0134
2621.0,0.0135
2620.0,0.0135
2619.0,0.0134
2618.0,0.0134
2617.0,0.0133
2616.0,0.0133
2615.0,0.0133
2614.0,0.0132
2613.0,0.0132
2612.0,0.0132
2611.0,0.0132
2610.0,0.0131
2609.0,0.0131
2608.0,0.013
2607.0,0.0131
2606.0,0.0131
2605.0,0.0132
2604.0,0.0132
2603.0,0.0132
2602.0,0.0132
2601.0,0.0131
2600.0,0.013
2599.0,0.013
2598.0,0.0129
2597.0,0.0129
2596.0,0.013
2595.0,0.013
2594.0,0.013
2593.0,0.013
2592.0,0.013
2591.0,0.013
2590.0,0.0131
2589.0,0.0131
2588.0,0.0132
2587.0,0.0133
2586.0,0.0133
2585.0,0.0134
2584.0,0.0135
2583.0,0.0135
2582.0,0.0135
2581.0,0.0135
2580.0,0.0134
2579.0,0.0134
2578.0,0.0133
2577.0,0.0133
2576.0,0.0133
2575.0,0.0132
2574.0,0.0131
2573.0,0.013
2572.0,0.0129
2571.0,0.0128
2570.0,0.0127
2569.0,0.0126
2568.0,0.0126
2567.0,0.0126
2566.0,0.0126
2565.0,0.0126
2564.0,0.0126
2563.0,0.0125
2562.0,0.0125
2561.0,0.0125
2560.0,0.0125
2559.0,0.0125
2558.0,0.0125
2557.0,0.0125
2556.0,0.0125
2555.0,0.0126
2554.0,0.0126
2553.0,0.0126
2552.0,0.0125
2551.0,0.0125
2550.0,0.0124
2549.0,0.0124
2548.0,0.0123
2547.0,0.0123
2546.0,0.0123
2545.0,0.0123
2544.0,0.0123
2543.0,0.0123
2542.0,0.0123
2541.0,0.0123
2540.0,0.0122
2539.0,0.0122
2538.0,0.0121
2537.0,0.0121
2536.0,0.0122
2535.0,0.0122
2534.0,0.0121
2533.0,0.0121
2532.0,0.012
2531.0,0.012
2530.0,0.012
2529.0,0.012
2528.0,0.012
2527.0,0.012
2526.0,0.0119
2525.0,0.012
2524.0,0.012
2523.0,0.012
2522.0,0.0119
2521.0,0.0118
2520.0,0.0118
2519.0,0.0117
2518.0,0.0117
2517.0,0.0117
2516.0,0.0118
2515.0,0.0117
2514.0,0.0117
2513.0,0.0117
2512.0,0.0117
2511.0,0.0117
2510.0,0.0117
2509.0,0.0118
2508.0,0.0118
2507.0,0.0117
2506.0,0.0116
2505.0,0.0116
2504.0,0.0116
2503.0,0.0117
2502.0,0.0117
2501.0,0.0117
2500.0,0.0116
2499.0,0.0116
2498.0,0.0116
2497.0,0.0117
2496.0,0.0117
2495.0,0.0117
2494.0,0.0117
2493.0,0.0117
2492.0,0.0116
2491.0,0.0116
2490.0,0.0116
2489.0,0.0116
2488.0,0.0117
2487.0,0.0117
2486.0,0.0117
2485.0,0.0117
2484.0,0.0116
2483.0,0.0116
2482.0,0.0116
2481.0,0.0116
2480.0,0.0116
2479.0,0.0115
2478.0,0.0115
2477.0,0.0115
2476.0,0.0115
2475.0,0.0115
2474.0,0.0115
2473.0,0.0115
2472.0,0.0115
2471.0,0.0115
2470.0,0.0115
2469.0,0.0116
2468.0,0.0116
2467.0,0.0115
2466.0,0.0115
2465.0,0.0115
2464.0,0.0115
2463.0,0.0115
2462.0,0.0115
2461.0,0.0115
2460.0,0.0115
2459.0,0.0115
2458.0,0.0115
2457.0,0.0114
2456.0,0.0114
2455.0,0.0113
2454.0,0.0113
2453.0,0.0113
2452.0,0.0114
2451.0,0.0113
2450.0,0.0113
2449.0,0.0112
2448.0,0.0112
2447.0,0.0113
2446.0,0.0114
2445.0,0.0115
2444.0,0.0116
2443.0,0.0116
2442.0,0.0116
2441.0,0.0115
2440.0,0.0114
2439.0,0.0114
2438.0,0.0114
2437.0,0.0114
2436.0,0.0114
2435.0,0.0114
2434.0,0.0115
2433.0,0.0116
2432.0,0.0117
2431.0,0.0118
2430.0,0.0118
2429.0,0.0118
2428.0,0.0117
2427.0,0.0117
2426.0,0.0116
2425.0,0.0116
2424.0,0.0116
2423.0,0.0116
2422.0,0.0116
2421.0,0.0116
2420.0,0.0116
2419.0,0.0116
2418.0,0.0116
2417.0,0.0116
2416.0,0.0116
2415.0,0.0116
2414.0,0.0115
2413.0,0.0115
2412.0,0.0115
2411.0,0.0116
2410.0,0.0117
2409.0,0.0117
2408.0,0.0118
2407.0,0.0118
2406.0,0.0117
2405.0,0.0117
2404.0,0.0117
2403.0,0.0117
2402.0,0.0117
2401.0,0.0117
2400.0,0.0118
2399.0,0.0118
2398.0,0.0119
2397.0,0.0118
2396.0,0.0118
2395.0,0.0117
2394.0,0.0117
2393.0,0.0116
2392.0,0.0117
2391.0,0.0117
2390.0,0.0118
2389.0,0.0119
2388.0,0.012
2387.0,0.0121
2386.0,0.0122
2385.0,0.0123
2384.0,0.0123
2383.0,0.0123
2382.0,0.0122
2381.0,0.0118
2380.0,0.0114
2379.0,0.011
2378.0,0.0107
2377.0,0.0106
2376.0,0.0106
2375.0,0.0108
2374.0,0.0112
2373.0,0.0115
2372.0,0.0119
2371.0,0.0121
2370.0,0.0122
2369.0,0.0122
2368.0,0.0119
2367.0,0.0114
2366.0,0.011
2365.0,0.0109
2364.0,0.0113
2363.0,0.0121
2362.0,0.0125
2361.0,0.0123
2360.0,0.0117
2359.0,0.0114
2358.0,0.0113
2357.0,0.0111
2356.0,0.0108
2355.0,0.0105
2354.0,0.0104
2353.0,0.0104
2352.0,0.0108
2351.0,0.0119
2350.0,0.013
2349.0,0.0134
2348.0,0.0127
2347.0,0.0115
2346.0,0.0108
2345.0,0.0111
2344.0,0.0118
2343.0,0.012
2342.0,0.0115
2341.0,0.0108
2340.0,0.0103
2339.0,0.0102
2338.0,0.0102
2337.0,0.01
2336.0,0.0098
2335.0,0.0096
2334.0,0.0095
2333.0,0.0094
2332.0,0.0094
2331.0,0.0096
2330.0,0.01
2329.0,0.0105
2328.0,0.0109
2327.0,0.011
2326.0,0.0109
2325.0,0.0106
2324.0,0.0103
2323.0,0.0101
2322.0,0.0101
2321.0,0.0102
2320.0,0.0105
2319.0,0.0109
2318.0,0.0113
2317.0,0.0116
2316.0,0.0116
2315.0,0.0114
2314.0,0.0112
2313.0,0.0112
2312.0,0.0112
2311.0,0.0114
2310.0,0.0116
2309.0,0.0117
2308.0,0.0116
2307.0,0.0115
2306.0,0.0115
2305.0,0.0116
2304.0,0.0118
2303.0,0.012
2302.0,0.0122
2301.0,0.0124
2300.0,0.0125
2299.0,0.0125
2298.0,0.0126
2297.0,0.0126
2296.0,0.0126
2295.0,0.0126
2294.0,0.0125
2293.0,0.0124
2292.0,0.0123
2291.0,0.0123
2290.0,0.0123
2289.0,0.0122
2288.0,0.0121
2287.0,0.012
2286.0,0.0119
2285.0,0.0118
2284.0,0.0118
2283.0,0.0118
2282.0,0.0118
2281.0,0.0118
2280.0,0.0118
2279.0,0.0117
2278.0,0.0117
2277.0,0.0117
2276.0,0.0117
2275.0,0.0118
2274.0,0.0118
2273.0,0.0118
2272.0,0.0118
2271.0,0.0118
2270.0,0.0119
2269.0,0.0119
2268.0,0.0119
2267.0,0.0119
2266.0,0.0119
2265.0,0.0119
2264.0,0.0119
2263.0,0.0119
2262.0,0.0118
2261.0,0.0118
2260.0,0.0118
2259.0,0.0119
2258.0,0.0119
2257.0,0.012
2256.0,0.012
2255.0,0.012
2254.0,0.012
2253.0,0.0119
2252.0,0.0118
2251.0,0.0118
2250.0,0.0117
2249.0,0.0117
2248.0,0.0117
2247.0,0.0117
2246.0,0.0117
2245.0,0.0117
2244.0,0.0117
2243.0,0.0117
2242.0,0.0118
2241.0,0.0118
2240.0,0.0118
2239.0,0.0118
2238.0,0.0118
2237.0,0.0118
2236.0,0.0118
2235.0,0.0118
2234.0,0.0118
2233.0,0.0118
2232.0,0.0118
2231.0,0.0118
2230.0,0.0118
2229.0,0.0118
2228.0,0.0118
2227.0,0.0118
2226.0,0.0118
2225.0,0.0117
2224.0,0.0117
2223.0,0.0117
2222.0,0.0117
2221.0,0.0117
2220.0,0.0118
2219.0,0.0119
2218.0,0.0119
2217.0,0.0119
2216.0,0.0118
2215.0,0.0118
2214.0,0.0118
2213.0,0.0118
2212.0,0.0118
2211.0,0.0117
2210.0,0.0117
2209.0,0.0116
2208.0,0.0117
2207.0,0.0117
2206.0,0.0118
2205.0,0.0118
2204.0,0.0119
2203.0,0.0119
2202.0,0.0119
2201.0,0.0118
2200.0,0.0118
2199.0,0.0118
2198.0,0.0118
2197.0,0.0118
2196.0,0.0119
2195.0,0.0119
2194.0,0.012
2193.0,0.012
2192.0,0.012
2191.0,0.012
2190.0,0.012
2189.0,0.0119
2188.0,0.0119
2187.0,0.0118
2186.0,0.0118
2185.0,0.0118
2184.0,0.0119
2183.0,0.012
2182.0,0.012
2181.0,0.012
2180.0,0.0119
2179.0,0.0119
2178.0,0.0119
2177.0,0.0119
2176.0,0.012
2175.0,0.012
2174.0,0.0121
2173.0,0.0121
2172.0,0.0121
2171.0,0.0121
2170.0,0.012
2169.0,0.012
2168.0,0.012
2167.0,0.012
2166.0,0.012
2165.0,0.0121
2164.0,0.0121
2163.0,0.012
2162.0,0.012
2161.0,0.012
2160.0,0.012
2159.0,0.012
2158.0,0.0121
2157.0,0.0121
2156.0,0.012
2155.0,0.012
2154.0,0.012
2153.0,0.012
2152.0,0.012
2151.0,0.012
2150.0,0.012
2149.0,0.012
2148.0,0.012
2147.0,0.012
2146.0,0.012
2145.0,0.012
2144.0,0.0119
2143.0,0.0119
2142.0,0.0119
2141.0,0.0119
2140.0,0.012
2139.0,0.012
2138.0,0.012
2137.0,0.012
2136.0,0.0121
2135.0,0.0121
2134.0,0.0121
2133.0,0.0122
2132.0,0.0122
2131.0,0.0122
2130.0,0.0122
2129.0,0.0122
2128.0,0.0122
2127.0,0.0122
2126.0,0.0122
2125.0,0.0121
2124.0,0.0121
2123.0,0.012
2122.0,0.012
2121.0,0.0121
2120.0,0.0121
2119.0,0.012
2118.0,0.0119
2117.0,0.0119
2116.0,0.0119
2115.0,0.012
2114.0,0.012
2113.0,0.0121
2112.0,0.0122
2111.0,0.0122
2110.0,0.0121
2109.0,0.012
2108.0,0.012
2107.0,0.0119
2106.0,0.0119
2105.0,0.012
2104.0,0.012
2103.0,0.012
2102.0,0.012
2101.0,0.0119
2100.0,0.0118
2099.0,0.0118
2098.0,0.0119
2097.0,0.0119
2096.0,0.0119
2095.0,0.012
2094.0,0.012
2093.0,0.012
2092.0,0.012
2091.0,0.012
2090.0,0.012
2089.0,0.012
2088.0,0.012
2087.0,0.012
2086.0,0.0119
2085.0,0.0119
2084.0,0.012
2083.0,0.012
2082.0,0.0121
2081.0,0.0121
2080.0,0.0121
2079.0,0.0121
2078.0,0.0121
2077.0,0.012
2076.0,0.012
2075.0,0.012
2074.0,0.012
2073.0,0.0121
2072.0,0.0121
2071.0,0.0121
2070.0,0.012
2069.0,0.012
2068.0,0.012
2067.0,0.012
2066.0,0.0121
2065.0,0.0121
2064.0,0.0121
2063.0,0.0121
2062.0,0.012
2061.0,0.012
2060.0,0.012
2059.0,0.012
2058.0,0.0121
2057.0,0.0121
2056.0,0.0121
2055.0,0.0121
2054.0,0.0121
2053.0,0.0122
2052.0,0.0122
2051.0,0.0121
2050.0,0.0121
2049.0,0.0121
2048.0,0.0121
2047.0,0.0122
2046.0,0.0122
2045.0,0.0122
2044.0,0.0123
2043.0,0.0123
2042.0,0.0122
2041.0,0.0122
2040.0,0.0121
2039.0,0.0121
2038.0,0.012
2037.0,0.012
2036.0,0.0121
2035.0,0.0121
2034.0,0.0122
2033.0,0.0122
2032.0,0.0122
2031.0,0.0122
2030.0,0.0122
2029.0,0.0122
2028.0,0.0122
2027.0,0.0123
2026.0,0.0123
2025.0,0.0123
2024.0,0.0123
2023.0,0.0123
2022.0,0.0123
2021.0,0.0123
2020.0,0.0123
2019.0,0.0123
2018.0,0.0124
2017.0,0.0124
2016.0,0.0124
2015.0,0.0124
2014.0,0.0124
2013.0,0.0124
2012.0,0.0124
2011.0,0.0124
2010.0,0.0124
2009.0,0.0124
2008.0,0.0124
2007.0,0.0124
2006.0,0.0124
2005.0,0.0125
2004.0,0.0125
2003.0,0.0125
2002.0,0.0125
2001.0,0.0124
2000.0,0.0124
1999.0,0.0124
1998.0,0.0124
1997.0,0.0125
1996.0,0.0125
1995.0,0.0125
1994.0,0.0125
1993.0,0.0125
1992.0,0.0125
1991.0,0.0125
1990.0,0.0125
1989.0,0.0125
1988.0,0.0125
1987.0,0.0125
1986.0,0.0125
1985.0,0.0125
1984.0,0.0125
1983.0,0.0125
1982.0,0.0125
1981.0,0.0125
1980.0,0.0124
1979.0,0.0124
1978.0,0.0124
1977.0,0.0124
1976.0,0.0124
1975.0,0.0124
1974.0,0.0124
1973.0,0.0125
1972.0,0.0126
1971.0,0.0126
1970.0,0.0126
1969.0,0.0126
1968.0,0.0126
1967.0,0.0126
1966.0,0.0125
1965.0,0.0125
1964.0,0.0126
1963.0,0.0126
1962.0,0.0127
1961.0,0.0127
1960.0,0.0127
1959.0,0.0126
1958.0,0.0125
1957.0,0.0125
1956.0,0.0126
1955.0,0.0126
1954.0,0.0127
1953.0,0.0128
1952.0,0.0128
1951.0,0.0129
1950.0,0.0129
1949.0,0.0129
1948.0,0.0129
1947.0,0.0128
1946.0,0.0128
1945.0,0.0127
1944.0,0.0127
1943.0,0.0127
1942.0,0.0127
1941.0,0.0127
1940.0,0.0128
1939.0,0.0128
1938.0,0.0128
1937.0,0.0128
1936.0,0.0128
1935.0,0.0128
1934.0,0.0128
1933.0,0.0128
1932.0,0.0128
1931.0,0.0128
1930.0,0.0128
1929.0,0.0128
1928.0,0.0129
1927.0,0.0129
1926.0,0.0129
1925.0,0.0129
1924.0,0.0129
1923.0,0.013
1922.0,0.013
1921.0,0.0131
1920.0,0.0131
1919.0,0.0131
1918.0,0.0131
1917.0,0.013
1916.0,0.013
1915.0,0.013
1914.0,0.013
1913.0,0.0131
1912.0,0.0131
1911.0,0.0131
1910.0,0.0131
1909.0,0.0131
1908.0,0.013
1907.0,0.013
1906.0,0.0131
1905.0,0.0131
1904.0,0.0131
1903.0,0.0131
1902.0,0.0131
1901.0,0.013
1900.0,0.013
1899.0,0.013
1898.0,0.0131
1897.0,0.0132
1896.0,0.0133
1895.0,0.0133
1894.0,0.0133
1893.0,0.0132
1892.0,0.0132
1891.0,0.0132
1890.0,0.0132
1889.0,0.0132
1888.0,0.0132
1887.0,0.0132
1886.0,0.0132
1885.0,0.0132
1884.0,0.0132
1883.0,0.0132
1882.0,0.0132
1881.0,0.0132
1880.0,0.0132
1879.0,0.0132
1878.0,0.0132
1877.0,0.0133
1876.0,0.0133
1875.0,0.0133
1874.0,0.0133
1873.0,0.0133
1872.0,0.0133
1871.0,0.0132
1870.0,0.0132
1869.0,0.0132
1868.0,0.0132
1867.0,0.0132
1866.0,0.0133
1865.0,0.0133
1864.0,0.0133
1863.0,0.0133
1862.0,0.0133
1861.0,0.0134
1860.0,0.0134
1859.0,0.0134
1858.0,0.0134
1857.0,0.0135
1856.0,0.0135
1855.0,0.0135
1854.0,0.0134
1853.0,0.0134
1852.0,0.0134
1851.0,0.0134
1850.0,0.0134
1849.0,0.0134
1848.0,0.0135
1847.0,0.0136
1846.0,0.0136
1845.0,0.0136
1844.0,0.0135
1843.0,0.0135
1842.0,0.0135
1841.0,0.0136
1840.0,0.0136
1839.0,0.0136
1838.0,0.0135
1837.0,0.0136
1836.0,0.0136
1835.0,0.0136
1834.0,0.0136
1833.0,0.0136
1832.0,0.0136
1831.0,0.0135
1830.0,0.0134
1829.0,0.0134
1828.0,0.0135
1827.0,0.0135
1826.0,0.0135
1825.0,0.0135
1824.0,0.0135
1823.0,0.0136
1822.0,0.0136
1821.0,0.0136
1820.0,0.0136
1819.0,0.0136
1818.0,0.0136
1817.0,0.0136
1816.0,0.0137
1815.0,0.0136
1814.0,0.0136
1813.0,0.0136
1812.0,0.0136
1811.0,0.0136
1810.0,0.0136
1809.0,0.0136
1808.0,0.0137
1807.0,0.0137
1806.0,0.0137
1805.0,0.0137
1804.0,0.0138
1803.0,0.0139
1802.0,0.0139
1801.0,0.0138
1800.0,0.0138
1799.0,0.0138
1798.0,0.0137
1797.0,0.0138
1796.0,0.0138
1795.0,0.0138
1794.0,0.0138
1793.0,0.0138
1792.0,0.0138
1791.0,0.0138
1790.0,0.0138
1789.0,0.0139
1788.0,0.0139
1787.0,0.0139
1786.0,0.0139
1785.0,0.0139
1784.0,0.0139
1783.0,0.0139
1782.0,0.0139
1781.0,0.0139
1780.0,0.0139
1779.0,0.0139
1778.0,0.0139
1777.0,0.0139
1776.0,0.0139
1775.0,0.0139
1774.0,0.0139
1773.0,0.0139
1772.0,0.0139
1771.0,0.014
1770.0,0.014
1769.0,0.014
1768.0,0.0141
1767.0,0.0141
1766.0,0.0141
1765.0,0.0141
1764.0,0.0142
1763.0,0.0142
1762.0,0.0142
1761.0,0.0143
1760.0,0.0143
1759.0,0.0144
1758.0,0.0145
1757.0,0.0146
1756.0,0.0147
1755.0,0.0148
1754.0,0.0149
1753.0,0.0149
1752.0,0.015
1751.0,0.0151
1750.0,0.0152
1749.0,0.0153
1748.0,0.0154
1747.0,0.0154
1746.0,0.0153
1745.0,0.0153
1744.0,0.0153
1743.0,0.0154
1742.0,0.0154
1741.0,0.0155
1740.0,0.0154
1739.0,0.0154
1738.0,0.0154
1737.0,0.0155
1736.0,0.0155
1735.0,0.0155
1734.0,0.0154
1733.0,0.0152
1732.0,0.0152
1731.0,0.0152
1730.0,0.0153
1729.0,0.0153
1728.0,0.0153
1727.0,0.0152
1726.0,0.0151
1725.0,0.0151
1724.0,0.0151
1723.0,0.0151
1722.0,0.0152
1721.0,0.0152
1720.0,0.0153
1719.0,0.0152
1718.0,0.0152
1717.0,0.0152
1716.0,0.0153
1715.0,0.0153
1714.0,0.0154
1713.0,0.0154
1712.0,0.0155
1711.0,0.0155
1710.0,0.0155
1709.0,0.0155
1708.0,0.0155
1707.0,0.0155
1706.0,0.0156
1705.0,0.0157
1704.0,0.0158
1703.0,0.0159
1702.0,0.016
1701.0,0.016
1700.0,0.0159
1699.0,0.0159
1698.0,0.016
1697.0,0.0161
1696.0,0.0161
1695.0,0.016
1694.0,0.016
1693.0,0.0161
1692.0,0.0161
1691.0,0.0161
1690.0,0.0161
1689.0,0.0162
1688.0,0.0163
1687.0,0.0164
1686.0,0.0164
1685.0,0.0166
1684.0,0.0169
1683.0,0.0168
1682.0,0.0168
1681.0,0.0168
1680.0,0.0168
1679.0,0.0168
1678.0,0.0168
1677.0,0.0168
1676.0,0.0169
1675.0,0.017
1674.0,0.0171
1673.0,0.0171
1672.0,0.0171
1671.0,0.0171
1670.0,0.0171
1669.0,0.0172
1668.0,0.0173
1667.0,0.0173
1666.0,0.0174
1665.0,0.0174
1664.0,0.0174
1663.0,0.0174
1662.0,0.0175
1661.0,0.0176
1660.0,0.0176
1659.0,0.0176
1658.0,0.0176
1657.0,0.0176
1656.0,0.0176
1655.0,0.0176
1654.0,0.0177
1653.0,0.0179
1652.0,0.0176
1651.0,0.0175
1650.0,0.0175
1649.0,0.0175
1648.0,0.0176
1647.0,0.018
1646.0,0.0181
1645.0,0.0181
1644.0,0.0181
1643.0,0.018
1642.0,0.0179
1641.0,0.0178
1640.0,0.0176
1639.0,0.0175
1638.0,0.0174
1637.0,0.0175
1636.0,0.0177
1635.0,0.0178
1634.0,0.0177
1633.0,0.0177
1632.0,0.0177
1631.0,0.0177
1630.0,0.0176
1629.0,0.0176
1628.0,0.0175
1627.0,0.0175
1626.0,0.0174
1625.0,0.0174
1624.0,0.0173
1623.0,0.0173
1622.0,0.0172
1621.0,0.0172
1620.0,0.0172
1619.0,0.0172
1618.0,0.0172
1617.0,0.0172
1616.0,0.0172
1615.0,0.0172
1614.0,0.0172
1613.0,0.0172
1612.0,0.0171
1611.0,0.017
1610.0,0.017
1609.0,0.0169
1608.0,0.017
1607.0,0.017
1606.0,0.0169
1605.0,0.0169
1604.0,0.0168
1603.0,0.0168
1602.0,0.0168
1601.0,0.0168
1600.0,0.0168
1599.0,0.0168
1598.0,0.0167
1597.0,0.0167
1596.0,0.0166
1595.0,0.0167
1594.0,0.0167
1593.0,0.0167
1592.0,0.0167
1591.0,0.0167
1590.0,0.0167
1589.0,0.0166
1588.0,0.0166
1587.0,0.0166
1586.0,0.0166
1585.0,0.0166
1584.0,0.0165
1583.0,0.0166
1582.0,0.0166
1581.0,0.0166
1580.0,0.0167
1579.0,0.0167
1578.0,0.0166
1577.0,0.0166
1576.0,0.0166
1575.0,0.0165
1574.0,0.0165
1573.0,0.0166
1572.0,0.0166
1571.0,0.0166
1570.0,0.0167
1569.0,0.0168
1568.0,0.0168
1567.0,0.0167
1566.0,0.0166
1565.0,0.0166
1564.0,0.0166
1563.0,0.0167
1562.0,0.0168
1561.0,0.0167
1560.0,0.0165
1559.0,0.0166
1558.0,0.0165
1557.0,0.0165
1556.0,0.0166
1555.0,0.0167
1554.0,0.0167
1553.0,0.0166
1552.0,0.0166
1551.0,0.0166
1550.0,0.0166
1549.0,0.0165
1548.0,0.0165
1547.0,0.0164
1546.0,0.0163
1545.0,0.0164
1544.0,0.0165
1543.0,0.0165
1542.0,0.0163
1541.0,0.0162
1540.0,0.0163
1539.0,0.0163
1538.0,0.0163
1537.0,0.0163
1536.0,0.0163
1535.0,0.0162
1534.0,0.0163
1533.0,0.0163
1532.0,0.0163
1531.0,0.0163
1530.0,0.0162
1529.0,0.0162
1528.0,0.0161
1527.0,0.0161
1526.0,0.016
1525.0,0.016
1524.0,0.016
1523.0,0.0159
1522.0,0.016
1521.0,0.0161
1520.0,0.0162
1519.0,0.0162
1518.0,0.0161
1517.0,0.0161
1516.0,0.0162
1515.0,0.0161
1514.0,0.016
1513.0,0.016
1512.0,0.016
1511.0,0.0159
1510.0,0.0158
1509.0,0.0157
1508.0,0.0158
1507.0,0.0161
1506.0,0.0161
1505.0,0.0161
1504.0,0.0161
1503.0,0.0161
1502.0,0.016
1501.0,0.0159
1500.0,0.016
1499.0,0.016
1498.0,0.0161
1497.0,0.0162
1496.0,0.0164
1495.0,0.0164
1494.0,0.0164
1493.0,0.0163
1492.0,0.0164
1491.0,0.0164
1490.0,0.0165
1489.0,0.0168
1488.0,0.017
1487.0,0.0171
1486.0,0.0172
1485.0,0.0174
1484.0,0.0176
1483.0,0.0179
1482.0,0.0182
1481.0,0.0186
1480.0,0.0191
1479.0,0.0196
1478.0,0.0202
1477.0,0.0211
1476.0,0.0222
1475.0,0.0233
1474.0,0.0253
1473.0,0.0288
1472.0,0.0332
1471.0,0.0368
1470.0,0.04
1469.0,0.0434
1468.0,0.047
1467.0,0.0512
1466.0,0.0565
1465.0,0.0629
1464.0,0.0685
1463.0,0.0719
1462.0,0.074
1461.0,0.0753
1460.0,0.0763
1459.0,0.0772
1458.0,0.0792
1457.0,0.0822
1456.0,0.0839
1455.0,0.084
1454.0,0.0837
1453.0,0.0832
1452.0,0.0823
1451.0,0.0808
1450.0,0.0785
1449.0,0.0751
1448.0,0.0705
1447.0,0.0656
1446.0,0.0611
1445.0,0.0571
1444.0,0.0535
1443.0,0.0505
1442.0,0.0481
1441.0,0.0464
1440.0,0.0452
1439.0,0.0446
1438.0,0.0445
1437.0,0.0448
1436.0,0.0446
1435.0,0.0435
1434.0,0.0417
1433.0,0.0393
1432.0,0.0368
1431.0,0.0345
1430.0,0.0328
1429.0,0.0315
1428.0,0.0305
1427.0,0.0298
1426.0,0.0293
1425.0,0.0287
1424.0,0.0282
1423.0,0.0278
1422.0,0.0276
1421.0,0.0272
1420.0,0.0269
1419.0,0.0268
1418.0,0.0268
1417.0,0.0266
1416.0,0.0263
1415.0,0.0261
1414.0,0.0259
1413.0,0.0256
1412.0,0.0254
1411.0,0.0253
1410.0,0.0251
1409.0,0.0249
1408.0,0.0246
1407.0,0.0244
1406.0,0.0243
1405.0,0.0241
1404.0,0.0238
1403.0,0.0237
1402.0,0.0236
1401.0,0.0234
1400.0,0.0232
1399.0,0.0232
1398.0,0.0231
1397.0,0.0229
1396.0,0.0227
1395.0,0.0226
1394.0,0.0226
1393.0,0.0225
1392.0,0.0225
1391.0,0.0225
1390.0,0.0227
1389.0,0.0231
1388.0,0.0239
1387.0,0.0256
1386.0,0.0281
1385.0,0.0314
1384.0,0.0362
1383.0,0.043
1382.0,0.0521
1381.0,0.0636
1380.0,0.0776
1379.0,0.0933
1378.0,0.1079
1377.0,0.1181
1376.0,0.1215
1375.0,0.1166
1374.0,0.105
1373.0,0.0915
1372.0,0.0797
1371.0,0.0697
1370.0,0.0611
1369.0,0.0541
1368.0,0.049
1367.0,0.0457
1366.0,0.0437
1365.0,0.0427
1364.0,0.0425
1363.0,0.0432
1362.0,0.0444
1361.0,0.0457
1360.0,0.0466
1359.0,0.0468
1358.0,0.0462
1357.0,0.0449
1356.0,0.043
1355.0,0.0409
1354.0,0.0387
1353.0,0.0368
1352.0,0.0352
1351.0,0.034
1350.0,0.0329
1349.0,0.032
1348.0,0.0313
1347.0,0.0306
1346.0,0.03
1345.0,0.0295
1344.0,0.029
1343.0,0.0286
1342.0,0.0282
1341.0,0.0279
1340.0,0.0277
1339.0,0.0276
1338.0,0.0274
1337.0,0.0274
1336.0,0.0274
1335.0,0.0274
1334.0,0.0275
1333.0,0.0277
1332.0,0.028
1331.0,0.0281
1330.0,0.0282
1329.0,0.0281
1328.0,0.0279
1327.0,0.0277
1326.0,0.0274
1325.0,0.0271
1324.0,0.0268
1323.0,0.0265
1322.0,0.0261
1321.0,0.0258
1320.0,0.0256
1319.0,0.0255
1318.0,0.0254
1317.0,0.0252
1316.0,0.0251
1315.0,0.025
1314.0,0.0249
1313.0,0.0249
1312.0,0.0248
1311.0,0.0249
1310.0,0.0251
1309.0,0.0255
1308.0,0.0261
1307.0,0.0268
1306.0,0.0275
1305.0,0.028
1304.0,0.0281
1303.0,0.028
1302.0,0.0277
1301.0,0.0274
1300.0,0.0272
1299.0,0.0272
1298.0,0.0272
1297.0,0.0272
1296.0,0.0271
1295.0,0.027
1294.0,0.0267
1293.0,0.0265
1292.0,0.0262
1291.0,0.0259
1290.0,0.0257
1289.0,0.0256
1288.0,0.0254
1287.0,0.0252
1286.0,0.0251
1285.0,0.0249
1284.0,0.0248
1283.0,0.0247
1282.0,0.0246
1281.0,0.0245
1280.0,0.0244
1279.0,0.0244
1278.0,0.0244
1277.0,0.0244
1276.0,0.0244
1275.0,0.0244
1274.0,0.0243
1273.0,0.0243
1272.0,0.0243
1271.0,0.0244
1270.0,0.0244
1269.0,0.0245
1268.0,0.0245
1267.0,0.0246
1266.0,0.0247
1265.0,0.0248
1264.0,0.025
1263.0,0.0252
1262.0,0.0255
1261.0,0.0258
1260.0,0.0262
1259.0,0.0267
1258.0,0.0272
1257.0,0.0277
1256.0,0.0279
1255.0,0.0279
1254.0,0.0275
1253.0,0.027
1252.0,0.0265
1251.0,0.026
1250.0,0.0256
1249.0,0.0254
1248.0,0.0253
1247.0,0.0252
1246.0,0.0251
1245.0,0.0251
1244.0,0.0249
1243.0,0.0248
1242.0,0.0246
1241.0,0.0245
1240.0,0.0244
1239.0,0.0244
1238.0,0.0244
1237.0,0.0245
1236.0,0.0245
1235.0,0.0244
1234.0,0.0244
1233.0,0.0244
1232.0,0.0244
1231.0,0.0245
1230.0,0.0246
1229.0,0.0246
1228.0,0.0247
1227.0,0.0248
1226.0,0.025
1225.0,0.0251
1224.0,0.0253
1223.0,0.0255
1222.0,0.0257
1221.0,0.0259
1220.0,0.026
1219.0,0.0261
1218.0,0.0261
1217.0,0.026
1216.0,0.0259
1215.0,0.0258
1214.0,0.0256
1213.0,0.0254
1212.0,0.0253
1211.0,0.0251
1210.0,0.0251
1209.0,0.025
1208.0,0.0249
1207.0,0.0249
1206.0,0.0248
1205.0,0.0248
1204.0,0.0247
1203.0,0.0247
1202.0,0.0247
1201.0,0.0247
1200.0,0.0247
1199.0,0.0246
1198.0,0.0246
1197.0,0.0246
1196.0,0.0246
1195.0,0.0246
1194.0,0.0246
1193.0,0.0245
1192.0,0.0245
1191.0,0.0245
1190.0,0.0246
1189.0,0.0246
1188.0,0.0246
1187.0,0.0246
1186.0,0.0247
1185.0,0.0248
1184.0,0.0249
1183.0,0.025
1182.0,0.0251
1181.0,0.0252
1180.0,0.0254
1179.0,0.0257
1178.0,0.0261
1177.0,0.0267
1176.0,0.0275
1175.0,0.0285
1174.0,0.03
1173.0,0.0318
1172.0,0.0341
1171.0,0.0364
1170.0,0.0386
1169.0,0.0403
1168.0,0.0413
1167.0,0.0415
1166.0,0.0411
1165.0,0.0402
1164.0,0.0392
1163.0,0.0382
1162.0,0.0373
1161.0,0.0365
1160.0,0.036
1159.0,0.0355
1158.0,0.0352
1157.0,0.035
1156.0,0.0349
1155.0,0.0349
1154.0,0.0347
1153.0,0.0345
1152.0,0.0342
1151.0,0.0338
1150.0,0.0333
1149.0,0.0327
1148.0,0.0321
1147.0,0.0315
1146.0,0.031
1145.0,0.0304
1144.0,0.0299
1143.0,0.0295
1142.0,0.0291
1141.0,0.0288
1140.0,0.0284
1139.0,0.028
1138.0,0.0277
1137.0,0.0275
1136.0,0.0274
1135.0,0.0274
1134.0,0.0273
1133.0,0.0272
1132.0,0.0271
1131.0,0.0269
1130.0,0.0268
1129.0,0.0267
1128.0,0.0266
1127.0,0.0265
1126.0,0.0265
1125.0,0.0265
1124.0,0.0265
1123.0,0.0265
1122.0,0.0266
1121.0,0.0266
1120.0,0.0266
1119.0,0.0266
1118.0,0.0266
1117.0,0.0266
1116.0,0.0267
1115.0,0.0267
1114.0,0.0267
1113.0,0.0267
1112.0,0.0267
1111.0,0.0268
1110.0,0.0269
1109.0,0.0271
1108.0,0.0273
1107.0,0.0276
1106.0,0.028
1105.0,0.0283
1104.0,0.0287
1103.0,0.0289
1102.0,0.0289
1101.0,0.0288
1100.0,0.0286
1099.0,0.0283
1098.0,0.0279
1097.0,0.0276
1096.0,0.0273
1095.0,0.0271
1094.0,0.027
1093.0,0.0268
1092.0,0.0266
1091.0,0.0264
1090.0,0.0262
1089.0,0.0261
1088.0,0.026
1087.0,0.026
1086.0,0.026
1085.0,0.026
1084.0,0.026
1083.0,0.026
1082.0,0.026
1081.0,0.026
1080.0,0.026
1079.0,0.0259
1078.0,0.0258
1077.0,0.0257
1076.0,0.0256
1075.0,0.0256
1074.0,0.0256
1073.0,0.0257
1072.0,0.0257
1071.0,0.0256
1070.0,0.0255
1069.0,0.0254
1068.0,0.0253
1067.0,0.0252
1066.0,0.0252
1065.0,0.0252
1064.0,0.0253
1063.0,0.0254
1062.0,0.0254
1061.0,0.0253
1060.0,0.0253
1059.0,0.0253
1058.0,0.0253
1057.0,0.0252
1056.0,0.0252
1055.0,0.0253
1054.0,0.0253
1053.0,0.0254
1052.0,0.0255
1051.0,0.0256
1050.0,0.0257
1049.0,0.0259
1048.0,0.0261
1047.0,0.0264
1046.0,0.0267
1045.0,0.0268
1044.0,0.0268
1043.0,0.0267
1042.0,0.0265
1041.0,0.0262
1040.0,0.026
1039.0,0.026
1038.0,0.026
1037.0,0.026
1036.0,0.026
1035.0,0.026
1034.0,0.0259
1033.0,0.0258
1032.0,0.0257
1031.0,0.0257
1030.0,0.0256
1029.0,0.0256
1028.0,0.0256
1027.0,0.0256
1026.0,0.0257
1025.0,0.0258
1024.0,0.0258
1023.0,0.0258
1022.0,0.0258
1021.0,0.0257
1020.0,0.0258
1019.0,0.0258
1018.0,0.0259
1017.0,0.0259
1016.0,0.026
1015.0,0.026
1014.0,0.0262
1013.0,0.0263
1012.0,0.0264
1011.0,0.0266
1010.0,0.0269
1009.0,0.0271
1008.0,0.0275
1007.0,0.0279
1006.0,0.0284
1005.0,0.0292
1004.0,0.0303
1003.0,0.0319
1002.0,0.0341
1001.0,0.0369
1000.0,0.0399
999.0,0.0426
998.0,0.0441
997.0,0.044
996.0,0.0425
995.0,0.0401
994.0,0.0376
993.0,0.0355
992.0,0.0337
991.0,0.0324
990.0,0.0313
989.0,0.0305
988.0,0.0299
987.0,0.0296
986.0,0.0295
985.0,0.0296
984.0,0.0298
983.0,0.0302
982.0,0.0308
981.0,0.0317
980.0,0.0331
979.0,0.0352
978.0,0.0378
977.0,0.0408
976.0,0.0442
975.0,0.0473
974.0,0.0498
973.0,0.0508
972.0,0.0502
971.0,0.048
970.0,0.0449
969.0,0.0417
968.0,0.0389
967.0,0.0368
966.0,0.0353
965.0,0.0343
964.0,0.0335
963.0,0.0329
962.0,0.0324
961.0,0.032
960.0,0.0316
959.0,0.0312
958.0,0.0309
957.0,0.0307
956.0,0.0305
955.0,0.0304
954.0,0.0303
953.0,0.0301
952.0,0.03
951.0,0.0299
950.0,0.0298
949.0,0.0298
948.0,0.0297
947.0,0.0297
946.0,0.0298
945.0,0.03
944.0,0.0302
943.0,0.0304
942.0,0.0306
941.0,0.0309
940.0,0.031
939.0,0.031
938.0,0.0308
937.0,0.0305
936.0,0.0301
935.0,0.0299
934.0,0.0298
933.0,0.0298
932.0,0.0299
931.0,0.03
930.0,0.0299
929.0,0.0298
928.0,0.0296
927.0,0.0295
926.0,0.0294
925.0,0.0295
924.0,0.0296
923.0,0.0298
922.0,0.03
921.0,0.03
920.0,0.0301
919.0,0.03
918.0,0.03
917.0,0.0299
916.0,0.0299
915.0,0.0299
914.0,0.03
913.0,0.0302
912.0,0.0304
911.0,0.0307
910.0,0.0308
909.0,0.031
908.0,0.0311
907.0,0.0314
906.0,0.0318
905.0,0.0324
904.0,0.0332
903.0,0.0343
902.0,0.0356
901.0,0.0369
900.0,0.038
899.0,0.0385
898.0,0.0383
897.0,0.0376
896.0,0.0367
895.0,0.0358
894.0,0.0351
893.0,0.0345
892.0,0.0341
891.0,0.0339
890.0,0.0338
889.0,0.0337
888.0,0.0336
887.0,0.0335
886.0,0.0334
885.0,0.0332
884.0,0.033
883.0,0.033
882.0,0.0331
881.0,0.0333
880.0,0.0336
879.0,0.0339
878.0,0.0342
877.0,0.0344
876.0,0.0346
875.0,0.0346
874.0,0.0345
873.0,0.0343
872.0,0.0341
871.0,0.034
870.0,0.0339
869.0,0.0339
868.0,0.0339
867.0,0.0339
866.0,0.034
865.0,0.0339
864.0,0.0339
863.0,0.0339
862.0,0.0339
861.0,0.034
860.0,0.0341
859.0,0.0343
858.0,0.0343
857.0,0.0343
856.0,0.0344
855.0,0.0344
854.0,0.0345
853.0,0.0346
852.0,0.0348
851.0,0.0351
850.0,0.0354
849.0,0.0358
848.0,0.0363
847.0,0.037
846.0,0.0382
845.0,0.0403
844.0,0.0434
843.0,0.0471
842.0,0.05
841.0,0.0511
840.0,0.0499
839.0,0.0472
838.0,0.0443
837.0,0.0418
836.0,0.0402
835.0,0.0393
834.0,0.0389
833.0,0.0386
832.0,0.0384
831.0,0.0381
830.0,0.0378
829.0,0.0376
828.0,0.0373
827.0,0.0371
826.0,0.0371
825.0,0.0371
824.0,0.0372
823.0,0.0373
822.0,0.0374
821.0,0.0374
820.0,0.0375
819.0,0.0376
818.0,0.0378
817.0,0.038
816.0,0.0384
815.0,0.039
814.0,0.0399
813.0,0.0411
812.0,0.0423
811.0,0.0435
810.0,0.0444
809.0,0.0449
808.0,0.0449
807.0,0.0445
806.0,0.0438
805.0,0.0429
804.0,0.0421
803.0,0.0414
802.0,0.0409
801.0,0.0404
800.0,0.04
799.0,0.0397
798.0,0.0393
797.0,0.039
796.0,0.0387
795.0,0.0384
794.0,0.0383
793.0,0.0381
792.0,0.038
791.0,0.0378
790.0,0.0376
789.0,0.0375
788.0,0.0375
787.0,0.0375
786.0,0.0376
785.0,0.0376
784.0,0.0377
783.0,0.0376
782.0,0.0376
781.0,0.0375
780.0,0.0375
779.0,0.0375
778.0,0.0374
777.0,0.0373
776.0,0.0373
775.0,0.0374
774.0,0.0376
773.0,0.0379
772.0,0.0381
771.0,0.0381
770.0,0.0381
769.0,0.0379
768.0,0.0378
767.0,0.0377
766.0,0.0375
765.0,0.0373
764.0,0.0372
763.0,0.0373
762.0,0.0375
761.0,0.0377
760.0,0.0378
759.0,0.038
758.0,0.0382
757.0,0.0382
756.0,0.0381
755.0,0.038
754.0,0.0379
753.0,0.0379
752.0,0.0379
751.0,0.038
750.0,0.0382
749.0,0.0383
748.0,0.0385
747.0,0.0386
746.0,0.0387
745.0,0.0388
744.0,0.039
743.0,0.0391
742.0,0.0391
741.0,0.039
740.0,0.0388
739.0,0.0387
738.0,0.0387
737.0,0.0389
736.0,0.039
735.0,0.0391
734.0,0.039
733.0,0.039
732.0,0.0391
731.0,0.0395
730.0,0.0399
729.0,0.0402
728.0,0.0404
727.0,0.0407
726.0,0.0409
725.0,0.0409
724.0,0.0408
723.0,0.0405
722.0,0.0403
721.0,0.0401
720.0,0.0401
719.0,0.0402
718.0,0.0404
717.0,0.0406
716.0,0.0408
715.0,0.0408
714.0,0.0406
713.0,0.0404
712.0,0.0405
711.0,0.0409
710.0,0.0412
709.0,0.0413
708.0,0.0411
707.0,0.0409
706.0,0.0409
705.0,0.0409
704.0,0.041
703.0,0.0411
702.0,0.0411
701.0,0.0411
700.0,0.0412
699.0,0.0414
698.0,0.0418
697.0,0.0422
696.0,0.0426
695.0,0.0429
694.0,0.043
693.0,0.0429
692.0,0.0424
691.0,0.0418
690.0,0.0414
689.0,0.0416
688.0,0.0421
687.0,0.0424
686.0,0.042
685.0,0.0408
684.0,0.0395
683.0,0.0388
682.0,0.0388
681.0,0.0394
680.0,0.0398
679.0,0.0395
678.0,0.0388
677.0,0.0387
676.0,0.0395
675.0,0.0407
674.0,0.0414
673.0,0.0412
672.0,0.0404
671.0,0.0387
670.0,0.0359
669.0,0.0324
668.0,0.0308
667.0,0.0333
666.0,0.0369
665.0,0.039
664.0,0.0398
663.0,0.0398
662.0,0.0394
661.0,0.0388
660.0,0.0385
659.0,0.0386
658.0,0.0391
657.0,0.0396
656.0,0.0401
655.0,0.0404
654.0,0.0403
653.0,0.04
652.0,0.0397
651.0,0.0398
650.0,0.0403
649.0,0.0408
648.0,0.041
647.0,0.0409
646.0,0.0405
645.0,0.0403
644.0,0.0403
643.0,0.0405
642.0,0.0407
641.0,0.0408
640.0,0.0412
639.0,0.0423
638.0,0.0438
637.0,0.0454
636.0,0.0468
635.0,0.0477
634.0,0.0475
633.0,0.0462
632.0,0.0446
631.0,0.0435
630.0,0.0428
629.0,0.0424
628.0,0.0423
627.0,0.0426
626.0,0.0432
625.0,0.0436
624.0,0.0437
623.0,0.0438
622.0,0.0438
621.0,0.0438
620.0,0.044
619.0,0.0442
618.0,0.044
617.0,0.0432
616.0,0.0423
615.0,0.042
614.0,0.0424
613.0,0.0431
612.0,0.0438
611.0,0.0441
610.0,0.0439
609.0,0.0434
608.0,0.0432
607.0,0.0436
606.0,0.0439
605.0,0.0435
604.0,0.043
603.0,0.0433
602.0,0.0446
601.0,0.0459
600.0,0.0465
