cm-1,A
4000.0,0.0056
3999.0,0.0056
3998.0,0.0056
3997.0,0.0056
3996.0,0.0056
3995.0,0.0056
3994.0,0.0057
3993.0,0.0057
3992.0,0.0058
3991.0,0.0059
3990.0,0.0059
3989.0,0.0059
3988.0,0.0059
3987.0,0.0059
3986.0,0.0059
3985.0,0.0058
3984.0,0.0058
3983.0,0.0058
3982.0,0.0058
3981.0,0.0058
3980.0,0.0057
3979.0,0.0057
3978.0,0.0058
3977.0,0.0058
3976.0,0.0059
3975.0,0.0058
3974.0,0.0057
3973.0,0.0056
3972.0,0.0055
3971.0,0.0054
3970.0,0.0053
3969.0,0.0053
3968.0,0.0054
3967.0,0.0055
3966.0,0.0056
3965.0,0.0058
3964.0,0.0059
3963.0,0.0059
3962.0,0.0059
3961.0,0.0058
3960.0,0.0058
3959.0,0.0057
3958.0,0.0057
3957.0,0.0058
3956.0,0.0058
3955.0,0.0057
3954.0,0.0057
3953.0,0.0056
3952.0,0.0055
3951.0,0.0055
3950.0,0.0056
3949.0,0.0055
3948.0,0.0055
3947.0,0.0054
3946.0,0.0054
3945.0,0.0055
3944.0,0.0056
3943.0,0.0058
3942.0,0.0058
3941.0,0.0058
3940.0,0.0058
3939.0,0.0059
3938.0,0.0059
3937.0,0.0059
3936.0,0.0058
3935.0,0.0057
3934.0,0.0055
3933.0,0.0054
3932.0,0.0054
3931.0,0.0055
3930.0,0.0056
3929.0,0.0057
3928.0,0.0056
3927.0,0.0056
3926.0,0.0055
3925.0,0.0054
3924.0,0.0054
3923.0,0.0053
3922.0,0.0054
3921.0,0.0055
3920.0,0.0056
3919.0,0.0057
3918.0,0.0057
3917.0,0.0057
3916.0,0.0057
3915.0,0.0058
3914.0,0.0059
3913.0,0.0059
3912.0,0.0059
3911.0,0.0059
3910.0,0.0058
3909.0,0.0058
3908.0,0.0058
3907.0,0.0057
3906.0,0.0056
3905.0,0.0054
3904.0,0.0052
3903.0,0.005
3902.0,0.0049
3901.0,0.005
3900.0,0.0053
3899.0,0.0055
3898.0,0.0057
3897.0,0.0057
3896.0,0.0057
3895.0,0.0057
3894.0,0.0057
3893.0,0.0057
3892.0,0.0057
3891.0,0.0057
3890.0,0.0056
3889.0,0.0056
3888.0,0.0055
3887.0,0.0055
3886.0,0.0055
3885.0,0.0055
3884.0,0.0055
3883.0,0.0055
3882.0,0.0056
3881.0,0.0057
3880.0,0.0057
3879.0,0.0057
3878.0,0.0057
3877.0,0.0058
3876.0,0.0059
3875.0,0.0059
3874.0,0.0058
3873.0,0.0056
3872.0,0.0055
3871.0,0.0056
3870.0,0.0056
3869.0,0.0055
3868.0,0.0055
3867.0,0.0055
3866.0,0.0056
3865.0,0.0057
3864.0,0.0057
3863.0,0.0057
3862.0,0.0056
3861.0,0.0055
3860.0,0.0055
3859.0,0.0055
3858.0,0.0054
3857.0,0.0052
3856.0,0.0051
3855.0,0.0052
3854.0,0.0054
3853.0,0.0054
3852.0,0.0052
3851.0,0.0052
3850.0,0.0054
3849.0,0.0056
3848.0,0.0057
3847.0,0.0058
3846.0,0.0058
3845.0,0.0058
3844.0,0.0058
3843.0,0.0057
3842.0,0.0056
3841.0,0.0055
3840.0,0.0054
3839.0,0.0054
3838.0,0.0054
3837.0,0.0053
3836.0,0.0052
3835.0,0.0052
3834.0,0.0054
3833.0,0.0055
3832.0,0.0056
3831.0,0.0057
3830.0,0.0057
3829.0,0.0057
3828.0,0.0058
3827.0,0.0058
3826.0,0.0058
3825.0,0.0057
3824.0,0.0056
3823.0,0.0055
3822.0,0.0055
3821.0,0.0056
3820.0,0.0055
3819.0,0.0054
3818.0,0.0054
3817.0,0.0056
3816.0,0.0058
3815.0,0.0059
3814.0,0.006
3813.0,0.0062
3812.0,0.0063
3811.0,0.0062
3810.0,0.0061
3809.0,0.006
3808.0,0.006
3807.0,0.006
3806.0,0.0058
3805.0,0.0056
3804.0,0.0054
3803.0,0.0054
3802.0,0.0056
3801.0,0.0057
3800.0,0.0057
3799.0,0.0057
3798.0,0.0059
3797.0,0.0061
3796.0,0.0062
3795.0,0.0063
3794.0,0.0064
3793.0,0.0065
3792.0,0.0065
3791.0,0.0066
3790.0,0.0066
3789.0,0.0065
3788.0,0.0065
3787.0,0.0065
3786.0,0.0064
3785.0,0.0064
3784.0,0.0063
3783.0,0.0062
3782.0,0.0062
3781.0,0.0063
3780.0,0.0063
3779.0,0.0063
3778.0,0.0063
3777.0,0.0063
3776.0,0.0064
3775.0,0.0065
3774.0,0.0065
3773.0,0.0065
3772.0,0.0064
3771.0,0.0063
3770.0,0.0063
3769.0,0.0063
3768.0,0.0064
3767.0,0.0064
3766.0,0.0065
3765.0,0.0065
3764.0,0.0065
3763.0,0.0064
3762.0,0.0063
3761.0,0.0063
3760.0,0.0063
3759.0,0.0062
3758.0,0.0061
3757.0,0.0059
3756.0,0.0057
3755.0,0.0056
3754.0,0.0055
3753.0,0.0055
3752.0,0.0056
3751.0,0.0058
3750.0,0.0059
3749.0,0.006
3748.0,0.0061
3747.0,0.0062
3746.0,0.0062
3745.0,0.0062
3744.0,0.0061
3743.0,0.0062
3742.0,0.0064
3741.0,0.0066
3740.0,0.0066
3739.0,0.0063
3738.0,0.0059
3737.0,0.0056
3736.0,0.0055
3735.0,0.0055
3734.0,0.0055
3733.0,0.0056
3732.0,0.0059
3731.0,0.0063
3730.0,0.0066
3729.0,0.0068
3728.0,0.007
3727.0,0.007
3726.0,0.0071
3725.0,0.0071
3724.0,0.0071
3723.0,0.007
3722.0,0.007
3721.0,0.007
3720.0,0.007
3719.0,0.007
3718.0,0.0069
3717.0,0.0067
3716.0,0.0066
3715.0,0.0065
3714.0,0.0066
3713.0,0.0068
3712.0,0.0071
3711.0,0.0071
3710.0,0.0069
3709.0,0.0068
3708.0,0.0069
3707.0,0.007
3706.0,0.0071
3705.0,0.0071
3704.0,0.007
3703.0,0.0069
3702.0,0.0069
3701.0,0.0069
3700.0,0.0069
3699.0,0.007
3698.0,0.007
3697.0,0.0071
3696.0,0.0071
3695.0,0.0071
3694.0,0.0069
3693.0,0.0068
3692.0,0.0067
3691.0,0.0067
3690.0,0.0067
3689.0,0.0066
3688.0,0.0066
3687.0,0.0066
3686.0,0.0068
3685.0,0.007
3684.0,0.0071
3683.0,0.0071
3682.0,0.007
3681.0,0.0069
3680.0,0.0066
3679.0,0.0063
3678.0,0.006
3677.0,0.0058
3676.0,0.0059
3675.0,0.006
3674.0,0.0059
3673.0,0.0059
3672.0,0.0061
3671.0,0.0064
3670.0,0.0067
3669.0,0.0068
3668.0,0.0068
3667.0,0.0069
3666.0,0.007
3665.0,0.007
3664.0,0.007
3663.0,0.007
3662.0,0.0069
3661.0,0.0069
3660.0,0.0069
3659.0,0.0069
3658.0,0.0069
3657.0,0.007
3656.0,0.0069
3655.0,0.0068
3654.0,0.0066
3653.0,0.0064
3652.0,0.0061
3651.0,0.006
3650.0,0.0062
3649.0,0.0064
3648.0,0.0063
3647.0,0.0063
3646.0,0.0065
3645.0,0.0068
3644.0,0.0072
3643.0,0.0074
3642.0,0.0076
3641.0,0.0076
3640.0,0.0076
3639.0,0.0077
3638.0,0.0078
3637.0,0.008
3636.0,0.008
3635.0,0.008
3634.0,0.0079
3633.0,0.0076
3632.0,0.0072
3631.0,0.007
3630.0,0.007
3629.0,0.0072
3628.0,0.0073
3627.0,0.0074
3626.0,0.0077
3625.0,0.0079
3624.0,0.008
3623.0,0.0079
3622.0,0.0077
3621.0,0.0075
3620.0,0.0074
3619.0,0.0075
3618.0,0.0075
3617.0,0.0075
3616.0,0.0074
3615.0,0.0073
3614.0,0.0072
3613.0,0.0072
3612.0,0.0073
3611.0,0.0075
3610.0,0.0078
3609.0,0.0082
3608.0,0.0084
3607.0,0.0085
3606.0,0.0085
3605.0,0.0084
3604.0,0.0083
3603.0,0.0082
3602.0,0.0082
3601.0,0.0082
3600.0,0.0082
3599.0,0.0083
3598.0,0.0083
3597.0,0.0083
3596.0,0.0083
3595.0,0.0083
3594.0,0.0083
3593.0,0.0083
3592.0,0.0083
3591.0,0.0083
3590.0,0.0082
3589.0,0.0082
3588.0,0.0083
3587.0,0.0085
3586.0,0.0085
3585.0,0.0085
3584.0,0.0085
3583.0,0.0086
3582.0,0.0087
3581.0,0.0088
3580.0,0.0088
3579.0,0.0088
3578.0,0.0089
3577.0,0.0089
3576.0,0.009
3575.0,0.009
3574.0,0.0091
3573.0,0.0091
3572.0,0.0089
3571.0,0.0088
3570.0,0.0086
3569.0,0.0085
3568.0,0.0085
3567.0,0.0086
3566.0,0.0087
3565.0,0.0087
3564.0,0.0087
3563.0,0.0088
3562.0,0.0088
3561.0,0.0089
3560.0,0.0089
3559.0,0.009
3558.0,0.009
3557.0,0.0091
3556.0,0.0092
3555.0,0.0093
3554.0,0.0094
3553.0,0.0095
3552.0,0.0095
3551.0,0.0094
3550.0,0.0093
3549.0,0.0091
3548.0,0.0091
3547.0,0.0092
3546.0,0.0093
3545.0,0.0093
3544.0,0.0093
3543.0,0.0093
3542.0,0.0093
3541.0,0.0094
3540.0,0.0095
3539.0,0.0096
3538.0,0.0098
3537.0,0.0099
3536.0,0.0101
3535.0,0.0101
3534.0,0.0102
3533.0,0.0101
3532.0,0.0101
3531.0,0.01
3530.0,0.01
3529.0,0.01
3528.0,0.01
3527.0,0.0099
3526.0,0.0099
3525.0,0.0099
3524.0,0.0099
3523.0,0.0099
3522.0,0.0099
3521.0,0.01
3520.0,0.0101
3519.0,0.0102
3518.0,0.0103
3517.0,0.0102
3516.0,0.0101
3515.0,0.0099
3514.0,0.0098
3513.0,0.0098
3512.0,0.0098
3511.0,0.0098
3510.0,0.0098
3509.0,0.0099
3508.0,0.0099
3507.0,0.01
3506.0,0.0101
3505.0,0.0102
3504.0,0.0102
3503.0,0.0102
3502.0,0.0103
3501.0,0.0104
3500.0,0.0105
3499.0,0.0106
3498.0,0.0107
3497.0,0.0108
3496.0,0.0108
3495.0,0.0107
3494.0,0.0106
3493.0,0.0106
3492.0,0.0106
3491.0,0.0107
3490.0,0.0107
3489.0,0.0107
3488.0,0.0107
3487.0,0.0107
3486.0,0.0107
3485.0,0.0107
3484.0,0.0107
3483.0,0.0108
3482.0,0.0108
3481.0,0.0107
3480.0,0.0106
3479.0,0.0105
3478.0,0.0106
3477.0,0.0108
3476.0,0.0109
3475.0,0.0111
3474.0,0.0112
3473.0,0.0113
3472.0,0.0113
3471.0,0.0112
3470.0,0.0112
3469.0,0.0112
3468.0,0.0112
3467.0,0.0113
3466.0,0.0113
3465.0,0.0113
3464.0,0.0113
3463.0,0.0113
3462.0,0.0114
3461.0,0.0114
3460.0,0.0114
3459.0,0.0113
3458.0,0.0112
3457.0,0.0112
3456.0,0.0112
3455.0,0.0112
3454.0,0.0112
3453.0,0.0112
3452.0,0.0111
3451.0,0.0112
3450.0,0.0113
3449.0,0.0115
3448.0,0.0118
3447.0,0.0119
3446.0,0.0118
3445.0,0.0116
3444.0,0.0115
3443.0,0.0114
3442.0,0.0115
3441.0,0.0115
3440.0,0.0115
3439.0,0.0115
3438.0,0.0115
3437.0,0.0115
3436.0,0.0115
3435.0,0.0116
3434.0,0.0116
3433.0,0.0118
3432.0,0.0119
3431.0,0.0119
3430.0,0.0119
3429.0,0.012
3428.0,0.012
3427.0,0.012
3426.0,0.0119
3425.0,0.0118
3424.0,0.0117
3423.0,0.0116
3422.0,0.0116
3421.0,0.0116
3420.0,0.0117
3419.0,0.0117
3418.0,0.0118
3417.0,0.0119
3416.0,0.0119
3415.0,0.0119
3414.0,0.0119
3413.0,0.0119
3412.0,0.0119
3411.0,0.012
3410.0,0.012
3409.0,0.0119
3408.0,0.0118
3407.0,0.0117
3406.0,0.0117
3405.0,0.0119
3404.0,0.012
3403.0,0.012
3402.0,0.012
3401.0,0.012
3400.0,0.0119
3399.0,0.0119
3398.0,0.0118
3397.0,0.0117
3396.0,0.0117
3395.0,0.0116
3394.0,0.0116
3393.0,0.0116
3392.0,0.0117
3391.0,0.0117
3390.0,0.0116
3389.0,0.0115
3388.0,0.0114
3387.0,0.0114
3386.0,0.0114
3385.0,0.0115
3384.0,0.0116
3383.0,0.0117
3382.0,0.0117
3381.0,0.0117
3380.0,0.0116
3379.0,0.0115
3378.0,0.0115
3377.0,0.0115
3376.0,0.0115
3375.0,0.0115
3374.0,0.0115
3373.0,0.0114
3372.0,0.0115
3371.0,0.0116
3370.0,0.0116
3369.0,0.0116
3368.0,0.0116
3367.0,0.0115
3366.0,0.0114
3365.0,0.0114
3364.0,0.0114
3363.0,0.0115
3362.0,0.0115
3361.0,0.0115
3360.0,0.0115
3359.0,0.0115
3358.0,0.0115
3357.0,0.0114
3356.0,0.0114
3355.0,0.0114
3354.0,0.0114
3353.0,0.0114
3352.0,0.0115
3351.0,0.0115
3350.0,0.0114
3349.0,0.0114
3348.0,0.0113
3347.0,0.0112
3346.0,0.0111
3345.0,0.0112
3344.0,0.0112
3343.0,0.0112
3342.0,0.0111
3341.0,0.0111
3340.0,0.011
3339.0,0.011
3338.0,0.011
3337.0,0.0111
3336.0,0.0111
3335.0,0.0111
3334.0,0.0111
3333.0,0.0111
3332.0,0.011
3331.0,0.0109
3330.0,0.0109
3329.0,0.0109
3328.0,0.0108
3327.0,0.0108
3326.0,0.0108
3325.0,0.0109
3324.0,0.0109
3323.0,0.011
3322.0,0.011
3321.0,0.0109
3320.0,0.0108
3319.0,0.0108
3318.0,0.0107
3317.0,0.0106
3316.0,0.0105
3315.0,0.0104
3314.0,0.0104
3313.0,0.0104
3312.0,0.0104
3311.0,0.0105
3310.0,0.0105
3309.0,0.0105
3308.0,0.0106
3307.0,0.0105
3306.0,0.0105
3305.0,0.0105
3304.0,0.0106
3303.0,0.0106
3302.0,0.0106
3301.0,0.0105
3300.0,0.0104
3299.0,0.0104
3298.0,0.0104
3297.0,0.0105
3296.0,0.0105
3295.0,0.0105
3294.0,0.0104
3293.0,0.0103
3292.0,0.0103
3291.0,0.0104
3290.0,0.0104
3289.0,0.0104
3288.0,0.0102
3287.0,0.0101
3286.0,0.01
3285.0,0.01
3284.0,0.0101
3283.0,0.0102
3282.0,0.0103
3281.0,0.0103
3280.0,0.0103
3279.0,0.0101
3278.0,0.01
3277.0,0.0099
3276.0,0.0098
3275.0,0.0097
3274.0,0.0097
3273.0,0.0097
3272.0,0.0097
3271.0,0.0098
3270.0,0.0098
3269.0,0.0098
3268.0,0.0098
3267.0,0.0097
3266.0,0.0097
3265.0,0.0096
3264.0,0.0097
3263.0,0.0097
3262.0,0.0098
3261.0,0.0098
3260.0,0.0098
3259.0,0.0097
3258.0,0.0096
3257.0,0.0095
3256.0,0.0095
3255.0,0.0095
3254.0,0.0096
3253.0,0.0096
3252.0,0.0097
3251.0,0.0097
3250.0,0.0096
3249.0,0.0095
3248.0,0.0094
3247.0,0.0093
3246.0,0.0093
3245.0,0.0094
3244.0,0.0095
3243.0,0.0096
3242.0,0.0097
3241.0,0.0097
3240.0,0.0096
3239.0,0.0095
3238.0,0.0094
3237.0,0.0093
3236.0,0.0093
3235.0,0.0092
3234.0,0.0092
3233.0,0.0093
3232.0,0.0093
3231.0,0.0093
3230.0,0.0093
3229.0,0.0093
3228.0,0.0092
3227.0,0.0091
3226.0,0.0091
3225.0,0.0091
3224.0,0.0091
3223.0,0.0093
3222.0,0.0096
3221.0,0.0097
3220.0,0.0097
3219.0,0.0096
3218.0,0.0095
3217.0,0.0095
3216.0,0.0094
3215.0,0.0093
3214.0,0.0093
3213.0,0.0093
3212.0,0.0093
3211.0,0.0093
3210.0,0.0093
3209.0,0.0092
3208.0,0.0092
3207.0,0.0092
3206.0,0.0093
3205.0,0.0094
3204.0,0.0094
3203.0,0.0095
3202.0,0.0094
3201.0,0.0094
3200.0,0.0093
3199.0,0.0093
3198.0,0.0092
3197.0,0.0092
3196.0,0.0092
3195.0,0.0091
3194.0,0.009
3193.0,0.0089
3192.0,0.0089
3191.0,0.0089
3190.0,0.0089
3189.0,0.0089
3188.0,0.0089
3187.0,0.0089
3186.0,0.0088
3185.0,0.0087
3184.0,0.0086
3183.0,0.0085
3182.0,0.0085
3181.0,0.0086
3180.0,0.0086
3179.0,0.0087
3178.0,0.0086
3177.0,0.0085
3176.0,0.0085
3175.0,0.0085
3174.0,0.0085
3173.0,0.0086
3172.0,0.0086
3171.0,0.0086
3170.0,0.0085
3169.0,0.0085
3168.0,0.0084
3167.0,0.0084
3166.0,0.0084
3165.0,0.0084
3164.0,0.0084
3163.0,0.0084
3162.0,0.0084
3161.0,0.0084
3160.0,0.0084
3159.0,0.0084
3158.0,0.0084
3157.0,0.0083
3156.0,0.0083
3155.0,0.0083
3154.0,0.0082
3153.0,0.0082
3152.0,0.0083
3151.0,0.0082
3150.0,0.0081
3149.0,0.008
3148.0,0.0079
3147.0,0.0078
3146.0,0.0078
3145.0,0.0079
3144.0,0.0079
3143.0,0.008
3142.0,0.008
3141.0,0.0079
3140.0,0.0078
3139.0,0.0078
3138.0,0.0077
3137.0,0.0078
3136.0,0.0078
3135.0,0.0079
3134.0,0.0079
3133.0,0.0079
3132.0,0.0078
3131.0,0.0077
3130.0,0.0076
3129.0,0.0076
3128.0,0.0077
3127.0,0.0076
3126.0,0.0075
3125.0,0.0074
3124.0,0.0073
3123.0,0.0072
3122.0,0.0073
3121.0,0.0073
3120.0,0.0073
3119.0,0.0072
3118.0,0.0071
3117.0,0.0071
3116.0,0.0071
3115.0,0.007
3114.0,0.007
3113.0,0.0069
3112.0,0.0069
3111.0,0.0069
3110.0,0.007
3109.0,0.0069
3108.0,0.0069
3107.0,0.0068
3106.0,0.0069
3105.0,0.0069
3104.0,0.007
3103.0,0.007
3102.0,0.0069
3101.0,0.0068
3100.0,0.0067
3099.0,0.0065
3098.0,0.0065
3097.0,0.0065
3096.0,0.0066
3095.0,0.0067
3094.0,0.0067
3093.0,0.0067
3092.0,0.0066
3091.0,0.0066
3090.0,0.0066
3089.0,0.0065
3088.0,0.0065
3087.0,0.0065
3086.0,0.0065
3085.0,0.0065
3084.0,0.0065
3083.0,0.0065
3082.0,0.0065
3081.0,0.0064
3080.0,0.0064
3079.0,0.0063
3078.0,0.0062
3077.0,0.006
3076.0,0.006
3075.0,0.006
3074.0,0.006
3073.0,0.0061
3072.0,0.0062
3071.0,0.0062
3070.0,0.0062
3069.0,0.0061
3068.0,0.0061
3067.0,0.006
3066.0,0.0059
3065.0,0.0058
3064.0,0.0058
3063.0,0.0057
3062.0,0.0057
3061.0,0.0057
3060.0,0.0057
3059.0,0.0057
3058.0,0.0057
3057.0,0.0056
3056.0,0.0056
3055.0,0.0055
3054.0,0.0054
3053.0,0.0054
3052.0,0.0054
3051.0,0.0054
3050.0,0.0054
3049.0,0.0053
3048.0,0.0053
3047.0,0.0053
3046.0,0.0052
3045.0,0.0052
3044.0,0.0051
3043.0,0.0051
3042.0,0.005
3041.0,0.005
3040.0,0.0049
3039.0,0.0048
3038.0,0.0048
3037.0,0.0048
3036.0,0.0048
3035.0,0.0048
3034.0,0.0049
3033.0,0.0049
3032.0,0.0049
3031.0,0.0048
3030.0,0.0048
3029.0,0.0048
3028.0,0.0047
3027.0,0.0047
3026.0,0.0046
3025.0,0.0046
3024.0,0.0045
3023.0,0.0045
3022.0,0.0045
3021.0,0.0045
3020.0,0.0044
3019.0,0.0044
3018.0,0.0044
3017.0,0.0044
3016.0,0.0044
3015.0,0.0044
3014.0,0.0045
3013.0,0.0045
3012.0,0.0044
3011.0,0.0044
3010.0,0.0043
3009.0,0.0043
3008.0,0.0043
3007.0,0.0044
3006.0,0.0044
3005.0,0.0045
3004.0,0.0045
3003.0,0.0045
3002.0,0.0045
3001.0,0.0045
3000.0,0.0046
2999.0,0.0047
2998.0,0.0049
2997.0,0.0051
2996.0,0.0053
2995.0,0.0054
2994.0,0.0056
2993.0,0.0058
2992.0,0.006
2991.0,0.0062
2990.0,0.0065
2989.0,0.0069
2988.0,0.0073
2987.0,0.0078
2986.0,0.0084
2985.0,0.009
2984.0,0.0097
2983.0,0.0105
2982.0,0.0115
2981.0,0.0126
2980.0,0.0139
2979.0,0.0155
2978.0,0.0172
2977.0,0.0192
2976.0,0.0215
2975.0,0.0242
2974.0,0.0274
2973.0,0.0311
2972.0,0.0352
2971.0,0.0398
2970.0,0.0449
2969.0,0.0506
2968.0,0.0568
2967.0,0.0634
2966.0,0.0702
2965.0,0.077
2964.0,0.0834
2963.0,0.089
2962.0,0.0937
2961.0,0.097
2960.0,0.0993
2959.0,0.1009
2958.0,0.1023
2957.0,0.104
2956.0,0.1063
2955.0,0.1093
2954.0,0.113
2953.0,0.1169
2952.0,0.1203
2951.0,0.1223
2950.0,0.1222
2949.0,0.1197
2948.0,0.1148
2947.0,0.1082
2946.0,0.1003
2945.0,0.092
2944.0,0.084
2943.0,0.077
2942.0,0.0713
2941.0,0.067
2940.0,0.0642
2939.0,0.0628
2938.0,0.0626
2937.0,0.0635
2936.0,0.0653
2935.0,0.0681
2934.0,0.0718
2933.0,0.0763
2932.0,0.0814
2931.0,0.087
2930.0,0.0929
2929.0,0.099
2928.0,0.1051
2927.0,0.111
2926.0,0.1166
2925.0,0.1218
2924.0,0.1269
2923.0,0.132
2922.0,0.1371
2921.0,0.1418
2920.0,0.1458
2919.0,0.1484
2918.0,0.1492
2917.0,0.1481
2916.0,0.1453
2915.0,0.1413
2914.0,0.1367
2913.0,0.132
2912.0,0.1277
2911.0,0.1239
2910.0,0.1206
2909.0,0.1178
2908.0,0.1151
2907.0,0.1125
2906.0,0.1097
2905.0,0.1066
2904.0,0.1034
2903.0,0.1
2902.0,0.0964
2901.0,0.0929
2900.0,0.0896
2899.0,0.0864
2898.0,0.0834
2897.0,0.0806
2896.0,0.0782
2895.0,0.076
2894.0,0.0742
2893.0,0.0728
2892.0,0.0718
2891.0,0.0712
2890.0,0.0709
2889.0,0.0708
2888.0,0.0709
2887.0,0.0712
2886.0,0.0716
2885.0,0.0722
2884.0,0.073
2883.0,0.0741
2882.0,0.0753
2881.0,0.0766
2880.0,0.0778
2879.0,0.0788
2878.0,0.0794
2877.0,0.0795
2876.0,0.0791
2875.0,0.0786
2874.0,0.0783
2873.0,0.0784
2872.0,0.0791
2871.0,0.0802
2870.0,0.0815
2869.0,0.0826
2868.0,0.0832
2867.0,0.0828
2866.0,0.0809
2865.0,0.0775
2864.0,0.0729
2863.0,0.0676
2862.0,0.0622
2861.0,0.0573
2860.0,0.0531
2859.0,0.0497
2858.0,0.047
2857.0,0.045
2856.0,0.0436
2855.0,0.0428
2854.0,0.0425
2853.0,0.0426
2852.0,0.0432
2851.0,0.0442
2850.0,0.0457
2849.0,0.0476
2848.0,0.0501
2847.0,0.0531
2846.0,0.0566
2845.0,0.0608
2844.0,0.0653
2843.0,0.07
2842.0,0.0747
2841.0,0.0788
2840.0,0.0819
2839.0,0.0837
2838.0,0.0839
2837.0,0.0823
2836.0,0.0791
2835.0,0.0746
2834.0,0.0692
2833.0,0.0637
2832.0,0.0584
2831.0,0.0537
2830.0,0.0497
2829.0,0.0463
2828.0,0.0435
2827.0,0.0413
2826.0,0.0394
2825.0,0.0378
2824.0,0.0364
2823.0,0.0352
2822.0,0.0342
2821.0,0.0332
2820.0,0.0324
2819.0,0.0317
2818.0,0.0311
2817.0,0.0305
2816.0,0.03
2815.0,0.0296
2814.0,0.0292
2813.0,0.0289
2812.0,0.0285
2811.0,0.028
2810.0,0.0276
2809.0,0.0272
2808.0,0.0268
2807.0,0.0264
2806.0,0.0259
2805.0,0.0254
2804.0,0.0249
2803.0,0.0245
2802.0,0.0241
2801.0,0.0239
2800.0,0.0236
2799.0,0.0234
2798.0,0.0232
2797.0,0.023
2796.0,0.0228
2795.0,0.0226
2794.0,0.0224
2793.0,0.0222
2792.0,0.0219
2791.0,0.0216
2790.0,0.0213
2789.0,0.0211
2788.0,0.0208
2787.0,0.0205
2786.0,0.0203
2785.0,0.02
2784.0,0.0198
2783.0,0.0197
2782.0,0.0195
2781.0,0.0193
2780.0,0.0192
2779.0,0.0192
2778.0,0.0191
2777.0,0.019
2776.0,0.0189
2775.0,0.0187
2774.0,0.0186
2773.0,0.0185
2772.0,0.0184
2771.0,0.0183
2770.0,0.0182
2769.0,0.0181
2768.0,0.0181
2767.0,0.0181
2766.0,0.018
2765.0,0.0179
2764.0,0.0179
2763.0,0.0178
2762.0,0.0177
2761.0,0.0176
2760.0,0.0175
2759.0,0.0174
2758.0,0.0173
2757.0,0.0172
2756.0,0.0172
2755.0,0.0172
2754.0,0.0173
2753.0,0.0173
2752.0,0.0172
2751.0,0.0172
2750.0,0.0171
2749.0,0.017
2748.0,0.0169
2747.0,0.0168
2746.0,0.0168
2745.0,0.0169
2744.0,0.0169
2743.0,0.0169
2742.0,0.017
2741.0,0.017
2740.0,0.0171
2739.0,0.0171
2738.0,0.0172
2737.0,0.0172
2736.0,0.0173
2735.0,0.0174
2734.0,0.0176
2733.0,0.0177
2732.0,0.0178
2731.0,0.0178
2730.0,0.0179
2729.0,0.018
2728.0,0.0181
2727.0,0.0184
2726.0,0.0186
2725.0,0.0188
2724.0,0.0189
2723.0,0.0189
2722.0,0.0189
2721.0,0.0188
2720.0,0.0186
2719.0,0.0184
2718.0,0.0182
2717.0,0.018
2716.0,0.0178
2715.0,0.0176
2714.0,0.0174
2713.0,0.0173
2712.0,0.0172
2711.0,0.0171
2710.0,0.0169
2709.0,0.0168
2708.0,0.0166
2707.0,0.0165
2706.0,0.0164
2705.0,0.0164
2704.0,0.0164
2703.0,0.0163
2702.0,0.0162
2701.0,0.0161
2700.0,0.0161
2699.0,0.016
2698.0,0.016
2697.0,0.016
2696.0,0.0159
2695.0,0.0159
2694.0,0.0159
2693.0,0.0158
2692.0,0.0157
2691.0,0.0157
2690.0,0.0157
2689.0,0.0158
2688.0,0.0158
2687.0,0.0159
2686.0,0.0159
2685.0,0.0159
2684.0,0.0158
2683.0,0.0158
2682.0,0.0157
2681.0,0.0156
2680.0,0.0156
2679.0,0.0155
2678.0,0.0155
2677.0,0.0155
2676.0,0.0155
2675.0,0.0155
2674.0,0.0155
2673.0,0.0155
2672.0,0.0155
2671.0,0.0155
2670.0,0.0156
2669.0,0.0156
2668.0,0.0156
2667.0,0.0155
2666.0,0.0155
2665.0,0.0155
2664.0,0.0155
2663.0,0.0155
2662.0,0.0155
2661.0,0.0155
2660.0,0.0155
2659.0,0.0154
2658.0,0.0152
2657.0,0.0151
2656.0,0.0151
2655.0,0.0151
2654.0,0.0152
2653.0,0.0152
2652.0,0.0151
2651.0,0.015
2650.0,0.0149
2649.0,0.0148
2648.0,0.0148
2647.0,0.0148
2646.0,0.0149
2645.0,0.0149
2644.0,0.0148
2643.0,0.0147
2642.0,0.0146
2641.0,0.0145
2640.0,0.0145
2639.0,0.0145
2638.0,0.0144
2637.0,0.0145
2636.0,0.0145
2635.0,0.0145
2634.0,0.0145
2633.0,0.0145
2632.0,0.0145
2631.0,0.0145
2630.0,0.0146
2629.0,0.0146
2628.0,0.0147
2627.0,0.0146
2626.0,0.0146
2625.0,0.0146
2624.0,0.0146
2623.0,0.0147
2622.0,0.0147
2621.0,0.0147
2620.0,0.0147
2619.0,0.0147
2618.0,0.0147
2617.0,0.0147
2616.0,0.0147
2615.0,0.0147
2614.0,0.0147
2613.0,0.0147
2612.0,0.0147
2611.0,0.0146
2610.0,0.0146
2609.0,0.0145
2608.0,0.0144
2607.0,0.0144
2606.0,0.0144
2605.0,0.0144
2604.0,0.0144
2603.0,0.0144
2602.0,0.0143
2601.0,0.0142
2600.0,0.0141
2599.0,0.0141
2598.0,0.0141
2597.0,0.0142
2596.0,0.0142
2595.0,0.0142
2594.0,0.0142
2593.0,0.0142
2592.0,0.0142
2591.0,0.0143
2590.0,0.0143
2589.0,0.0144
2588.0,0.0145
2587.0,0.0146
2586.0,0.0147
2585.0,0.0147
2584.0,0.0147
2583.0,0.0147
2582.0,0.0147
2581.0,0.0147
2580.0,0.0147
2579.0,0.0147
2578.0,0.0146
2577.0,0.0145
2576.0,0.0144
2575.0,0.0144
2574.0,0.0143
2573.0,0.0143
2572.0,0.0142
2571.0,0.0142
2570.0,0.0141
2569.0,0.014
2568.0,0.0139
2567.0,0.0139
2566.0,0.0139
2565.0,0.0139
2564.0,0.0139
2563.0,0.0139
2562.0,0.0138
2561.0,0.0138
2560.0,0.0137
2559.0,0.0137
2558.0,0.0137
2557.0,0.0138
2556.0,0.0138
2555.0,0.0139
2554.0,0.0138
2553.0,0.0138
2552.0,0.0138
2551.0,0.0138
2550.0,0.0137
2549.0,0.0136
2548.0,0.0136
2547.0,0.0136
2546.0,0.0136
2545.0,0.0135
2544.0,0.0134
2543.0,0.0133
2542.0,0.0132
2541.0,0.0132
2540.0,0.0133
2539.0,0.0133
2538.0,0.0134
2537.0,0.0133
2536.0,0.0133
2535.0,0.0132
2534.0,0.0132
2533.0,0.0132
2532.0,0.0133
2531.0,0.0134
2530.0,0.0134
2529.0,0.0134
2528.0,0.0134
2527.0,0.0133
2526.0,0.0133
2525.0,0.0132
2524.0,0.0132
2523.0,0.0132
2522.0,0.0132
2521.0,0.0132
2520.0,0.0132
2519.0,0.0132
2518.0,0.0131
2517.0,0.013
2516.0,0.013
2515.0,0.013
2514.0,0.0131
2513.0,0.0132
2512.0,0.0132
2511.0,0.0132
2510.0,0.0131
2509.0,0.0131
2508.0,0.0131
2507.0,0.013
2506.0,0.0129
2505.0,0.0129
2504.0,0.0129
2503.0,0.0129
2502.0,0.0129
2501.0,0.0129
2500.0,0.0129
2499.0,0.0129
2498.0,0.0129
2497.0,0.0128
2496.0,0.0128
2495.0,0.0128
2494.0,0.0128
2493.0,0.0129
2492.0,0.0129
2491.0,0.0129
2490.0,0.0129
2489.0,0.0128
2488.0,0.0128
2487.0,0.0128
2486.0,0.0128
2485.0,0.0128
2484.0,0.0128
2483.0,0.0128
2482.0,0.0128
2481.0,0.0127
2480.0,0.0128
2479.0,0.0128
2478.0,0.0129
2477.0,0.0129
2476.0,0.0129
2475.0,0.0129
2474.0,0.0129
2473.0,0.0129
2472.0,0.0129
2471.0,0.0129
2470.0,0.0128
2469.0,0.0128
2468.0,0.0129
2467.0,0.0128
2466.0,0.0128
2465.0,0.0128
2464.0,0.0127
2463.0,0.0128
2462.0,0.0128
2461.0,0.0127
2460.0,0.0127
2459.0,0.0126
2458.0,0.0126
2457.0,0.0126
2456.0,0.0127
2455.0,0.0127
2454.0,0.0127
2453.0,0.0126
2452.0,0.0125
2451.0,0.0125
2450.0,0.0125
2449.0,0.0125
2448.0,0.0125
2447.0,0.0126
2446.0,0.0126
2445.0,0.0127
2444.0,0.0128
2443.0,0.0127
2442.0,0.0127
2441.0,0.0127
2440.0,0.0128
2439.0,0.0128
2438.0,0.0128
2437.0,0.0129
2436.0,0.0129
2435.0,0.013
2434.0,0.013
2433.0,0.013
2432.0,0.013
2431.0,0.013
2430.0,0.013
2429.0,0.0129
2428.0,0.0129
2427.0,0.0129
2426.0,0.0128
2425.0,0.0128
2424.0,0.0128
2423.0,0.0128
2422.0,0.0128
2421.0,0.0129
2420.0,0.0129
2419.0,0.013
2418.0,0.013
2417.0,0.0129
2416.0,0.0129
2415.0,0.0129
2414.0,0.0129
2413.0,0.0129
2412.0,0.0129
2411.0,0.0128
2410.0,0.0128
2409.0,0.0128
2408.0,0.0128
2407.0,0.0129
2406.0,0.0129
2405.0,0.013
2404.0,0.0129
2403.0,0.0129
2402.0,0.0129
2401.0,0.0129
2400.0,0.0129
2399.0,0.0129
2398.0,0.0129
2397.0,0.0129
2396.0,0.0129
2395.0,0.013
2394.0,0.013
2393.0,0.013
2392.0,0.0129
2391.0,0.0129
2390.0,0.0129
2389.0,0.013
2388.0,0.0131
2387.0,0.0133
2386.0,0.0134
2385.0,0.0136
2384.0,0.0138
2383.0,0.0139
2382.0,0.0139
2381.0,0.0139
2380.0,0.0138
2379.0,0.0137
2378.0,0.0137
2377.0,0.0137
2376.0,0.0137
2375.0,0.0138
2374.0,0.0141
2373.0,0.0143
2372.0,0.0144
2371.0,0.0144
2370.0,0.0143
2369.0,0.0142
2368.0,0.0143
2367.0,0.0147
2366.0,0.0152
2365.0,0.0156
2364.0,0.0154
2363.0,0.0147
2362.0,0.0142
2361.0,0.0143
2360.0,0.0146
2359.0,0.0147
2358.0,0.0142
2357.0,0.0137
2356.0,0.0137
2355.0,0.0144
2354.0,0.015
2353.0,0.0152
2352.0,0.015
2351.0,0.0148
2350.0,0.0148
2349.0,0.0149
2348.0,0.0148
2347.0,0.0148
2346.0,0.0151
2345.0,0.0157
2344.0,0.0165
2343.0,0.0169
2342.0,0.0165
2341.0,0.0154
2340.0,0.0144
2339.0,0.0142
2338.0,0.0146
2337.0,0.015
2336.0,0.0149
2335.0,0.0145
2334.0,0.0141
2333.0,0.014
2332.0,0.0141
2331.0,0.0144
2330.0,0.0147
2329.0,0.0148
2328.0,0.0146
2327.0,0.0143
2326.0,0.0141
2325.0,0.0138
2324.0,0.0136
2323.0,0.0135
2322.0,0.0136
2321.0,0.014
2320.0,0.0143
2319.0,0.0145
2318.0,0.0146
2317.0,0.0146
2316.0,0.0145
2315.0,0.0144
2314.0,0.0142
2313.0,0.0142
2312.0,0.0144
2311.0,0.0146
2310.0,0.0147
2309.0,0.0146
2308.0,0.0144
2307.0,0.0141
2306.0,0.014
2305.0,0.0141
2304.0,0.0142
2303.0,0.0142
2302.0,0.0143
2301.0,0.0143
2300.0,0.0143
2299.0,0.0143
2298.0,0.0142
2297.0,0.0141
2296.0,0.014
2295.0,0.0139
2294.0,0.0138
2293.0,0.0137
2292.0,0.0136
2291.0,0.0136
2290.0,0.0135
2289.0,0.0135
2288.0,0.0134
2287.0,0.0133
2286.0,0.0132
2285.0,0.0131
2284.0,0.0131
2283.0,0.013
2282.0,0.013
2281.0,0.0131
2280.0,0.0131
2279.0,0.0131
2278.0,0.0132
2277.0,0.0132
2276.0,0.0132
2275.0,0.0132
2274.0,0.0132
2273.0,0.0132
2272.0,0.0131
2271.0,0.0131
2270.0,0.0131
2269.0,0.0131
2268.0,0.0131
2267.0,0.0132
2266.0,0.0132
2265.0,0.0132
2264.0,0.0133
2263.0,0.0133
2262.0,0.0133
2261.0,0.0133
2260.0,0.0132
2259.0,0.0131
2258.0,0.0131
2257.0,0.0131
2256.0,0.0131
2255.0,0.0131
2254.0,0.0131
2253.0,0.0131
2252.0,0.0131
2251.0,0.013
2250.0,0.013
2249.0,0.013
2248.0,0.013
2247.0,0.0129
2246.0,0.0128
2245.0,0.0129
2244.0,0.0129
2243.0,0.0129
2242.0,0.0129
2241.0,0.0129
2240.0,0.0129
2239.0,0.0129
2238.0,0.013
2237.0,0.013
2236.0,0.013
2235.0,0.013
2234.0,0.0131
2233.0,0.0131
2232.0,0.0131
2231.0,0.0131
2230.0,0.0131
2229.0,0.0131
2228.0,0.0131
2227.0,0.0131
2226.0,0.0131
2225.0,0.0131
2224.0,0.013
2223.0,0.013
2222.0,0.013
2221.0,0.0129
2220.0,0.0129
2219.0,0.0129
2218.0,0.0129
2217.0,0.0129
2216.0,0.0129
2215.0,0.013
2214.0,0.013
2213.0,0.013
2212.0,0.013
2211.0,0.013
2210.0,0.013
2209.0,0.013
2208.0,0.013
2207.0,0.013
2206.0,0.013
2205.0,0.0131
2204.0,0.0131
2203.0,0.013
2202.0,0.013
2201.0,0.013
2200.0,0.013
2199.0,0.013
2198.0,0.0131
2197.0,0.0131
2196.0,0.0132
2195.0,0.0132
2194.0,0.0131
2193.0,0.0132
2192.0,0.0132
2191.0,0.0132
2190.0,0.0132
2189.0,0.0132
2188.0,0.0132
2187.0,0.0131
2186.0,0.0131
2185.0,0.0131
2184.0,0.0131
2183.0,0.0131
2182.0,0.0131
2181.0,0.0131
2180.0,0.0131
2179.0,0.0132
2178.0,0.0132
2177.0,0.0132
2176.0,0.0132
2175.0,0.0132
2174.0,0.0132
2173.0,0.0132
2172.0,0.0131
2171.0,0.0132
2170.0,0.0132
2169.0,0.0133
2168.0,0.0133
2167.0,0.0133
2166.0,0.0133
2165.0,0.0133
2164.0,0.0133
2163.0,0.0133
2162.0,0.0132
2161.0,0.0132
2160.0,0.0132
2159.0,0.0132
2158.0,0.0132
2157.0,0.0132
2156.0,0.0132
2155.0,0.0133
2154.0,0.0133
2153.0,0.0133
2152.0,0.0133
2151.0,0.0132
2150.0,0.0132
2149.0,0.0132
2148.0,0.0132
2147.0,0.0132
2146.0,0.0132
2145.0,0.0132
2144.0,0.0133
2143.0,0.0133
2142.0,0.0132
2141.0,0.0132
2140.0,0.0133
2139.0,0.0133
2138.0,0.0133
2137.0,0.0133
2136.0,0.0133
2135.0,0.0133
2134.0,0.0133
2133.0,0.0133
2132.0,0.0133
2131.0,0.0133
2130.0,0.0133
2129.0,0.0133
2128.0,0.0133
2127.0,0.0133
2126.0,0.0133
2125.0,0.0132
2124.0,0.0132
2123.0,0.0132
2122.0,0.0132
2121.0,0.0133
2120.0,0.0133
2119.0,0.0133
2118.0,0.0133
2117.0,0.0133
2116.0,0.0133
2115.0,0.0133
2114.0,0.0133
2113.0,0.0132
2112.0,0.0132
2111.0,0.0132
2110.0,0.0132
2109.0,0.0132
2108.0,0.0132
2107.0,0.0132
2106.0,0.0132
2105.0,0.0132
2104.0,0.0133
2103.0,0.0133
2102.0,0.0133
2101.0,0.0133
2100.0,0.0133
2099.0,0.0133
2098.0,0.0132
2097.0,0.0132
2096.0,0.0132
2095.0,0.0132
2094.0,0.0132
2093.0,0.0132
2092.0,0.0132
2091.0,0.0133
2090.0,0.0133
2089.0,0.0133
2088.0,0.0133
2087.0,0.0133
2086.0,0.0133
2085.0,0.0133
2084.0,0.0134
2083.0,0.0134
2082.0,0.0135
2081.0,0.0135
2080.0,0.0134
2079.0,0.0134
2078.0,0.0133
2077.0,0.0133
2076.0,0.0132
2075.0,0.0132
2074.0,0.0132
2073.0,0.0133
2072.0,0.0134
2071.0,0.0134
2070.0,0.0135
2069.0,0.0135
2068.0,0.0134
2067.0,0.0134
2066.0,0.0134
2065.0,0.0134
2064.0,0.0134
2063.0,0.0134
2062.0,0.0134
2061.0,0.0134
2060.0,0.0134
2059.0,0.0134
2058.0,0.0134
2057.0,0.0135
2056.0,0.0135
2055.0,0.0135
2054.0,0.0134
2053.0,0.0134
2052.0,0.0133
2051.0,0.0133
2050.0,0.0133
2049.0,0.0134
2048.0,0.0134
2047.0,0.0135
2046.0,0.0135
2045.0,0.0134
2044.0,0.0134
2043.0,0.0134
2042.0,0.0134
2041.0,0.0135
2040.0,0.0135
2039.0,0.0135
2038.0,0.0134
2037.0,0.0134
2036.0,0.0134
2035.0,0.0135
2034.0,0.0135
2033.0,0.0135
2032.0,0.0135
2031.0,0.0134
2030.0,0.0135
2029.0,0.0135
2028.0,0.0136
2027.0,0.0136
2026.0,0.0136
2025.0,0.0136
2024.0,0.0136
2023.0,0.0136
2022.0,0.0135
2021.0,0.0135
2020.0,0.0135
2019.0,0.0136
2018.0,0.0136
2017.0,0.0135
2016.0,0.0135
2015.0,0.0135
2014.0,0.0135
2013.0,0.0135
2012.0,0.0135
2011.0,0.0136
2010.0,0.0137
2009.0,0.0137
2008.0,0.0137
2007.0,0.0137
2006.0,0.0137
2005.0,0.0137
2004.0,0.0137
2003.0,0.0137
2002.0,0.0137
2001.0,0.0137
2000.0,0.0138
1999.0,0.0138
1998.0,0.0138
1997.0,0.0137
1996.0,0.0136
1995.0,0.0136
1994.0,0.0137
1993.0,0.0138
1992.0,0.0138
1991.0,0.0138
1990.0,0.0137
1989.0,0.0137
1988.0,0.0137
1987.0,0.0137
1986.0,0.0137
1985.0,0.0138
1984.0,0.0138
1983.0,0.0138
1982.0,0.0138
1981.0,0.0138
1980.0,0.0138
1979.0,0.0139
1978.0,0.0139
1977.0,0.0139
1976.0,0.0138
1975.0,0.0138
1974.0,0.0137
1973.0,0.0137
1972.0,0.0137
1971.0,0.0137
1970.0,0.0138
1969.0,0.0138
1968.0,0.0139
1967.0,0.014
1966.0,0.014
1965.0,0.0139
1964.0,0.0139
1963.0,0.0138
1962.0,0.0139
1961.0,0.0139
1960.0,0.014
1959.0,0.014
1958.0,0.0139
1957.0,0.0139
1956.0,0.0139
1955.0,0.014
1954.0,0.0139
1953.0,0.0139
1952.0,0.0139
1951.0,0.0139
1950.0,0.0138
1949.0,0.0139
1948.0,0.0139
1947.0,0.014
1946.0,0.0141
1945.0,0.0141
1944.0,0.0141
1943.0,0.0141
1942.0,0.0141
1941.0,0.014
1940.0,0.0141
1939.0,0.0141
1938.0,0.0141
1937.0,0.0141
1936.0,0.0142
1935.0,0.0142
1934.0,0.0142
1933.0,0.0142
1932.0,0.0142
1931.0,0.0142
1930.0,0.0142
1929.0,0.0142
1928.0,0.0142
1927.0,0.0142
1926.0,0.0142
1925.0,0.0142
1924.0,0.0141
1923.0,0.0141
1922.0,0.0142
1921.0,0.0142
1920.0,0.0143
1919.0,0.0143
1918.0,0.0143
1917.0,0.0143
1916.0,0.0143
1915.0,0.0143
1914.0,0.0144
1913.0,0.0144
1912.0,0.0144
1911.0,0.0144
1910.0,0.0143
1909.0,0.0144
1908.0,0.0144
1907.0,0.0144
1906.0,0.0144
1905.0,0.0144
1904.0,0.0144
1903.0,0.0145
1902.0,0.0144
1901.0,0.0144
1900.0,0.0144
1899.0,0.0143
1898.0,0.0143
1897.0,0.0144
1896.0,0.0144
1895.0,0.0145
1894.0,0.0145
1893.0,0.0145
1892.0,0.0146
1891.0,0.0146
1890.0,0.0146
1889.0,0.0145
1888.0,0.0145
1887.0,0.0145
1886.0,0.0146
1885.0,0.0146
1884.0,0.0146
1883.0,0.0146
1882.0,0.0146
1881.0,0.0145
1880.0,0.0145
1879.0,0.0145
1878.0,0.0145
1877.0,0.0146
1876.0,0.0145
1875.0,0.0145
1874.0,0.0145
1873.0,0.0145
1872.0,0.0145
1871.0,0.0146
1870.0,0.0146
1869.0,0.0147
1868.0,0.0147
1867.0,0.0146
1866.0,0.0146
1865.0,0.0146
1864.0,0.0146
1863.0,0.0146
1862.0,0.0145
1861.0,0.0146
1860.0,0.0146
1859.0,0.0146
1858.0,0.0147
1857.0,0.0147
1856.0,0.0147
1855.0,0.0147
1854.0,0.0147
1853.0,0.0147
1852.0,0.0147
1851.0,0.0147
1850.0,0.0147
1849.0,0.0147
1848.0,0.0148
1847.0,0.0148
1846.0,0.0149
1845.0,0.0149
1844.0,0.015
1843.0,0.015
1842.0,0.015
1841.0,0.015
1840.0,0.015
1839.0,0.0149
1838.0,0.0148
1837.0,0.0148
1836.0,0.0148
1835.0,0.0149
1834.0,0.0149
1833.0,0.0148
1832.0,0.0148
1831.0,0.0147
1830.0,0.0147
1829.0,0.0147
1828.0,0.0148
1827.0,0.0148
1826.0,0.0148
1825.0,0.0148
1824.0,0.0149
1823.0,0.0149
1822.0,0.0149
1821.0,0.0149
1820.0,0.0149
1819.0,0.015
1818.0,0.0149
1817.0,0.0149
1816.0,0.0149
1815.0,0.0149
1814.0,0.0149
1813.0,0.0149
1812.0,0.0149
1811.0,0.0149
1810.0,0.0149
1809.0,0.0149
1808.0,0.015
1807.0,0.015
1806.0,0.0151
1805.0,0.0151
1804.0,0.0151
1803.0,0.015
1802.0,0.015
1801.0,0.015
1800.0,0.0151
1799.0,0.0151
1798.0,0.0151
1797.0,0.0151
1796.0,0.0151
1795.0,0.0152
1794.0,0.0152
1793.0,0.0152
1792.0,0.0152
1791.0,0.0152
1790.0,0.0152
1789.0,0.0153
1788.0,0.0153
1787.0,0.0153
1786.0,0.0153
1785.0,0.0153
1784.0,0.0153
1783.0,0.0153
1782.0,0.0153
1781.0,0.0153
1780.0,0.0153
1779.0,0.0153
1778.0,0.0153
1777.0,0.0153
1776.0,0.0153
1775.0,0.0153
1774.0,0.0153
1773.0,0.0153
1772.0,0.0152
1771.0,0.0152
1770.0,0.0153
1769.0,0.0154
1768.0,0.0154
1767.0,0.0154
1766.0,0.0154
1765.0,0.0154
1764.0,0.0154
1763.0,0.0155
1762.0,0.0154
1761.0,0.0155
1760.0,0.0155
1759.0,0.0156
1758.0,0.0157
1757.0,0.0157
1756.0,0.0157
1755.0,0.0157
1754.0,0.0157
1753.0,0.0158
1752.0,0.0159
1751.0,0.016
1750.0,0.0161
1749.0,0.0162
1748.0,0.0163
1747.0,0.0163
1746.0,0.0163
1745.0,0.0162
1744.0,0.0162
1743.0,0.0163
1742.0,0.0163
1741.0,0.0163
1740.0,0.0163
1739.0,0.0162
1738.0,0.0162
1737.0,0.0162
1736.0,0.0162
1735.0,0.0162
1734.0,0.0162
1733.0,0.0161
1732.0,0.0161
1731.0,0.0162
1730.0,0.0162
1729.0,0.0162
1728.0,0.0162
1727.0,0.0162
1726.0,0.0162
1725.0,0.0162
1724.0,0.0163
1723.0,0.0163
1722.0,0.0163
1721.0,0.0164
1720.0,0.0165
1719.0,0.0165
1718.0,0.0166
1717.0,0.0167
1716.0,0.0166
1715.0,0.0165
1714.0,0.0165
1713.0,0.0165
1712.0,0.0165
1711.0,0.0166
1710.0,0.0166
1709.0,0.0167
1708.0,0.0167
1707.0,0.0167
1706.0,0.0167
1705.0,0.0167
1704.0,0.0169
1703.0,0.017
1702.0,0.0172
1701.0,0.0172
1700.0,0.0171
1699.0,0.0169
1698.0,0.0169
1697.0,0.017
1696.0,0.0172
1695.0,0.0172
1694.0,0.0173
1693.0,0.0174
1692.0,0.0174
1691.0,0.0173
1690.0,0.0173
1689.0,0.0173
1688.0,0.0175
1687.0,0.0176
1686.0,0.0176
1685.0,0.0177
1684.0,0.0178
1683.0,0.0177
1682.0,0.0178
1681.0,0.0179
1680.0,0.018
1679.0,0.0181
1678.0,0.0181
1677.0,0.0182
1676.0,0.0183
1675.0,0.0183
1674.0,0.0182
1673.0,0.0182
1672.0,0.0181
1671.0,0.0182
1670.0,0.0183
1669.0,0.0184
1668.0,0.0185
1667.0,0.0185
1666.0,0.0185
1665.0,0.0185
1664.0,0.0185
1663.0,0.0185
1662.0,0.0186
1661.0,0.0186
1660.0,0.0187
1659.0,0.0187
1658.0,0.0186
1657.0,0.0186
1656.0,0.0185
1655.0,0.0184
1654.0,0.0185
1653.0,0.0188
1652.0,0.0187
1651.0,0.0186
1650.0,0.0187
1649.0,0.0186
1648.0,0.0187
1647.0,0.0189
1646.0,0.019
1645.0,0.019
1644.0,0.019
1643.0,0.019
1642.0,0.019
1641.0,0.0189
1640.0,0.0189
1639.0,0.0189
1638.0,0.0188
1637.0,0.0188
1636.0,0.0189
1635.0,0.0189
1634.0,0.0188
1633.0,0.0188
1632.0,0.0188
1631.0,0.0187
1630.0,0.0186
1629.0,0.0185
1628.0,0.0185
1627.0,0.0185
1626.0,0.0185
1625.0,0.0185
1624.0,0.0184
1623.0,0.0184
1622.0,0.0184
1621.0,0.0184
1620.0,0.0184
1619.0,0.0184
1618.0,0.0183
1617.0,0.0182
1616.0,0.0181
1615.0,0.0181
1614.0,0.0182
1613.0,0.0183
1612.0,0.0182
1611.0,0.0182
1610.0,0.0181
1609.0,0.018
1608.0,0.0179
1607.0,0.0179
1606.0,0.018
1605.0,0.018
1604.0,0.018
1603.0,0.018
1602.0,0.0179
1601.0,0.0179
1600.0,0.0179
1599.0,0.0179
1598.0,0.0178
1597.0,0.0178
1596.0,0.0177
1595.0,0.0177
1594.0,0.0176
1593.0,0.0176
1592.0,0.0176
1591.0,0.0176
1590.0,0.0176
1589.0,0.0176
1588.0,0.0177
1587.0,0.0177
1586.0,0.0177
1585.0,0.0178
1584.0,0.0178
1583.0,0.0178
1582.0,0.0177
1581.0,0.0177
1580.0,0.0176
1579.0,0.0176
1578.0,0.0176
1577.0,0.0177
1576.0,0.0178
1575.0,0.0177
1574.0,0.0177
1573.0,0.0177
1572.0,0.0177
1571.0,0.0177
1570.0,0.0177
1569.0,0.0177
1568.0,0.0177
1567.0,0.0177
1566.0,0.0177
1565.0,0.0176
1564.0,0.0176
1563.0,0.0176
1562.0,0.0176
1561.0,0.0175
1560.0,0.0174
1559.0,0.0176
1558.0,0.0175
1557.0,0.0175
1556.0,0.0176
1555.0,0.0176
1554.0,0.0176
1553.0,0.0176
1552.0,0.0176
1551.0,0.0176
1550.0,0.0176
1549.0,0.0176
1548.0,0.0177
1547.0,0.0177
1546.0,0.0176
1545.0,0.0175
1544.0,0.0173
1543.0,0.0172
1542.0,0.0169
1541.0,0.0169
1540.0,0.0171
1539.0,0.0171
1538.0,0.0171
1537.0,0.0173
1536.0,0.0174
1535.0,0.0174
1534.0,0.0173
1533.0,0.0172
1532.0,0.0172
1531.0,0.0171
1530.0,0.017
1529.0,0.017
1528.0,0.0171
1527.0,0.0171
1526.0,0.0171
1525.0,0.0172
1524.0,0.0173
1523.0,0.0174
1522.0,0.0175
1521.0,0.0175
1520.0,0.0175
1519.0,0.0174
1518.0,0.0174
1517.0,0.0174
1516.0,0.0173
1515.0,0.0172
1514.0,0.0171
1513.0,0.0171
1512.0,0.0171
1511.0,0.0172
1510.0,0.0171
1509.0,0.0171
1508.0,0.0172
1507.0,0.0173
1506.0,0.0172
1505.0,0.0171
1504.0,0.0171
1503.0,0.0172
1502.0,0.0171
1501.0,0.0171
1500.0,0.0172
1499.0,0.0171
1498.0,0.0171
1497.0,0.0172
1496.0,0.0174
1495.0,0.0174
1494.0,0.0174
1493.0,0.0175
1492.0,0.0175
1491.0,0.0175
1490.0,0.0176
1489.0,0.0179
1488.0,0.0181
1487.0,0.0182
1486.0,0.0183
1485.0,0.0185
1484.0,0.0187
1483.0,0.0189
1482.0,0.0192
1481.0,0.0197
1480.0,0.0202
1479.0,0.0208
1478.0,0.0214
1477.0,0.0223
1476.0,0.0235
1475.0,0.0248
1474.0,0.0269
1473.0,0.0306
1472.0,0.0349
1471.0,0.0385
1470.0,0.0417
1469.0,0.0451
1468.0,0.0489
1467.0,0.0532
1466.0,0.0587
1465.0,0.0653
1464.0,0.071
1463.0,0.0745
1462.0,0.0766
1461.0,0.0781
1460.0,0.0792
1459.0,0.0802
1458.0,0.0822
1457.0,0.0851
1456.0,0.0866
1455.0,0.0867
1454.0,0.0865
1453.0,0.086
1452.0,0.0852
1451.0,0.0836
1450.0,0.0813
1449.0,0.0778
1448.0,0.0729
1447.0,0.0676
1446.0,0.0628
1445.0,0.0586
1444.0,0.0547
1443.0,0.0514
1442.0,0.0488
1441.0,0.0469
1440.0,0.0456
1439.0,0.045
1438.0,0.045
1437.0,0.0454
1436.0,0.0452
1435.0,0.0438
1434.0,0.0417
1433.0,0.0392
1432.0,0.0365
1431.0,0.0341
1430.0,0.0322
1429.0,0.0307
1428.0,0.0296
1427.0,0.0288
1426.0,0.0282
1425.0,0.0276
1424.0,0.0271
1423.0,0.0267
1422.0,0.0265
1421.0,0.0262
1420.0,0.0258
1419.0,0.0256
1418.0,0.0255
1417.0,0.0252
1416.0,0.0249
1415.0,0.0247
1414.0,0.0246
1413.0,0.0244
1412.0,0.0241
1411.0,0.024
1410.0,0.0239
1409.0,0.0237
1408.0,0.0235
1407.0,0.0233
1406.0,0.0232
1405.0,0.0231
1404.0,0.023
1403.0,0.023
1402.0,0.0229
1401.0,0.0228
1400.0,0.0226
1399.0,0.0225
1398.0,0.0225
1397.0,0.0224
1396.0,0.0223
1395.0,0.0224
1394.0,0.0225
1393.0,0.0225
1392.0,0.0225
1391.0,0.0227
1390.0,0.023
1389.0,0.0234
1388.0,0.0244
1387.0,0.0262
1386.0,0.0287
1385.0,0.0321
1384.0,0.0369
1383.0,0.0439
1382.0,0.0531
1381.0,0.0649
1380.0,0.0795
1379.0,0.096
1378.0,0.1115
1377.0,0.1226
1376.0,0.1264
1375.0,0.1214
1374.0,0.1091
1373.0,0.0949
1372.0,0.0824
1371.0,0.0719
1370.0,0.0629
1369.0,0.0556
1368.0,0.0504
1367.0,0.0471
1366.0,0.0451
1365.0,0.0441
1364.0,0.0441
1363.0,0.0449
1362.0,0.0462
1361.0,0.0475
1360.0,0.0485
1359.0,0.0487
1358.0,0.048
1357.0,0.0465
1356.0,0.0444
1355.0,0.0421
1354.0,0.0399
1353.0,0.038
1352.0,0.0365
1351.0,0.0352
1350.0,0.034
1349.0,0.0331
1348.0,0.0323
1347.0,0.0316
1346.0,0.031
1345.0,0.0305
1344.0,0.03
1343.0,0.0295
1342.0,0.0291
1341.0,0.0288
1340.0,0.0286
1339.0,0.0285
1338.0,0.0284
1337.0,0.0284
1336.0,0.0283
1335.0,0.0284
1334.0,0.0285
1333.0,0.0287
1332.0,0.0289
1331.0,0.0291
1330.0,0.0292
1329.0,0.0292
1328.0,0.029
1327.0,0.0288
1326.0,0.0284
1325.0,0.0281
1324.0,0.0277
1323.0,0.0273
1322.0,0.027
1321.0,0.0268
1320.0,0.0267
1319.0,0.0266
1318.0,0.0264
1317.0,0.0263
1316.0,0.0261
1315.0,0.026
1314.0,0.0259
1313.0,0.0258
1312.0,0.0258
1311.0,0.0259
1310.0,0.0261
1309.0,0.0265
1308.0,0.0271
1307.0,0.0279
1306.0,0.0287
1305.0,0.0293
1304.0,0.0295
1303.0,0.0293
1302.0,0.0289
1301.0,0.0285
1300.0,0.0283
1299.0,0.0282
1298.0,0.0282
1297.0,0.0282
1296.0,0.0283
1295.0,0.0282
1294.0,0.028
1293.0,0.0277
1292.0,0.0273
1291.0,0.0271
1290.0,0.0268
1289.0,0.0266
1288.0,0.0264
1287.0,0.0263
1286.0,0.0261
1285.0,0.026
1284.0,0.0258
1283.0,0.0257
1282.0,0.0256
1281.0,0.0255
1280.0,0.0254
1279.0,0.0254
1278.0,0.0253
1277.0,0.0253
1276.0,0.0253
1275.0,0.0253
1274.0,0.0252
1273.0,0.0252
1272.0,0.0251
1271.0,0.0252
1270.0,0.0252
1269.0,0.0253
1268.0,0.0253
1267.0,0.0254
1266.0,0.0254
1265.0,0.0255
1264.0,0.0257
1263.0,0.0259
1262.0,0.0262
1261.0,0.0265
1260.0,0.0269
1259.0,0.0275
1258.0,0.0281
1257.0,0.0286
1256.0,0.029
1255.0,0.029
1254.0,0.0286
1253.0,0.0281
1252.0,0.0275
1251.0,0.027
1250.0,0.0267
1249.0,0.0264
1248.0,0.0262
1247.0,0.026
1246.0,0.0259
1245.0,0.0258
1244.0,0.0258
1243.0,0.0257
1242.0,0.0257
1241.0,0.0256
1240.0,0.0255
1239.0,0.0254
1238.0,0.0253
1237.0,0.0253
1236.0,0.0252
1235.0,0.0253
1234.0,0.0253
1233.0,0.0253
1232.0,0.0253
1231.0,0.0254
1230.0,0.0253
1229.0,0.0253
1228.0,0.0254
1227.0,0.0254
1226.0,0.0255
1225.0,0.0257
1224.0,0.0258
1223.0,0.026
1222.0,0.0262
1221.0,0.0263
1220.0,0.0264
1219.0,0.0265
1218.0,0.0265
1217.0,0.0265
1216.0,0.0264
1215.0,0.0263
1214.0,0.0262
1213.0,0.026
1212.0,0.0258
1211.0,0.0256
1210.0,0.0255
1209.0,0.0255
1208.0,0.0254
1207.0,0.0254
1206.0,0.0254
1205.0,0.0254
1204.0,0.0253
1203.0,0.0253
1202.0,0.0252
1201.0,0.0251
1200.0,0.025
1199.0,0.025
1198.0,0.025
1197.0,0.0251
1196.0,0.0251
1195.0,0.0251
1194.0,0.0251
1193.0,0.025
1192.0,0.025
1191.0,0.0249
1190.0,0.0249
1189.0,0.0249
1188.0,0.0249
1187.0,0.025
1186.0,0.025
1185.0,0.025
1184.0,0.025
1183.0,0.0251
1182.0,0.0251
1181.0,0.0253
1180.0,0.0254
1179.0,0.0257
1178.0,0.0261
1177.0,0.0267
1176.0,0.0275
1175.0,0.0287
1174.0,0.0303
1173.0,0.0322
1172.0,0.0345
1171.0,0.0369
1170.0,0.0392
1169.0,0.041
1168.0,0.042
1167.0,0.0423
1166.0,0.0417
1165.0,0.0408
1164.0,0.0397
1163.0,0.0386
1162.0,0.0376
1161.0,0.0368
1160.0,0.0361
1159.0,0.0356
1158.0,0.0352
1157.0,0.0349
1156.0,0.0348
1155.0,0.0347
1154.0,0.0346
1153.0,0.0344
1152.0,0.0342
1151.0,0.0338
1150.0,0.0333
1149.0,0.0327
1148.0,0.0321
1147.0,0.0315
1146.0,0.0309
1145.0,0.0304
1144.0,0.0299
1143.0,0.0294
1142.0,0.029
1141.0,0.0286
1140.0,0.0283
1139.0,0.028
1138.0,0.0277
1137.0,0.0275
1136.0,0.0273
1135.0,0.0272
1134.0,0.027
1133.0,0.0268
1132.0,0.0266
1131.0,0.0265
1130.0,0.0265
1129.0,0.0265
1128.0,0.0264
1127.0,0.0264
1126.0,0.0263
1125.0,0.0262
1124.0,0.0262
1123.0,0.0262
1122.0,0.0263
1121.0,0.0263
1120.0,0.0264
1119.0,0.0264
1118.0,0.0263
1117.0,0.0263
1116.0,0.0264
1115.0,0.0264
1114.0,0.0265
1113.0,0.0266
1112.0,0.0267
1111.0,0.0269
1110.0,0.0271
1109.0,0.0273
1108.0,0.0277
1107.0,0.028
1106.0,0.0284
1105.0,0.0287
1104.0,0.029
1103.0,0.0292
1102.0,0.0292
1101.0,0.0291
1100.0,0.0288
1099.0,0.0285
1098.0,0.0281
1097.0,0.0278
1096.0,0.0275
1095.0,0.0274
1094.0,0.0272
1093.0,0.0271
1092.0,0.027
1091.0,0.0268
1090.0,0.0267
1089.0,0.0265
1088.0,0.0264
1087.0,0.0263
1086.0,0.0263
1085.0,0.0263
1084.0,0.0264
1083.0,0.0264
1082.0,0.0265
1081.0,0.0266
1080.0,0.0266
1079.0,0.0266
1078.0,0.0265
1077.0,0.0264
1076.0,0.0263
1075.0,0.0261
1074.0,0.0259
1073.0,0.0257
1072.0,0.0257
1071.0,0.0256
1070.0,0.0256
1069.0,0.0256
1068.0,0.0257
1067.0,0.0258
1066.0,0.0258
1065.0,0.0258
1064.0,0.0258
1063.0,0.0258
1062.0,0.0258
1061.0,0.0258
1060.0,0.0258
1059.0,0.0258
1058.0,0.0258
1057.0,0.0259
1056.0,0.026
1055.0,0.026
1054.0,0.0261
1053.0,0.0261
1052.0,0.0263
1051.0,0.0264
1050.0,0.0265
1049.0,0.0267
1048.0,0.0269
1047.0,0.0271
1046.0,0.0274
1045.0,0.0275
1044.0,0.0276
1043.0,0.0275
1042.0,0.0274
1041.0,0.0272
1040.0,0.0271
1039.0,0.027
1038.0,0.0269
1037.0,0.0268
1036.0,0.0268
1035.0,0.0267
1034.0,0.0266
1033.0,0.0266
1032.0,0.0265
1031.0,0.0264
1030.0,0.0264
1029.0,0.0264
1028.0,0.0266
1027.0,0.0267
1026.0,0.0267
1025.0,0.0267
1024.0,0.0266
1023.0,0.0266
1022.0,0.0265
1021.0,0.0265
1020.0,0.0265
1019.0,0.0265
1018.0,0.0266
1017.0,0.0267
1016.0,0.0268
1015.0,0.027
1014.0,0.0271
1013.0,0.0272
1012.0,0.0273
1011.0,0.0274
1010.0,0.0276
1009.0,0.0278
1008.0,0.0281
1007.0,0.0285
1006.0,0.0291
1005.0,0.0299
1004.0,0.0312
1003.0,0.0329
1002.0,0.0352
1001.0,0.0382
1000.0,0.0414
999.0,0.0442
998.0,0.0458
997.0,0.0458
996.0,0.0443
995.0,0.0418
994.0,0.0391
993.0,0.0367
992.0,0.0347
991.0,0.0333
990.0,0.0323
989.0,0.0316
988.0,0.031
987.0,0.0306
986.0,0.0304
985.0,0.0304
984.0,0.0305
983.0,0.0309
982.0,0.0315
981.0,0.0325
980.0,0.034
979.0,0.0361
978.0,0.0388
977.0,0.0421
976.0,0.0455
975.0,0.0488
974.0,0.0514
973.0,0.0525
972.0,0.0519
971.0,0.0496
970.0,0.0464
969.0,0.0431
968.0,0.0403
967.0,0.0381
966.0,0.0365
965.0,0.0353
964.0,0.0344
963.0,0.0338
962.0,0.0333
961.0,0.0329
960.0,0.0326
959.0,0.0322
958.0,0.0319
957.0,0.0317
956.0,0.0315
955.0,0.0314
954.0,0.0313
953.0,0.0311
952.0,0.031
951.0,0.0309
950.0,0.0308
949.0,0.0308
948.0,0.0308
947.0,0.0309
946.0,0.0311
945.0,0.0312
944.0,0.0314
943.0,0.0314
942.0,0.0315
941.0,0.0317
940.0,0.0319
939.0,0.0319
938.0,0.0317
937.0,0.0315
936.0,0.0312
935.0,0.031
934.0,0.0308
933.0,0.0306
932.0,0.0306
931.0,0.0306
930.0,0.0307
929.0,0.0308
928.0,0.0309
927.0,0.0309
926.0,0.0308
925.0,0.0307
924.0,0.0306
923.0,0.0306
922.0,0.0306
921.0,0.0306
920.0,0.0307
919.0,0.0309
918.0,0.031
917.0,0.0312
916.0,0.0313
915.0,0.0313
914.0,0.0313
913.0,0.0312
912.0,0.0311
911.0,0.0311
910.0,0.0312
909.0,0.0313
908.0,0.0315
907.0,0.0319
906.0,0.0326
905.0,0.0334
904.0,0.0345
903.0,0.0357
902.0,0.0371
901.0,0.0383
900.0,0.0392
899.0,0.0396
898.0,0.0395
897.0,0.0389
896.0,0.038
895.0,0.037
894.0,0.0362
893.0,0.0356
892.0,0.0351
891.0,0.0347
890.0,0.0343
889.0,0.0342
888.0,0.0342
887.0,0.0342
886.0,0.0341
885.0,0.0341
884.0,0.034
883.0,0.034
882.0,0.034
881.0,0.034
880.0,0.034
879.0,0.0341
878.0,0.0342
877.0,0.0343
876.0,0.0343
875.0,0.0344
874.0,0.0344
873.0,0.0344
872.0,0.0344
871.0,0.0344
870.0,0.0345
869.0,0.0346
868.0,0.0346
867.0,0.0346
866.0,0.0347
865.0,0.0347
864.0,0.0349
863.0,0.035
862.0,0.035
861.0,0.0351
860.0,0.0351
859.0,0.0352
858.0,0.0353
857.0,0.0354
856.0,0.0355
855.0,0.0356
854.0,0.0357
853.0,0.0359
852.0,0.036
851.0,0.0362
850.0,0.0364
849.0,0.0367
848.0,0.0371
847.0,0.0379
846.0,0.0392
845.0,0.0413
844.0,0.0446
843.0,0.0484
842.0,0.0515
841.0,0.0527
840.0,0.0515
839.0,0.0488
838.0,0.0457
837.0,0.0432
836.0,0.0416
835.0,0.0406
834.0,0.04
833.0,0.0396
832.0,0.0393
831.0,0.0391
830.0,0.0389
829.0,0.0387
828.0,0.0385
827.0,0.0383
826.0,0.0382
825.0,0.0381
824.0,0.0381
823.0,0.0381
822.0,0.0381
821.0,0.0382
820.0,0.0382
819.0,0.0383
818.0,0.0384
817.0,0.0386
816.0,0.039
815.0,0.0398
814.0,0.0409
813.0,0.0421
812.0,0.0434
811.0,0.0445
810.0,0.0452
809.0,0.0455
808.0,0.0455
807.0,0.0452
806.0,0.0447
805.0,0.044
804.0,0.0431
803.0,0.0423
802.0,0.0416
801.0,0.0411
800.0,0.0408
799.0,0.0405
798.0,0.0402
797.0,0.0399
796.0,0.0397
795.0,0.0396
794.0,0.0396
793.0,0.0395
792.0,0.0394
791.0,0.0394
790.0,0.0394
789.0,0.0393
788.0,0.0392
787.0,0.0389
786.0,0.0387
785.0,0.0386
784.0,0.0385
783.0,0.0385
782.0,0.0384
781.0,0.0382
780.0,0.0381
779.0,0.0379
778.0,0.0379
777.0,0.038
776.0,0.0381
775.0,0.0382
774.0,0.0383
773.0,0.0385
772.0,0.0386
771.0,0.0387
770.0,0.0387
769.0,0.0387
768.0,0.0387
767.0,0.0387
766.0,0.0387
765.0,0.0388
764.0,0.0389
763.0,0.039
762.0,0.0389
761.0,0.0388
760.0,0.0388
759.0,0.0389
758.0,0.0391
757.0,0.0391
756.0,0.0388
755.0,0.0384
754.0,0.0381
753.0,0.0381
752.0,0.0383
751.0,0.0386
750.0,0.0389
749.0,0.0391
748.0,0.0392
747.0,0.0392
746.0,0.0392
745.0,0.0393
744.0,0.0394
743.0,0.0395
742.0,0.0394
741.0,0.0393
740.0,0.0392
739.0,0.0391
738.0,0.039
737.0,0.0389
736.0,0.039
735.0,0.0393
734.0,0.0396
733.0,0.0398
732.0,0.0399
731.0,0.0398
730.0,0.0397
729.0,0.0397
728.0,0.0399
727.0,0.0403
726.0,0.0407
725.0,0.0408
724.0,0.0409
723.0,0.0409
722.0,0.041
721.0,0.0411
720.0,0.0411
719.0,0.0409
718.0,0.0407
717.0,0.0406
716.0,0.0407
715.0,0.0407
714.0,0.0407
713.0,0.0406
712.0,0.0406
711.0,0.0408
710.0,0.0409
709.0,0.041
708.0,0.0409
707.0,0.0409
706.0,0.041
705.0,0.0412
704.0,0.0414
703.0,0.0414
702.0,0.0413
701.0,0.0413
700.0,0.0415
699.0,0.0418
698.0,0.042
697.0,0.0418
696.0,0.0417
695.0,0.0417
694.0,0.042
693.0,0.0425
692.0,0.0429
691.0,0.0432
690.0,0.0432
689.0,0.0429
688.0,0.0423
687.0,0.0416
686.0,0.0411
685.0,0.0412
684.0,0.0414
683.0,0.0415
682.0,0.0414
681.0,0.0413
680.0,0.0418
679.0,0.0416
678.0,0.0438
677.0,0.0449
676.0,0.0445
675.0,0.0452
674.0,0.0455
673.0,0.0459
672.0,0.046
671.0,0.0458
670.0,0.0454
669.0,0.0447
668.0,0.0442
667.0,0.0439
666.0,0.0436
665.0,0.0436
664.0,0.0437
663.0,0.0441
662.0,0.0439
661.0,0.0439
660.0,0.042
659.0,0.0411
658.0,0.0414
657.0,0.0414
656.0,0.0415
655.0,0.0414
654.0,0.0412
653.0,0.041
652.0,0.0409
651.0,0.0409
650.0,0.041
649.0,0.0415
648.0,0.0423
647.0,0.0429
646.0,0.043
645.0,0.0424
644.0,0.0418
643.0,0.0416
642.0,0.0416
641.0,0.0416
640.0,0.0416
639.0,0.0419
638.0,0.0427
637.0,0.0441
636.0,0.0455
635.0,0.0462
634.0,0.0456
633.0,0.0441
632.0,0.0425
631.0,0.0414
630.0,0.0413
629.0,0.042
628.0,0.0433
627.0,0.0442
626.0,0.0445
625.0,0.0443
624.0,0.0443
623.0,0.0448
622.0,0.0457
621.0,0.0465
620.0,0.047
619.0,0.0471
618.0,0.047
617.0,0.0472
616.0,0.0475
615.0,0.0474
614.0,0.0467
613.0,0.0458
612.0,0.0452
611.0,0.0451
610.0,0.0451
609.0,0.0451
608.0,0.0454
607.0,0.0459
606.0,0.0463
605.0,0.0463
604.0,0.046
603.0,0.0457
602.0,0.0456
601.0,0.0461
600.0,0.0473
