cm-1,A
4000.0,-0.0043
3999.0,-0.0043
3998.0,-0.0043
3997.0,-0.0044
3996.0,-0.0044
3995.0,-0.0043
3994.0,-0.0043
3993.0,-0.0043
3992.0,-0.0042
3991.0,-0.0043
3990.0,-0.0043
3989.0,-0.0043
3988.0,-0.0044
3987.0,-0.0044
3986.0,-0.0044
3985.0,-0.0044
3984.0,-0.0044
3983.0,-0.0044
3982.0,-0.0044
3981.0,-0.0044
3980.0,-0.0044
3979.0,-0.0044
3978.0,-0.0044
3977.0,-0.0044
3976.0,-0.0044
3975.0,-0.0044
3974.0,-0.0044
3973.0,-0.0044
3972.0,-0.0044
3971.0,-0.0045
3970.0,-0.0045
3969.0,-0.0046
3968.0,-0.0046
3967.0,-0.0045
3966.0,-0.0044
3965.0,-0.0043
3964.0,-0.0043
3963.0,-0.0043
3962.0,-0.0044
3961.0,-0.0044
3960.0,-0.0045
3959.0,-0.0045
3958.0,-0.0045
3957.0,-0.0045
3956.0,-0.0045
3955.0,-0.0045
3954.0,-0.0044
3953.0,-0.0043
3952.0,-0.0042
3951.0,-0.0042
3950.0,-0.0042
3949.0,-0.0042
3948.0,-0.0043
3947.0,-0.0043
3946.0,-0.0042
3945.0,-0.0043
3944.0,-0.0043
3943.0,-0.0044
3942.0,-0.0044
3941.0,-0.0044
3940.0,-0.0044
3939.0,-0.0044
3938.0,-0.0044
3937.0,-0.0045
3936.0,-0.0045
3935.0,-0.0045
3934.0,-0.0044
3933.0,-0.0043
3932.0,-0.0043
3931.0,-0.0043
3930.0,-0.0043
3929.0,-0.0043
3928.0,-0.0043
3927.0,-0.0043
3926.0,-0.0043
3925.0,-0.0044
3924.0,-0.0044
3923.0,-0.0045
3922.0,-0.0046
3921.0,-0.0047
3920.0,-0.0047
3919.0,-0.0047
3918.0,-0.0047
3917.0,-0.0047
3916.0,-0.0046
3915.0,-0.0046
3914.0,-0.0046
3913.0,-0.0046
3912.0,-0.0046
3911.0,-0.0046
3910.0,-0.0046
3909.0,-0.0046
3908.0,-0.0046
3907.0,-0.0047
3906.0,-0.0047
3905.0,-0.0047
3904.0,-0.0046
3903.0,-0.0044
3902.0,-0.0043
3901.0,-0.0044
3900.0,-0.0045
3899.0,-0.0046
3898.0,-0.0046
3897.0,-0.0046
3896.0,-0.0046
3895.0,-0.0047
3894.0,-0.0047
3893.0,-0.0048
3892.0,-0.0049
3891.0,-0.0049
3890.0,-0.0049
3889.0,-0.0048
3888.0,-0.0049
3887.0,-0.005
3886.0,-0.0049
3885.0,-0.0047
3884.0,-0.0046
3883.0,-0.0046
3882.0,-0.0048
3881.0,-0.0049
3880.0,-0.0049
3879.0,-0.0048
3878.0,-0.0047
3877.0,-0.0046
3876.0,-0.0047
3875.0,-0.0048
3874.0,-0.0049
3873.0,-0.0049
3872.0,-0.005
3871.0,-0.0051
3870.0,-0.0052
3869.0,-0.0051
3868.0,-0.0051
3867.0,-0.0051
3866.0,-0.0053
3865.0,-0.0054
3864.0,-0.0053
3863.0,-0.0051
3862.0,-0.005
3861.0,-0.005
3860.0,-0.0051
3859.0,-0.0052
3858.0,-0.0053
3857.0,-0.0053
3856.0,-0.0052
3855.0,-0.0052
3854.0,-0.0051
3853.0,-0.005
3852.0,-0.0051
3851.0,-0.0051
3850.0,-0.0052
3849.0,-0.0051
3848.0,-0.0051
3847.0,-0.0051
3846.0,-0.0051
3845.0,-0.0051
3844.0,-0.0051
3843.0,-0.0051
3842.0,-0.005
3841.0,-0.005
3840.0,-0.0051
3839.0,-0.0053
3838.0,-0.0053
3837.0,-0.0053
3836.0,-0.0052
3835.0,-0.0051
3834.0,-0.0051
3833.0,-0.0052
3832.0,-0.0053
3831.0,-0.0053
3830.0,-0.0053
3829.0,-0.0052
3828.0,-0.0053
3827.0,-0.0053
3826.0,-0.0053
3825.0,-0.0053
3824.0,-0.0052
3823.0,-0.0053
3822.0,-0.0054
3821.0,-0.0054
3820.0,-0.0053
3819.0,-0.0053
3818.0,-0.0054
3817.0,-0.0055
3816.0,-0.0054
3815.0,-0.0053
3814.0,-0.0053
3813.0,-0.0054
3812.0,-0.0056
3811.0,-0.0056
3810.0,-0.0056
3809.0,-0.0056
3808.0,-0.0057
3807.0,-0.0056
3806.0,-0.0055
3805.0,-0.0054
3804.0,-0.0054
3803.0,-0.0057
3802.0,-0.0057
3801.0,-0.0056
3800.0,-0.0054
3799.0,-0.0053
3798.0,-0.0054
3797.0,-0.0055
3796.0,-0.0056
3795.0,-0.0056
3794.0,-0.0055
3793.0,-0.0055
3792.0,-0.0056
3791.0,-0.0056
3790.0,-0.0056
3789.0,-0.0055
3788.0,-0.0055
3787.0,-0.0055
3786.0,-0.0056
3785.0,-0.0056
3784.0,-0.0056
3783.0,-0.0056
3782.0,-0.0055
3781.0,-0.0056
3780.0,-0.0057
3779.0,-0.0057
3778.0,-0.0056
3777.0,-0.0056
3776.0,-0.0056
3775.0,-0.0057
3774.0,-0.0057
3773.0,-0.0057
3772.0,-0.0058
3771.0,-0.0058
3770.0,-0.0058
3769.0,-0.0056
3768.0,-0.0055
3767.0,-0.0055
3766.0,-0.0056
3765.0,-0.0056
3764.0,-0.0056
3763.0,-0.0057
3762.0,-0.0058
3761.0,-0.006
3760.0,-0.0062
3759.0,-0.0063
3758.0,-0.0063
3757.0,-0.0062
3756.0,-0.0061
3755.0,-0.0061
3754.0,-0.0061
3753.0,-0.0062
3752.0,-0.0064
3751.0,-0.0065
3750.0,-0.0067
3749.0,-0.0068
3748.0,-0.0068
3747.0,-0.0068
3746.0,-0.007
3745.0,-0.007
3744.0,-0.0068
3743.0,-0.0066
3742.0,-0.0064
3741.0,-0.0064
3740.0,-0.0063
3739.0,-0.0064
3738.0,-0.0065
3737.0,-0.0067
3736.0,-0.0068
3735.0,-0.0068
3734.0,-0.0068
3733.0,-0.0068
3732.0,-0.0069
3731.0,-0.0069
3730.0,-0.007
3729.0,-0.0071
3728.0,-0.0073
3727.0,-0.0074
3726.0,-0.0073
3725.0,-0.0071
3724.0,-0.0069
3723.0,-0.0068
3722.0,-0.0068
3721.0,-0.0067
3720.0,-0.0067
3719.0,-0.0068
3718.0,-0.0068
3717.0,-0.0067
3716.0,-0.0066
3715.0,-0.0066
3714.0,-0.0067
3713.0,-0.007
3712.0,-0.0072
3711.0,-0.0072
3710.0,-0.007
3709.0,-0.0069
3708.0,-0.0068
3707.0,-0.0068
3706.0,-0.0068
3705.0,-0.0068
3704.0,-0.0067
3703.0,-0.0067
3702.0,-0.0066
3701.0,-0.0065
3700.0,-0.0065
3699.0,-0.0064
3698.0,-0.0065
3697.0,-0.0066
3696.0,-0.0067
3695.0,-0.0067
3694.0,-0.0067
3693.0,-0.0066
3692.0,-0.0065
3691.0,-0.0064
3690.0,-0.0063
3689.0,-0.0062
3688.0,-0.0061
3687.0,-0.006
3686.0,-0.0059
3685.0,-0.0058
3684.0,-0.0058
3683.0,-0.0057
3682.0,-0.0058
3681.0,-0.0058
3680.0,-0.0058
3679.0,-0.0058
3678.0,-0.0059
3677.0,-0.0061
3676.0,-0.0062
3675.0,-0.0059
3674.0,-0.0056
3673.0,-0.0054
3672.0,-0.0053
3671.0,-0.0052
3670.0,-0.0052
3669.0,-0.0051
3668.0,-0.0051
3667.0,-0.005
3666.0,-0.0049
3665.0,-0.0048
3664.0,-0.0048
3663.0,-0.0048
3662.0,-0.0048
3661.0,-0.0048
3660.0,-0.0048
3659.0,-0.0047
3658.0,-0.0047
3657.0,-0.0048
3656.0,-0.0047
3655.0,-0.0046
3654.0,-0.0044
3653.0,-0.0043
3652.0,-0.0042
3651.0,-0.0041
3650.0,-0.0039
3649.0,-0.0036
3648.0,-0.0035
3647.0,-0.0034
3646.0,-0.0033
3645.0,-0.0032
3644.0,-0.0032
3643.0,-0.0031
3642.0,-0.0031
3641.0,-0.003
3640.0,-0.0029
3639.0,-0.0029
3638.0,-0.0028
3637.0,-0.0027
3636.0,-0.0027
3635.0,-0.0028
3634.0,-0.0028
3633.0,-0.0025
3632.0,-0.0023
3631.0,-0.002
3630.0,-0.0019
3629.0,-0.0016
3628.0,-0.0013
3627.0,-0.0011
3626.0,-0.0009
3625.0,-0.0007
3624.0,-0.0005
3623.0,-0.0003
3622.0,-0.0001
3621.0,-0.0
3620.0,0.0002
3619.0,0.0004
3618.0,0.0006
3617.0,0.0008
3616.0,0.001
3615.0,0.0012
3614.0,0.0015
3613.0,0.0018
3612.0,0.0021
3611.0,0.0022
3610.0,0.0022
3609.0,0.0023
3608.0,0.0026
3607.0,0.0029
3606.0,0.0031
3605.0,0.0032
3604.0,0.0034
3603.0,0.0035
3602.0,0.0037
3601.0,0.0039
3600.0,0.0042
3599.0,0.0045
3598.0,0.0047
3597.0,0.005
3596.0,0.0051
3595.0,0.0052
3594.0,0.0053
3593.0,0.0054
3592.0,0.0056
3591.0,0.0058
3590.0,0.0061
3589.0,0.0065
3588.0,0.0068
3587.0,0.0071
3586.0,0.0073
3585.0,0.0075
3584.0,0.0077
3583.0,0.0079
3582.0,0.0082
3581.0,0.0085
3580.0,0.0087
3579.0,0.0089
3578.0,0.009
3577.0,0.0091
3576.0,0.0093
3575.0,0.0095
3574.0,0.0098
3573.0,0.01
3572.0,0.0103
3571.0,0.0106
3570.0,0.0108
3569.0,0.0109
3568.0,0.0111
3567.0,0.0114
3566.0,0.012
3565.0,0.0124
3564.0,0.0129
3563.0,0.0132
3562.0,0.0134
3561.0,0.0136
3560.0,0.0138
3559.0,0.014
3558.0,0.0142
3557.0,0.0144
3556.0,0.0147
3555.0,0.015
3554.0,0.0154
3553.0,0.0158
3552.0,0.0162
3551.0,0.0166
3550.0,0.0169
3549.0,0.0172
3548.0,0.0176
3547.0,0.018
3546.0,0.0185
3545.0,0.0188
3544.0,0.0191
3543.0,0.0194
3542.0,0.0197
3541.0,0.0201
3540.0,0.0204
3539.0,0.0208
3538.0,0.0212
3537.0,0.0216
3536.0,0.022
3535.0,0.0224
3534.0,0.0228
3533.0,0.0232
3532.0,0.0235
3531.0,0.0239
3530.0,0.0243
3529.0,0.0247
3528.0,0.0251
3527.0,0.0256
3526.0,0.0261
3525.0,0.0266
3524.0,0.0271
3523.0,0.0276
3522.0,0.0281
3521.0,0.0286
3520.0,0.029
3519.0,0.0295
3518.0,0.03
3517.0,0.0306
3516.0,0.0312
3515.0,0.0317
3514.0,0.0322
3513.0,0.0327
3512.0,0.0333
3511.0,0.0338
3510.0,0.0344
3509.0,0.035
3508.0,0.0356
3507.0,0.0363
3506.0,0.0369
3505.0,0.0376
3504.0,0.0384
3503.0,0.0391
3502.0,0.0398
3501.0,0.0405
3500.0,0.0411
3499.0,0.0417
3498.0,0.0424
3497.0,0.0431
3496.0,0.044
3495.0,0.045
3494.0,0.0459
3493.0,0.0468
3492.0,0.0475
3491.0,0.0482
3490.0,0.0488
3489.0,0.0496
3488.0,0.0505
3487.0,0.0514
3486.0,0.0524
3485.0,0.0533
3484.0,0.0542
3483.0,0.0553
3482.0,0.0564
3481.0,0.0576
3480.0,0.0588
3479.0,0.0598
3478.0,0.0608
3477.0,0.0618
3476.0,0.0629
3475.0,0.0641
3474.0,0.0654
3473.0,0.0667
3472.0,0.068
3471.0,0.0692
3470.0,0.0704
3469.0,0.0717
3468.0,0.0729
3467.0,0.0741
3466.0,0.0753
3465.0,0.0765
3464.0,0.0777
3463.0,0.0789
3462.0,0.0802
3461.0,0.0815
3460.0,0.0828
3459.0,0.0841
3458.0,0.0853
3457.0,0.0866
3456.0,0.0879
3455.0,0.0892
3454.0,0.0907
3453.0,0.0921
3452.0,0.0936
3451.0,0.0949
3450.0,0.0963
3449.0,0.0977
3448.0,0.0994
3447.0,0.1012
3446.0,0.103
3445.0,0.1046
3444.0,0.1062
3443.0,0.1078
3442.0,0.1096
3441.0,0.1113
3440.0,0.1131
3439.0,0.1149
3438.0,0.1169
3437.0,0.1189
3436.0,0.121
3435.0,0.1229
3434.0,0.1249
3433.0,0.127
3432.0,0.1292
3431.0,0.1317
3430.0,0.1342
3429.0,0.1367
3428.0,0.1393
3427.0,0.1419
3426.0,0.1446
3425.0,0.1473
3424.0,0.1501
3423.0,0.1528
3422.0,0.1557
3421.0,0.1586
3420.0,0.1614
3419.0,0.1641
3418.0,0.1667
3417.0,0.1693
3416.0,0.172
3415.0,0.1747
3414.0,0.1775
3413.0,0.1802
3412.0,0.1828
3411.0,0.1854
3410.0,0.188
3409.0,0.1906
3408.0,0.1933
3407.0,0.1958
3406.0,0.1983
3405.0,0.2008
3404.0,0.2033
3403.0,0.2059
3402.0,0.2084
3401.0,0.211
3400.0,0.2134
3399.0,0.2159
3398.0,0.2184
3397.0,0.2209
3396.0,0.2232
3395.0,0.2253
3394.0,0.2275
3393.0,0.2299
3392.0,0.2323
3391.0,0.2345
3390.0,0.2363
3389.0,0.2377
3388.0,0.2391
3387.0,0.2404
3386.0,0.2418
3385.0,0.243
3384.0,0.2441
3383.0,0.245
3382.0,0.2456
3381.0,0.246
3380.0,0.2463
3379.0,0.2465
3378.0,0.2466
3377.0,0.2465
3376.0,0.2463
3375.0,0.2458
3374.0,0.2453
3373.0,0.2447
3372.0,0.244
3371.0,0.2433
3370.0,0.2424
3369.0,0.2414
3368.0,0.2402
3367.0,0.2389
3366.0,0.2376
3365.0,0.2362
3364.0,0.2349
3363.0,0.2335
3362.0,0.2319
3361.0,0.2304
3360.0,0.2288
3359.0,0.2273
3358.0,0.2257
3357.0,0.224
3356.0,0.2223
3355.0,0.2207
3354.0,0.2191
3353.0,0.2175
3352.0,0.2158
3351.0,0.2141
3350.0,0.2123
3349.0,0.2105
3348.0,0.2089
3347.0,0.2072
3346.0,0.2056
3345.0,0.204
3344.0,0.2023
3343.0,0.2006
3342.0,0.1989
3341.0,0.1972
3340.0,0.1955
3339.0,0.1937
3338.0,0.1919
3337.0,0.1901
3336.0,0.1883
3335.0,0.1866
3334.0,0.1849
3333.0,0.1832
3332.0,0.1814
3331.0,0.1796
3330.0,0.1778
3329.0,0.176
3328.0,0.1745
3327.0,0.173
3326.0,0.1714
3325.0,0.1698
3324.0,0.1681
3323.0,0.1665
3322.0,0.1648
3321.0,0.1632
3320.0,0.1615
3319.0,0.1599
3318.0,0.1581
3317.0,0.1564
3316.0,0.1548
3315.0,0.1532
3314.0,0.1518
3313.0,0.1503
3312.0,0.1488
3311.0,0.1473
3310.0,0.1457
3309.0,0.1443
3308.0,0.1429
3307.0,0.1417
3306.0,0.1404
3305.0,0.1392
3304.0,0.1379
3303.0,0.1367
3302.0,0.1354
3301.0,0.134
3300.0,0.1327
3299.0,0.1315
3298.0,0.1302
3297.0,0.1291
3296.0,0.128
3295.0,0.127
3294.0,0.1261
3293.0,0.1252
3292.0,0.1244
3291.0,0.1234
3290.0,0.1225
3289.0,0.1214
3288.0,0.1204
3287.0,0.1194
3286.0,0.1185
3285.0,0.1175
3284.0,0.1167
3283.0,0.1158
3282.0,0.115
3281.0,0.1143
3280.0,0.1135
3279.0,0.1127
3278.0,0.112
3277.0,0.1112
3276.0,0.1105
3275.0,0.1097
3274.0,0.1089
3273.0,0.1081
3272.0,0.1074
3271.0,0.107
3270.0,0.1066
3269.0,0.1062
3268.0,0.1059
3267.0,0.1056
3266.0,0.1056
3265.0,0.1057
3264.0,0.1059
3263.0,0.1062
3262.0,0.1066
3261.0,0.1071
3260.0,0.1077
3259.0,0.1085
3258.0,0.1093
3257.0,0.1103
3256.0,0.1112
3255.0,0.1123
3254.0,0.1134
3253.0,0.1146
3252.0,0.1158
3251.0,0.1171
3250.0,0.1181
3249.0,0.119
3248.0,0.1198
3247.0,0.1205
3246.0,0.121
3245.0,0.1215
3244.0,0.1219
3243.0,0.1222
3242.0,0.1223
3241.0,0.1223
3240.0,0.122
3239.0,0.1216
3238.0,0.1209
3237.0,0.1202
3236.0,0.1194
3235.0,0.1186
3234.0,0.1178
3233.0,0.1167
3232.0,0.1156
3231.0,0.1144
3230.0,0.1132
3229.0,0.112
3228.0,0.1108
3227.0,0.1095
3226.0,0.108
3225.0,0.1064
3224.0,0.1048
3223.0,0.1032
3222.0,0.1017
3221.0,0.1001
3220.0,0.0985
3219.0,0.0968
3218.0,0.0952
3217.0,0.0936
3216.0,0.0921
3215.0,0.0906
3214.0,0.0892
3213.0,0.0879
3212.0,0.0867
3211.0,0.0856
3210.0,0.0846
3209.0,0.0835
3208.0,0.0825
3207.0,0.0814
3206.0,0.0803
3205.0,0.0793
3204.0,0.0783
3203.0,0.0775
3202.0,0.0767
3201.0,0.0758
3200.0,0.0749
3199.0,0.074
3198.0,0.0731
3197.0,0.0722
3196.0,0.0715
3195.0,0.0707
3194.0,0.0698
3193.0,0.069
3192.0,0.0683
3191.0,0.0677
3190.0,0.0672
3189.0,0.0666
3188.0,0.066
3187.0,0.0653
3186.0,0.0647
3185.0,0.064
3184.0,0.0633
3183.0,0.0627
3182.0,0.0621
3181.0,0.0616
3180.0,0.0612
3179.0,0.0608
3178.0,0.0604
3177.0,0.0598
3176.0,0.0592
3175.0,0.0586
3174.0,0.058
3173.0,0.0574
3172.0,0.0569
3171.0,0.0564
3170.0,0.0559
3169.0,0.0554
3168.0,0.0549
3167.0,0.0545
3166.0,0.054
3165.0,0.0535
3164.0,0.053
3163.0,0.0526
3162.0,0.0522
3161.0,0.0518
3160.0,0.0514
3159.0,0.0509
3158.0,0.0504
3157.0,0.05
3156.0,0.0495
3155.0,0.0492
3154.0,0.0488
3153.0,0.0484
3152.0,0.048
3151.0,0.0476
3150.0,0.0473
3149.0,0.0469
3148.0,0.0466
3147.0,0.0463
3146.0,0.0458
3145.0,0.0454
3144.0,0.045
3143.0,0.0446
3142.0,0.0443
3141.0,0.044
3140.0,0.0437
3139.0,0.0434
3138.0,0.0431
3137.0,0.0428
3136.0,0.0425
3135.0,0.0421
3134.0,0.0418
3133.0,0.0414
3132.0,0.041
3131.0,0.0406
3130.0,0.0404
3129.0,0.0401
3128.0,0.0399
3127.0,0.0397
3126.0,0.0394
3125.0,0.0391
3124.0,0.0388
3123.0,0.0385
3122.0,0.0382
3121.0,0.0379
3120.0,0.0376
3119.0,0.0373
3118.0,0.0371
3117.0,0.0368
3116.0,0.0366
3115.0,0.0363
3114.0,0.0361
3113.0,0.0358
3112.0,0.0356
3111.0,0.0354
3110.0,0.0351
3109.0,0.0349
3108.0,0.0347
3107.0,0.0345
3106.0,0.0343
3105.0,0.0341
3104.0,0.0339
3103.0,0.0337
3102.0,0.0335
3101.0,0.0333
3100.0,0.033
3099.0,0.0328
3098.0,0.0325
3097.0,0.0321
3096.0,0.0319
3095.0,0.0317
3094.0,0.0315
3093.0,0.0313
3092.0,0.0312
3091.0,0.031
3090.0,0.0308
3089.0,0.0306
3088.0,0.0304
3087.0,0.0302
3086.0,0.03
3085.0,0.0299
3084.0,0.0297
3083.0,0.0295
3082.0,0.0293
3081.0,0.0292
3080.0,0.029
3079.0,0.0289
3078.0,0.0287
3077.0,0.0286
3076.0,0.0284
3075.0,0.0283
3074.0,0.0281
3073.0,0.0279
3072.0,0.0278
3071.0,0.0276
3070.0,0.0274
3069.0,0.0272
3068.0,0.027
3067.0,0.0269
3066.0,0.0268
3065.0,0.0268
3064.0,0.0266
3063.0,0.0265
3062.0,0.0263
3061.0,0.0262
3060.0,0.0261
3059.0,0.026
3058.0,0.0259
3057.0,0.0257
3056.0,0.0256
3055.0,0.0256
3054.0,0.0255
3053.0,0.0253
3052.0,0.0252
3051.0,0.025
3050.0,0.0249
3049.0,0.0249
3048.0,0.0249
3047.0,0.0248
3046.0,0.0247
3045.0,0.0245
3044.0,0.0244
3043.0,0.0243
3042.0,0.0242
3041.0,0.0241
3040.0,0.024
3039.0,0.0239
3038.0,0.0238
3037.0,0.0237
3036.0,0.0236
3035.0,0.0235
3034.0,0.0233
3033.0,0.0232
3032.0,0.0231
3031.0,0.0229
3030.0,0.0228
3029.0,0.0228
3028.0,0.0228
3027.0,0.0228
3026.0,0.0227
3025.0,0.0226
3024.0,0.0225
3023.0,0.0224
3022.0,0.0223
3021.0,0.0222
3020.0,0.022
3019.0,0.0219
3018.0,0.0218
3017.0,0.0217
3016.0,0.0216
3015.0,0.0214
3014.0,0.0213
3013.0,0.0212
3012.0,0.0212
3011.0,0.0211
3010.0,0.0211
3009.0,0.021
3008.0,0.021
3007.0,0.0209
3006.0,0.0208
3005.0,0.0207
3004.0,0.0206
3003.0,0.0204
3002.0,0.0203
3001.0,0.0202
3000.0,0.02
2999.0,0.0199
2998.0,0.0199
2997.0,0.0198
2996.0,0.0198
2995.0,0.0197
2994.0,0.0196
2993.0,0.0195
2992.0,0.0193
2991.0,0.0192
2990.0,0.0191
2989.0,0.0191
2988.0,0.019
2987.0,0.019
2986.0,0.019
2985.0,0.0189
2984.0,0.0187
2983.0,0.0186
2982.0,0.0185
2981.0,0.0184
2980.0,0.0184
2979.0,0.0184
2978.0,0.0184
2977.0,0.0183
2976.0,0.0183
2975.0,0.0182
2974.0,0.0182
2973.0,0.0181
2972.0,0.0181
2971.0,0.0181
2970.0,0.018
2969.0,0.0179
2968.0,0.0179
2967.0,0.0178
2966.0,0.0178
2965.0,0.0177
2964.0,0.0177
2963.0,0.0176
2962.0,0.0175
2961.0,0.0174
2960.0,0.0173
2959.0,0.0172
2958.0,0.0172
2957.0,0.0173
2956.0,0.0172
2955.0,0.0172
2954.0,0.017
2953.0,0.0169
2952.0,0.0169
2951.0,0.0169
2950.0,0.0168
2949.0,0.0168
2948.0,0.0168
2947.0,0.0168
2946.0,0.0169
2945.0,0.0169
2944.0,0.0169
2943.0,0.0168
2942.0,0.0168
2941.0,0.0167
2940.0,0.0166
2939.0,0.0165
2938.0,0.0164
2937.0,0.0164
2936.0,0.0164
2935.0,0.0164
2934.0,0.0164
2933.0,0.0164
2932.0,0.0163
2931.0,0.0163
2930.0,0.0162
2929.0,0.0161
2928.0,0.0161
2927.0,0.0161
2926.0,0.016
2925.0,0.016
2924.0,0.016
2923.0,0.016
2922.0,0.0159
2921.0,0.0159
2920.0,0.0159
2919.0,0.0158
2918.0,0.0158
2917.0,0.0158
2916.0,0.0157
2915.0,0.0156
2914.0,0.0155
2913.0,0.0154
2912.0,0.0153
2911.0,0.0152
2910.0,0.0151
2909.0,0.0151
2908.0,0.015
2907.0,0.015
2906.0,0.0151
2905.0,0.0151
2904.0,0.0151
2903.0,0.0151
2902.0,0.015
2901.0,0.0149
2900.0,0.0149
2899.0,0.0149
2898.0,0.0149
2897.0,0.0148
2896.0,0.0147
2895.0,0.0146
2894.0,0.0146
2893.0,0.0145
2892.0,0.0145
2891.0,0.0146
2890.0,0.0146
2889.0,0.0146
2888.0,0.0145
2887.0,0.0144
2886.0,0.0144
2885.0,0.0144
2884.0,0.0145
2883.0,0.0145
2882.0,0.0144
2881.0,0.0144
2880.0,0.0143
2879.0,0.0143
2878.0,0.0143
2877.0,0.0142
2876.0,0.0142
2875.0,0.0143
2874.0,0.0143
2873.0,0.0144
2872.0,0.0143
2871.0,0.0143
2870.0,0.0142
2869.0,0.0141
2868.0,0.014
2867.0,0.014
2866.0,0.014
2865.0,0.0141
2864.0,0.0141
2863.0,0.0141
2862.0,0.0141
2861.0,0.0141
2860.0,0.014
2859.0,0.014
2858.0,0.0139
2857.0,0.0139
2856.0,0.0139
2855.0,0.014
2854.0,0.0139
2853.0,0.0138
2852.0,0.0138
2851.0,0.0137
2850.0,0.0137
2849.0,0.0137
2848.0,0.0137
2847.0,0.0137
2846.0,0.0137
2845.0,0.0136
2844.0,0.0135
2843.0,0.0135
2842.0,0.0135
2841.0,0.0135
2840.0,0.0135
2839.0,0.0135
2838.0,0.0134
2837.0,0.0134
2836.0,0.0134
2835.0,0.0134
2834.0,0.0134
2833.0,0.0133
2832.0,0.0132
2831.0,0.0131
2830.0,0.0131
2829.0,0.0131
2828.0,0.0131
2827.0,0.0131
2826.0,0.0131
2825.0,0.013
2824.0,0.013
2823.0,0.013
2822.0,0.0129
2821.0,0.0129
2820.0,0.0129
2819.0,0.0129
2818.0,0.0129
2817.0,0.0129
2816.0,0.0128
2815.0,0.0128
2814.0,0.0128
2813.0,0.0129
2812.0,0.0129
2811.0,0.0128
2810.0,0.0127
2809.0,0.0127
2808.0,0.0127
2807.0,0.0127
2806.0,0.0127
2805.0,0.0126
2804.0,0.0126
2803.0,0.0126
2802.0,0.0126
2801.0,0.0126
2800.0,0.0125
2799.0,0.0124
2798.0,0.0124
2797.0,0.0124
2796.0,0.0124
2795.0,0.0125
2794.0,0.0125
2793.0,0.0125
2792.0,0.0124
2791.0,0.0124
2790.0,0.0123
2789.0,0.0122
2788.0,0.0122
2787.0,0.0122
2786.0,0.0122
2785.0,0.0122
2784.0,0.0122
2783.0,0.0122
2782.0,0.0122
2781.0,0.0122
2780.0,0.0122
2779.0,0.0122
2778.0,0.0122
2777.0,0.0122
2776.0,0.0122
2775.0,0.0122
2774.0,0.0121
2773.0,0.012
2772.0,0.012
2771.0,0.012
2770.0,0.012
2769.0,0.012
2768.0,0.012
2767.0,0.0119
2766.0,0.0118
2765.0,0.0118
2764.0,0.0118
2763.0,0.0118
2762.0,0.0119
2761.0,0.0118
2760.0,0.0118
2759.0,0.0117
2758.0,0.0116
2757.0,0.0116
2756.0,0.0117
2755.0,0.0117
2754.0,0.0118
2753.0,0.0118
2752.0,0.0118
2751.0,0.0118
2750.0,0.0117
2749.0,0.0117
2748.0,0.0117
2747.0,0.0116
2746.0,0.0116
2745.0,0.0116
2744.0,0.0116
2743.0,0.0116
2742.0,0.0116
2741.0,0.0115
2740.0,0.0114
2739.0,0.0113
2738.0,0.0113
2737.0,0.0114
2736.0,0.0114
2735.0,0.0114
2734.0,0.0113
2733.0,0.0112
2732.0,0.0112
2731.0,0.0112
2730.0,0.0113
2729.0,0.0113
2728.0,0.0114
2727.0,0.0114
2726.0,0.0114
2725.0,0.0113
2724.0,0.0113
2723.0,0.0112
2722.0,0.0112
2721.0,0.0111
2720.0,0.0111
2719.0,0.0111
2718.0,0.0111
2717.0,0.0111
2716.0,0.0112
2715.0,0.0112
2714.0,0.0112
2713.0,0.0112
2712.0,0.0112
2711.0,0.0112
2710.0,0.0111
2709.0,0.0111
2708.0,0.011
2707.0,0.011
2706.0,0.011
2705.0,0.011
2704.0,0.011
2703.0,0.0109
2702.0,0.0109
2701.0,0.0109
2700.0,0.0109
2699.0,0.0109
2698.0,0.011
2697.0,0.011
2696.0,0.011
2695.0,0.011
2694.0,0.0109
2693.0,0.0107
2692.0,0.0107
2691.0,0.0107
2690.0,0.0107
2689.0,0.0107
2688.0,0.0107
2687.0,0.0107
2686.0,0.0107
2685.0,0.0107
2684.0,0.0106
2683.0,0.0105
2682.0,0.0105
2681.0,0.0105
2680.0,0.0105
2679.0,0.0106
2678.0,0.0107
2677.0,0.0107
2676.0,0.0106
2675.0,0.0106
2674.0,0.0106
2673.0,0.0106
2672.0,0.0105
2671.0,0.0105
2670.0,0.0105
2669.0,0.0105
2668.0,0.0105
2667.0,0.0105
2666.0,0.0105
2665.0,0.0105
2664.0,0.0105
2663.0,0.0105
2662.0,0.0105
2661.0,0.0105
2660.0,0.0105
2659.0,0.0105
2658.0,0.0105
2657.0,0.0105
2656.0,0.0104
2655.0,0.0104
2654.0,0.0104
2653.0,0.0104
2652.0,0.0105
2651.0,0.0105
2650.0,0.0104
2649.0,0.0104
2648.0,0.0104
2647.0,0.0103
2646.0,0.0103
2645.0,0.0103
2644.0,0.0103
2643.0,0.0103
2642.0,0.0103
2641.0,0.0103
2640.0,0.0102
2639.0,0.0103
2638.0,0.0103
2637.0,0.0103
2636.0,0.0103
2635.0,0.0103
2634.0,0.0103
2633.0,0.0102
2632.0,0.0102
2631.0,0.0101
2630.0,0.0101
2629.0,0.0101
2628.0,0.0101
2627.0,0.0101
2626.0,0.0101
2625.0,0.0101
2624.0,0.0101
2623.0,0.0101
2622.0,0.0101
2621.0,0.0101
2620.0,0.0102
2619.0,0.0102
2618.0,0.0102
2617.0,0.0102
2616.0,0.0101
2615.0,0.01
2614.0,0.0099
2613.0,0.0099
2612.0,0.0099
2611.0,0.0099
2610.0,0.01
2609.0,0.01
2608.0,0.01
2607.0,0.0099
2606.0,0.0099
2605.0,0.0099
2604.0,0.01
2603.0,0.01
2602.0,0.01
2601.0,0.01
2600.0,0.01
2599.0,0.01
2598.0,0.01
2597.0,0.01
2596.0,0.01
2595.0,0.01
2594.0,0.01
2593.0,0.01
2592.0,0.01
2591.0,0.01
2590.0,0.01
2589.0,0.0099
2588.0,0.0098
2587.0,0.0099
2586.0,0.0099
2585.0,0.01
2584.0,0.01
2583.0,0.01
2582.0,0.0099
2581.0,0.0099
2580.0,0.0099
2579.0,0.0098
2578.0,0.0098
2577.0,0.0097
2576.0,0.0097
2575.0,0.0096
2574.0,0.0097
2573.0,0.0098
2572.0,0.0098
2571.0,0.0099
2570.0,0.0099
2569.0,0.0099
2568.0,0.0098
2567.0,0.0097
2566.0,0.0097
2565.0,0.0097
2564.0,0.0097
2563.0,0.0097
2562.0,0.0097
2561.0,0.0097
2560.0,0.0097
2559.0,0.0096
2558.0,0.0096
2557.0,0.0096
2556.0,0.0095
2555.0,0.0095
2554.0,0.0095
2553.0,0.0095
2552.0,0.0095
2551.0,0.0095
2550.0,0.0095
2549.0,0.0095
2548.0,0.0096
2547.0,0.0096
2546.0,0.0097
2545.0,0.0097
2544.0,0.0097
2543.0,0.0096
2542.0,0.0096
2541.0,0.0096
2540.0,0.0096
2539.0,0.0097
2538.0,0.0097
2537.0,0.0097
2536.0,0.0097
2535.0,0.0096
2534.0,0.0096
2533.0,0.0095
2532.0,0.0095
2531.0,0.0095
2530.0,0.0096
2529.0,0.0096
2528.0,0.0097
2527.0,0.0097
2526.0,0.0097
2525.0,0.0097
2524.0,0.0097
2523.0,0.0097
2522.0,0.0096
2521.0,0.0096
2520.0,0.0095
2519.0,0.0095
2518.0,0.0095
2517.0,0.0095
2516.0,0.0095
2515.0,0.0095
2514.0,0.0095
2513.0,0.0094
2512.0,0.0094
2511.0,0.0094
2510.0,0.0095
2509.0,0.0095
2508.0,0.0096
2507.0,0.0096
2506.0,0.0095
2505.0,0.0095
2504.0,0.0094
2503.0,0.0095
2502.0,0.0095
2501.0,0.0095
2500.0,0.0096
2499.0,0.0095
2498.0,0.0095
2497.0,0.0094
2496.0,0.0094
2495.0,0.0095
2494.0,0.0095
2493.0,0.0094
2492.0,0.0094
2491.0,0.0093
2490.0,0.0093
2489.0,0.0094
2488.0,0.0094
2487.0,0.0095
2486.0,0.0095
2485.0,0.0095
2484.0,0.0095
2483.0,0.0094
2482.0,0.0093
2481.0,0.0092
2480.0,0.0093
2479.0,0.0093
2478.0,0.0093
2477.0,0.0094
2476.0,0.0093
2475.0,0.0093
2474.0,0.0093
2473.0,0.0094
2472.0,0.0094
2471.0,0.0094
2470.0,0.0093
2469.0,0.0093
2468.0,0.0093
2467.0,0.0093
2466.0,0.0093
2465.0,0.0093
2464.0,0.0093
2463.0,0.0093
2462.0,0.0093
2461.0,0.0094
2460.0,0.0094
2459.0,0.0095
2458.0,0.0096
2457.0,0.0096
2456.0,0.0096
2455.0,0.0095
2454.0,0.0094
2453.0,0.0093
2452.0,0.0093
2451.0,0.0093
2450.0,0.0093
2449.0,0.0094
2448.0,0.0094
2447.0,0.0094
2446.0,0.0093
2445.0,0.0093
2444.0,0.0093
2443.0,0.0094
2442.0,0.0094
2441.0,0.0094
2440.0,0.0094
2439.0,0.0094
2438.0,0.0094
2437.0,0.0093
2436.0,0.0093
2435.0,0.0093
2434.0,0.0093
2433.0,0.0093
2432.0,0.0093
2431.0,0.0094
2430.0,0.0094
2429.0,0.0094
2428.0,0.0094
2427.0,0.0094
2426.0,0.0094
2425.0,0.0094
2424.0,0.0094
2423.0,0.0094
2422.0,0.0094
2421.0,0.0093
2420.0,0.0093
2419.0,0.0093
2418.0,0.0093
2417.0,0.0093
2416.0,0.0094
2415.0,0.0094
2414.0,0.0094
2413.0,0.0094
2412.0,0.0094
2411.0,0.0094
2410.0,0.0094
2409.0,0.0094
2408.0,0.0094
2407.0,0.0095
2406.0,0.0095
2405.0,0.0095
2404.0,0.0095
2403.0,0.0094
2402.0,0.0095
2401.0,0.0095
2400.0,0.0096
2399.0,0.0096
2398.0,0.0096
2397.0,0.0096
2396.0,0.0096
2395.0,0.0096
2394.0,0.0096
2393.0,0.0096
2392.0,0.0095
2391.0,0.0094
2390.0,0.0094
2389.0,0.0093
2388.0,0.0091
2387.0,0.0089
2386.0,0.0087
2385.0,0.0084
2384.0,0.0082
2383.0,0.0081
2382.0,0.0081
2381.0,0.0082
2380.0,0.0083
2379.0,0.0084
2378.0,0.0085
2377.0,0.0084
2376.0,0.008
2375.0,0.0075
2374.0,0.0067
2373.0,0.0059
2372.0,0.0054
2371.0,0.0054
2370.0,0.0059
2369.0,0.0065
2368.0,0.0067
2367.0,0.0066
2366.0,0.0065
2365.0,0.0068
2364.0,0.0073
2363.0,0.0071
2362.0,0.0061
2361.0,0.0058
2360.0,0.0067
2359.0,0.0074
2358.0,0.0071
2357.0,0.0061
2356.0,0.0054
2355.0,0.0052
2354.0,0.0049
2353.0,0.0042
2352.0,0.0028
2351.0,0.0017
2350.0,0.0018
2349.0,0.0035
2348.0,0.0059
2347.0,0.0075
2346.0,0.0076
2345.0,0.0069
2344.0,0.0064
2343.0,0.0062
2342.0,0.0065
2341.0,0.007
2340.0,0.0073
2339.0,0.0074
2338.0,0.0075
2337.0,0.0077
2336.0,0.0078
2335.0,0.0077
2334.0,0.0079
2333.0,0.0085
2332.0,0.009
2331.0,0.0091
2330.0,0.0085
2329.0,0.0077
2328.0,0.0074
2327.0,0.0077
2326.0,0.0085
2325.0,0.0095
2324.0,0.0104
2323.0,0.0109
2322.0,0.0111
2321.0,0.011
2320.0,0.0109
2319.0,0.0107
2318.0,0.0106
2317.0,0.0107
2316.0,0.0109
2315.0,0.0113
2314.0,0.0115
2313.0,0.0116
2312.0,0.0117
2311.0,0.0118
2310.0,0.012
2309.0,0.0123
2308.0,0.0127
2307.0,0.0131
2306.0,0.0135
2305.0,0.0137
2304.0,0.0139
2303.0,0.0141
2302.0,0.0142
2301.0,0.0144
2300.0,0.0146
2299.0,0.0148
2298.0,0.015
2297.0,0.0152
2296.0,0.0154
2295.0,0.0157
2294.0,0.016
2293.0,0.0163
2292.0,0.0165
2291.0,0.0168
2290.0,0.017
2289.0,0.0172
2288.0,0.0174
2287.0,0.0176
2286.0,0.0178
2285.0,0.018
2284.0,0.0182
2283.0,0.0184
2282.0,0.0186
2281.0,0.0187
2280.0,0.0188
2279.0,0.0188
2278.0,0.0188
2277.0,0.0189
2276.0,0.0189
2275.0,0.019
2274.0,0.0191
2273.0,0.0192
2272.0,0.0193
2271.0,0.0194
2270.0,0.0194
2269.0,0.0195
2268.0,0.0195
2267.0,0.0195
2266.0,0.0195
2265.0,0.0196
2264.0,0.0196
2263.0,0.0197
2262.0,0.0198
2261.0,0.0198
2260.0,0.0199
2259.0,0.0199
2258.0,0.02
2257.0,0.02
2256.0,0.0199
2255.0,0.0199
2254.0,0.0199
2253.0,0.0199
2252.0,0.0199
2251.0,0.02
2250.0,0.02
2249.0,0.02
2248.0,0.02
2247.0,0.0199
2246.0,0.0199
2245.0,0.0199
2244.0,0.0199
2243.0,0.0199
2242.0,0.0199
2241.0,0.0198
2240.0,0.0197
2239.0,0.0196
2238.0,0.0195
2237.0,0.0195
2236.0,0.0195
2235.0,0.0195
2234.0,0.0195
2233.0,0.0195
2232.0,0.0195
2231.0,0.0194
2230.0,0.0193
2229.0,0.0192
2228.0,0.0191
2227.0,0.019
2226.0,0.0189
2225.0,0.0189
2224.0,0.0188
2223.0,0.0188
2222.0,0.0188
2221.0,0.0188
2220.0,0.0187
2219.0,0.0187
2218.0,0.0186
2217.0,0.0185
2216.0,0.0185
2215.0,0.0184
2214.0,0.0183
2213.0,0.0182
2212.0,0.0182
2211.0,0.0181
2210.0,0.0181
2209.0,0.0181
2208.0,0.0181
2207.0,0.0181
2206.0,0.018
2205.0,0.0179
2204.0,0.0178
2203.0,0.0177
2202.0,0.0176
2201.0,0.0176
2200.0,0.0176
2199.0,0.0176
2198.0,0.0176
2197.0,0.0175
2196.0,0.0174
2195.0,0.0174
2194.0,0.0173
2193.0,0.0172
2192.0,0.0172
2191.0,0.0171
2190.0,0.0171
2189.0,0.017
2188.0,0.017
2187.0,0.017
2186.0,0.017
2185.0,0.0169
2184.0,0.0169
2183.0,0.0168
2182.0,0.0167
2181.0,0.0165
2180.0,0.0164
2179.0,0.0163
2178.0,0.0163
2177.0,0.0162
2176.0,0.0162
2175.0,0.0162
2174.0,0.0162
2173.0,0.0162
2172.0,0.0161
2171.0,0.016
2170.0,0.016
2169.0,0.016
2168.0,0.016
2167.0,0.0159
2166.0,0.0158
2165.0,0.0158
2164.0,0.0157
2163.0,0.0157
2162.0,0.0157
2161.0,0.0157
2160.0,0.0157
2159.0,0.0156
2158.0,0.0156
2157.0,0.0155
2156.0,0.0154
2155.0,0.0154
2154.0,0.0153
2153.0,0.0153
2152.0,0.0152
2151.0,0.0152
2150.0,0.0152
2149.0,0.0151
2148.0,0.0151
2147.0,0.0151
2146.0,0.0151
2145.0,0.0151
2144.0,0.0151
2143.0,0.015
2142.0,0.015
2141.0,0.0149
2140.0,0.0149
2139.0,0.0148
2138.0,0.0148
2137.0,0.0149
2136.0,0.0149
2135.0,0.0148
2134.0,0.0148
2133.0,0.0147
2132.0,0.0147
2131.0,0.0146
2130.0,0.0145
2129.0,0.0145
2128.0,0.0145
2127.0,0.0145
2126.0,0.0145
2125.0,0.0145
2124.0,0.0145
2123.0,0.0144
2122.0,0.0144
2121.0,0.0143
2120.0,0.0143
2119.0,0.0143
2118.0,0.0143
2117.0,0.0143
2116.0,0.0142
2115.0,0.0142
2114.0,0.0142
2113.0,0.0141
2112.0,0.0141
2111.0,0.0141
2110.0,0.014
2109.0,0.0139
2108.0,0.0139
2107.0,0.0139
2106.0,0.0139
2105.0,0.0139
2104.0,0.0139
2103.0,0.0139
2102.0,0.0139
2101.0,0.0139
2100.0,0.0139
2099.0,0.0139
2098.0,0.0139
2097.0,0.0138
2096.0,0.0138
2095.0,0.0138
2094.0,0.0137
2093.0,0.0137
2092.0,0.0137
2091.0,0.0138
2090.0,0.0139
2089.0,0.0139
2088.0,0.0139
2087.0,0.0138
2086.0,0.0138
2085.0,0.0137
2084.0,0.0137
2083.0,0.0137
2082.0,0.0138
2081.0,0.0138
2080.0,0.0138
2079.0,0.0138
2078.0,0.0137
2077.0,0.0136
2076.0,0.0136
2075.0,0.0136
2074.0,0.0137
2073.0,0.0137
2072.0,0.0138
2071.0,0.0138
2070.0,0.0137
2069.0,0.0137
2068.0,0.0137
2067.0,0.0137
2066.0,0.0137
2065.0,0.0137
2064.0,0.0137
2063.0,0.0137
2062.0,0.0137
2061.0,0.0137
2060.0,0.0137
2059.0,0.0136
2058.0,0.0136
2057.0,0.0136
2056.0,0.0136
2055.0,0.0136
2054.0,0.0135
2053.0,0.0135
2052.0,0.0135
2051.0,0.0134
2050.0,0.0133
2049.0,0.0133
2048.0,0.0132
2047.0,0.0132
2046.0,0.0132
2045.0,0.0132
2044.0,0.0132
2043.0,0.0131
2042.0,0.0131
2041.0,0.013
2040.0,0.013
2039.0,0.013
2038.0,0.013
2037.0,0.0129
2036.0,0.0129
2035.0,0.0128
2034.0,0.0128
2033.0,0.0127
2032.0,0.0127
2031.0,0.0127
2030.0,0.0126
2029.0,0.0126
2028.0,0.0126
2027.0,0.0125
2026.0,0.0124
2025.0,0.0124
2024.0,0.0123
2023.0,0.0123
2022.0,0.0123
2021.0,0.0123
2020.0,0.0122
2019.0,0.0122
2018.0,0.0122
2017.0,0.0123
2016.0,0.0123
2015.0,0.0123
2014.0,0.0122
2013.0,0.0122
2012.0,0.0121
2011.0,0.0121
2010.0,0.0121
2009.0,0.0121
2008.0,0.0121
2007.0,0.0121
2006.0,0.012
2005.0,0.012
2004.0,0.012
2003.0,0.012
2002.0,0.012
2001.0,0.012
2000.0,0.0119
1999.0,0.0119
1998.0,0.0118
1997.0,0.0118
1996.0,0.0119
1995.0,0.0119
1994.0,0.0118
1993.0,0.0117
1992.0,0.0117
1991.0,0.0117
1990.0,0.0117
1989.0,0.0117
1988.0,0.0117
1987.0,0.0116
1986.0,0.0115
1985.0,0.0115
1984.0,0.0115
1983.0,0.0115
1982.0,0.0115
1981.0,0.0115
1980.0,0.0115
1979.0,0.0116
1978.0,0.0116
1977.0,0.0116
1976.0,0.0116
1975.0,0.0115
1974.0,0.0115
1973.0,0.0114
1972.0,0.0114
1971.0,0.0114
1970.0,0.0114
1969.0,0.0114
1968.0,0.0113
1967.0,0.0113
1966.0,0.0112
1965.0,0.0112
1964.0,0.0113
1963.0,0.0113
1962.0,0.0113
1961.0,0.0112
1960.0,0.0112
1959.0,0.0112
1958.0,0.0112
1957.0,0.0112
1956.0,0.0112
1955.0,0.0112
1954.0,0.0112
1953.0,0.0112
1952.0,0.0112
1951.0,0.0112
1950.0,0.0113
1949.0,0.0113
1948.0,0.0112
1947.0,0.0112
1946.0,0.0112
1945.0,0.0112
1944.0,0.0112
1943.0,0.0111
1942.0,0.0111
1941.0,0.0111
1940.0,0.0111
1939.0,0.0112
1938.0,0.0112
1937.0,0.0112
1936.0,0.0111
1935.0,0.011
1934.0,0.0109
1933.0,0.0109
1932.0,0.0109
1931.0,0.0109
1930.0,0.0109
1929.0,0.0109
1928.0,0.0109
1927.0,0.0109
1926.0,0.0109
1925.0,0.0109
1924.0,0.0109
1923.0,0.0109
1922.0,0.0109
1921.0,0.0109
1920.0,0.0108
1919.0,0.0108
1918.0,0.0108
1917.0,0.0108
1916.0,0.0109
1915.0,0.0109
1914.0,0.0109
1913.0,0.0109
1912.0,0.0109
1911.0,0.0109
1910.0,0.0108
1909.0,0.0108
1908.0,0.0108
1907.0,0.0108
1906.0,0.0108
1905.0,0.0108
1904.0,0.0109
1903.0,0.0109
1902.0,0.011
1901.0,0.011
1900.0,0.011
1899.0,0.011
1898.0,0.011
1897.0,0.011
1896.0,0.011
1895.0,0.0109
1894.0,0.011
1893.0,0.0111
1892.0,0.0112
1891.0,0.0113
1890.0,0.0113
1889.0,0.0113
1888.0,0.0114
1887.0,0.0114
1886.0,0.0115
1885.0,0.0115
1884.0,0.0117
1883.0,0.0118
1882.0,0.0119
1881.0,0.0119
1880.0,0.012
1879.0,0.012
1878.0,0.0121
1877.0,0.0122
1876.0,0.0123
1875.0,0.0124
1874.0,0.0125
1873.0,0.0126
1872.0,0.0127
1871.0,0.0128
1870.0,0.0129
1869.0,0.0129
1868.0,0.013
1867.0,0.013
1866.0,0.0131
1865.0,0.0131
1864.0,0.0132
1863.0,0.0132
1862.0,0.0132
1861.0,0.0133
1860.0,0.0133
1859.0,0.0134
1858.0,0.0134
1857.0,0.0133
1856.0,0.0133
1855.0,0.0132
1854.0,0.0131
1853.0,0.0131
1852.0,0.013
1851.0,0.013
1850.0,0.0129
1849.0,0.0129
1848.0,0.0128
1847.0,0.0127
1846.0,0.0125
1845.0,0.0124
1844.0,0.0122
1843.0,0.0122
1842.0,0.0122
1841.0,0.0123
1840.0,0.0122
1839.0,0.0122
1838.0,0.012
1837.0,0.0119
1836.0,0.0118
1835.0,0.0117
1834.0,0.0116
1833.0,0.0116
1832.0,0.0116
1831.0,0.0115
1830.0,0.0113
1829.0,0.0112
1828.0,0.0112
1827.0,0.0112
1826.0,0.0111
1825.0,0.0109
1824.0,0.0109
1823.0,0.0108
1822.0,0.0107
1821.0,0.0106
1820.0,0.0106
1819.0,0.0105
1818.0,0.0105
1817.0,0.0104
1816.0,0.0104
1815.0,0.0105
1814.0,0.0104
1813.0,0.0104
1812.0,0.0104
1811.0,0.0103
1810.0,0.0102
1809.0,0.0101
1808.0,0.01
1807.0,0.01
1806.0,0.01
1805.0,0.0099
1804.0,0.01
1803.0,0.01
1802.0,0.0099
1801.0,0.0099
1800.0,0.0098
1799.0,0.0098
1798.0,0.0096
1797.0,0.0096
1796.0,0.0095
1795.0,0.0096
1794.0,0.0095
1793.0,0.0094
1792.0,0.0092
1791.0,0.0092
1790.0,0.0091
1789.0,0.0092
1788.0,0.0093
1787.0,0.0093
1786.0,0.0093
1785.0,0.0092
1784.0,0.0092
1783.0,0.0092
1782.0,0.0091
1781.0,0.0089
1780.0,0.0088
1779.0,0.0087
1778.0,0.0087
1777.0,0.0087
1776.0,0.0087
1775.0,0.0087
1774.0,0.0086
1773.0,0.0084
1772.0,0.0083
1771.0,0.0083
1770.0,0.0083
1769.0,0.0082
1768.0,0.0081
1767.0,0.0081
1766.0,0.008
1765.0,0.008
1764.0,0.008
1763.0,0.008
1762.0,0.0079
1761.0,0.0078
1760.0,0.0078
1759.0,0.0078
1758.0,0.0076
1757.0,0.0074
1756.0,0.0073
1755.0,0.0073
1754.0,0.0073
1753.0,0.0073
1752.0,0.0073
1751.0,0.0072
1750.0,0.007
1749.0,0.0069
1748.0,0.0069
1747.0,0.0069
1746.0,0.0069
1745.0,0.007
1744.0,0.0071
1743.0,0.0072
1742.0,0.0073
1741.0,0.0073
1740.0,0.0074
1739.0,0.0076
1738.0,0.0077
1737.0,0.0079
1736.0,0.0082
1735.0,0.0085
1734.0,0.0088
1733.0,0.009
1732.0,0.0094
1731.0,0.0097
1730.0,0.0099
1729.0,0.01
1728.0,0.0101
1727.0,0.0103
1726.0,0.0105
1725.0,0.0107
1724.0,0.011
1723.0,0.0112
1722.0,0.0114
1721.0,0.0116
1720.0,0.0118
1719.0,0.012
1718.0,0.012
1717.0,0.0121
1716.0,0.0124
1715.0,0.0126
1714.0,0.0127
1713.0,0.0128
1712.0,0.0129
1711.0,0.0131
1710.0,0.0132
1709.0,0.0133
1708.0,0.0135
1707.0,0.0136
1706.0,0.0136
1705.0,0.0135
1704.0,0.0135
1703.0,0.0135
1702.0,0.0134
1701.0,0.0133
1700.0,0.0133
1699.0,0.0134
1698.0,0.0134
1697.0,0.0133
1696.0,0.0134
1695.0,0.0135
1694.0,0.0135
1693.0,0.0137
1692.0,0.0139
1691.0,0.014
1690.0,0.014
1689.0,0.0139
1688.0,0.014
1687.0,0.0142
1686.0,0.0143
1685.0,0.0143
1684.0,0.0143
1683.0,0.0143
1682.0,0.0141
1681.0,0.0141
1680.0,0.0141
1679.0,0.0141
1678.0,0.014
1677.0,0.014
1676.0,0.0141
1675.0,0.0142
1674.0,0.0142
1673.0,0.0143
1672.0,0.0145
1671.0,0.0147
1670.0,0.0148
1669.0,0.0148
1668.0,0.0149
1667.0,0.0151
1666.0,0.0152
1665.0,0.0154
1664.0,0.0159
1663.0,0.0167
1662.0,0.0175
1661.0,0.0183
1660.0,0.0195
1659.0,0.0207
1658.0,0.0221
1657.0,0.0234
1656.0,0.025
1655.0,0.0276
1654.0,0.034
1653.0,0.0445
1652.0,0.0523
1651.0,0.0568
1650.0,0.0609
1649.0,0.0665
1648.0,0.0762
1647.0,0.0897
1646.0,0.1012
1645.0,0.109
1644.0,0.1161
1643.0,0.1243
1642.0,0.134
1641.0,0.1449
1640.0,0.1561
1639.0,0.1666
1638.0,0.1763
1637.0,0.1879
1636.0,0.2022
1635.0,0.2126
1634.0,0.215
1633.0,0.2128
1632.0,0.2087
1631.0,0.2034
1630.0,0.1962
1629.0,0.1868
1628.0,0.1761
1627.0,0.1656
1626.0,0.1554
1625.0,0.1443
1624.0,0.1315
1623.0,0.1188
1622.0,0.109
1621.0,0.1021
1620.0,0.0965
1619.0,0.0911
1618.0,0.0852
1617.0,0.079
1616.0,0.0738
1615.0,0.0703
1614.0,0.0679
1613.0,0.0655
1612.0,0.0631
1611.0,0.0607
1610.0,0.0587
1609.0,0.0568
1608.0,0.0549
1607.0,0.0533
1606.0,0.0519
1605.0,0.0507
1604.0,0.0494
1603.0,0.0483
1602.0,0.0473
1601.0,0.0464
1600.0,0.0454
1599.0,0.0444
1598.0,0.0437
1597.0,0.0429
1596.0,0.0421
1595.0,0.0413
1594.0,0.0406
1593.0,0.0399
1592.0,0.0392
1591.0,0.0386
1590.0,0.0381
1589.0,0.0376
1588.0,0.037
1587.0,0.0365
1586.0,0.036
1585.0,0.0355
1584.0,0.035
1583.0,0.0345
1582.0,0.0342
1581.0,0.0339
1580.0,0.0335
1579.0,0.0332
1578.0,0.0329
1577.0,0.0326
1576.0,0.0323
1575.0,0.032
1574.0,0.0317
1573.0,0.0315
1572.0,0.0311
1571.0,0.0307
1570.0,0.0304
1569.0,0.0302
1568.0,0.0299
1567.0,0.0297
1566.0,0.0294
1565.0,0.0292
1564.0,0.0289
1563.0,0.0286
1562.0,0.0285
1561.0,0.0285
1560.0,0.0282
1559.0,0.0279
1558.0,0.0277
1557.0,0.0274
1556.0,0.0272
1555.0,0.027
1554.0,0.0269
1553.0,0.0268
1552.0,0.0267
1551.0,0.0266
1550.0,0.0265
1549.0,0.0264
1548.0,0.0262
1547.0,0.026
1546.0,0.0258
1545.0,0.0257
1544.0,0.0255
1543.0,0.0254
1542.0,0.0254
1541.0,0.0255
1540.0,0.0255
1539.0,0.0254
1538.0,0.0252
1537.0,0.0251
1536.0,0.025
1535.0,0.0248
1534.0,0.0247
1533.0,0.0247
1532.0,0.0246
1531.0,0.0245
1530.0,0.0245
1529.0,0.0244
1528.0,0.0242
1527.0,0.0239
1526.0,0.0237
1525.0,0.0236
1524.0,0.0235
1523.0,0.0235
1522.0,0.0234
1521.0,0.0235
1520.0,0.0235
1519.0,0.0234
1518.0,0.0233
1517.0,0.0231
1516.0,0.0229
1515.0,0.0227
1514.0,0.0225
1513.0,0.0224
1512.0,0.0223
1511.0,0.0223
1510.0,0.0223
1509.0,0.0223
1508.0,0.0222
1507.0,0.0222
1506.0,0.0222
1505.0,0.0221
1504.0,0.0221
1503.0,0.0221
1502.0,0.0221
1501.0,0.0221
1500.0,0.022
1499.0,0.0218
1498.0,0.0217
1497.0,0.0216
1496.0,0.0215
1495.0,0.0215
1494.0,0.0215
1493.0,0.0215
1492.0,0.0215
1491.0,0.0213
1490.0,0.0211
1489.0,0.0211
1488.0,0.0211
1487.0,0.0211
1486.0,0.021
1485.0,0.021
1484.0,0.0209
1483.0,0.0209
1482.0,0.0209
1481.0,0.0208
1480.0,0.0208
1479.0,0.0208
1478.0,0.0209
1477.0,0.0208
1476.0,0.0208
1475.0,0.0207
1474.0,0.0206
1473.0,0.0206
1472.0,0.0206
1471.0,0.0206
1470.0,0.0206
1469.0,0.0205
1468.0,0.0205
1467.0,0.0205
1466.0,0.0204
1465.0,0.0203
1464.0,0.0203
1463.0,0.0203
1462.0,0.0204
1461.0,0.0204
1460.0,0.0204
1459.0,0.0204
1458.0,0.0203
1457.0,0.0204
1456.0,0.0206
1455.0,0.0207
1454.0,0.0209
1453.0,0.021
1452.0,0.0211
1451.0,0.0211
1450.0,0.0212
1449.0,0.0213
1448.0,0.0213
1447.0,0.0213
1446.0,0.0214
1445.0,0.0215
1444.0,0.0215
1443.0,0.0216
1442.0,0.0217
1441.0,0.0217
1440.0,0.0217
1439.0,0.0217
1438.0,0.0218
1437.0,0.0219
1436.0,0.0221
1435.0,0.0222
1434.0,0.0223
1433.0,0.0224
1432.0,0.0224
1431.0,0.0225
1430.0,0.0225
1429.0,0.0225
1428.0,0.0225
1427.0,0.0225
1426.0,0.0226
1425.0,0.0226
1424.0,0.0226
1423.0,0.0226
1422.0,0.0227
1421.0,0.0227
1420.0,0.0228
1419.0,0.0229
1418.0,0.0231
1417.0,0.0232
1416.0,0.0233
1415.0,0.0235
1414.0,0.0237
1413.0,0.0241
1412.0,0.0245
1411.0,0.025
1410.0,0.0255
1409.0,0.0259
1408.0,0.0262
1407.0,0.0263
1406.0,0.0262
1405.0,0.026
1404.0,0.0257
1403.0,0.0255
1402.0,0.0253
1401.0,0.025
1400.0,0.0247
1399.0,0.0244
1398.0,0.0241
1397.0,0.0238
1396.0,0.0235
1395.0,0.0232
1394.0,0.0229
1393.0,0.0227
1392.0,0.0226
1391.0,0.0224
1390.0,0.0223
1389.0,0.0222
1388.0,0.022
1387.0,0.0218
1386.0,0.0217
1385.0,0.0216
1384.0,0.0215
1383.0,0.0214
1382.0,0.0214
1381.0,0.0214
1380.0,0.0214
1379.0,0.0214
1378.0,0.0215
1377.0,0.0215
1376.0,0.0215
1375.0,0.0215
1374.0,0.0216
1373.0,0.0216
1372.0,0.0217
1371.0,0.0217
1370.0,0.0219
1369.0,0.0219
1368.0,0.022
1367.0,0.0219
1366.0,0.0218
1365.0,0.0217
1364.0,0.0216
1363.0,0.0213
1362.0,0.0211
1361.0,0.021
1360.0,0.0209
1359.0,0.0207
1358.0,0.0206
1357.0,0.0205
1356.0,0.0203
1355.0,0.0202
1354.0,0.0201
1353.0,0.02
1352.0,0.0199
1351.0,0.0198
1350.0,0.0197
1349.0,0.0197
1348.0,0.0197
1347.0,0.0196
1346.0,0.0196
1345.0,0.0197
1344.0,0.0198
1343.0,0.0199
1342.0,0.02
1341.0,0.0201
1340.0,0.0202
1339.0,0.0202
1338.0,0.0202
1337.0,0.0201
1336.0,0.02
1335.0,0.0198
1334.0,0.0197
1333.0,0.0195
1332.0,0.0193
1331.0,0.0192
1330.0,0.0191
1329.0,0.019
1328.0,0.0188
1327.0,0.0187
1326.0,0.0186
1325.0,0.0186
1324.0,0.0186
1323.0,0.0186
1322.0,0.0186
1321.0,0.0187
1320.0,0.0187
1319.0,0.0187
1318.0,0.0187
1317.0,0.0188
1316.0,0.0188
1315.0,0.0188
1314.0,0.0188
1313.0,0.0189
1312.0,0.019
1311.0,0.019
1310.0,0.0191
1309.0,0.0192
1308.0,0.0193
1307.0,0.0193
1306.0,0.0194
1305.0,0.0194
1304.0,0.0195
1303.0,0.0197
1302.0,0.0199
1301.0,0.0201
1300.0,0.0204
1299.0,0.0206
1298.0,0.0209
1297.0,0.0213
1296.0,0.0216
1295.0,0.0219
1294.0,0.0223
1293.0,0.0226
1292.0,0.023
1291.0,0.0233
1290.0,0.0237
1289.0,0.024
1288.0,0.0244
1287.0,0.0246
1286.0,0.0249
1285.0,0.0252
1284.0,0.0255
1283.0,0.0257
1282.0,0.026
1281.0,0.0261
1280.0,0.0263
1279.0,0.0264
1278.0,0.0265
1277.0,0.0267
1276.0,0.0269
1275.0,0.0271
1274.0,0.0273
1273.0,0.0275
1272.0,0.0277
1271.0,0.028
1270.0,0.0285
1269.0,0.029
1268.0,0.0295
1267.0,0.03
1266.0,0.0305
1265.0,0.031
1264.0,0.0314
1263.0,0.0319
1262.0,0.0323
1261.0,0.0326
1260.0,0.0329
1259.0,0.0331
1258.0,0.0332
1257.0,0.0334
1256.0,0.0336
1255.0,0.0338
1254.0,0.034
1253.0,0.0342
1252.0,0.0344
1251.0,0.0346
1250.0,0.0348
1249.0,0.0351
1248.0,0.0355
1247.0,0.0359
1246.0,0.0362
1245.0,0.0365
1244.0,0.0369
1243.0,0.0372
1242.0,0.0376
1241.0,0.0379
1240.0,0.0383
1239.0,0.0385
1238.0,0.0388
1237.0,0.039
1236.0,0.0392
1235.0,0.0394
1234.0,0.0395
1233.0,0.0396
1232.0,0.0397
1231.0,0.0397
1230.0,0.0396
1229.0,0.0396
1228.0,0.0395
1227.0,0.0395
1226.0,0.0394
1225.0,0.0394
1224.0,0.0393
1223.0,0.0391
1222.0,0.039
1221.0,0.0388
1220.0,0.0387
1219.0,0.0386
1218.0,0.0386
1217.0,0.0385
1216.0,0.0385
1215.0,0.0384
1214.0,0.0383
1213.0,0.0382
1212.0,0.0381
1211.0,0.038
1210.0,0.0378
1209.0,0.0377
1208.0,0.0376
1207.0,0.0375
1206.0,0.0375
1205.0,0.0374
1204.0,0.0374
1203.0,0.0373
1202.0,0.0372
1201.0,0.0372
1200.0,0.0371
1199.0,0.037
1198.0,0.037
1197.0,0.0369
1196.0,0.0369
1195.0,0.037
1194.0,0.037
1193.0,0.037
1192.0,0.037
1191.0,0.0369
1190.0,0.0369
1189.0,0.0368
1188.0,0.0368
1187.0,0.0367
1186.0,0.0367
1185.0,0.0367
1184.0,0.0366
1183.0,0.0366
1182.0,0.0366
1181.0,0.0367
1180.0,0.0367
1179.0,0.0367
1178.0,0.0368
1177.0,0.037
1176.0,0.0372
1175.0,0.0373
1174.0,0.0374
1173.0,0.0375
1172.0,0.0375
1171.0,0.0375
1170.0,0.0375
1169.0,0.0375
1168.0,0.0375
1167.0,0.0375
1166.0,0.0375
1165.0,0.0375
1164.0,0.0374
1163.0,0.0373
1162.0,0.0373
1161.0,0.0372
1160.0,0.0372
1159.0,0.0372
1158.0,0.0372
1157.0,0.0371
1156.0,0.037
1155.0,0.037
1154.0,0.0369
1153.0,0.0369
1152.0,0.037
1151.0,0.037
1150.0,0.037
1149.0,0.0371
1148.0,0.0372
1147.0,0.0373
1146.0,0.0375
1145.0,0.0377
1144.0,0.0379
1143.0,0.0381
1142.0,0.0384
1141.0,0.0387
1140.0,0.039
1139.0,0.0392
1138.0,0.0394
1137.0,0.0397
1136.0,0.0399
1135.0,0.0402
1134.0,0.0404
1133.0,0.0406
1132.0,0.0407
1131.0,0.041
1130.0,0.0414
1129.0,0.0418
1128.0,0.0422
1127.0,0.0425
1126.0,0.0429
1125.0,0.0432
1124.0,0.0436
1123.0,0.044
1122.0,0.0445
1121.0,0.045
1120.0,0.0455
1119.0,0.0459
1118.0,0.0463
1117.0,0.0466
1116.0,0.0469
1115.0,0.0471
1114.0,0.0471
1113.0,0.0471
1112.0,0.047
1111.0,0.047
1110.0,0.047
1109.0,0.0472
1108.0,0.0474
1107.0,0.0477
1106.0,0.0482
1105.0,0.0487
1104.0,0.0494
1103.0,0.0501
1102.0,0.0509
1101.0,0.0516
1100.0,0.0523
1099.0,0.0529
1098.0,0.0535
1097.0,0.0542
1096.0,0.0548
1095.0,0.0555
1094.0,0.056
1093.0,0.0565
1092.0,0.0569
1091.0,0.0572
1090.0,0.0575
1089.0,0.0577
1088.0,0.058
1087.0,0.0583
1086.0,0.0586
1085.0,0.0588
1084.0,0.059
1083.0,0.0591
1082.0,0.0591
1081.0,0.0591
1080.0,0.0591
1079.0,0.0592
1078.0,0.0592
1077.0,0.0591
1076.0,0.0589
1075.0,0.0587
1074.0,0.0584
1073.0,0.0582
1072.0,0.058
1071.0,0.0579
1070.0,0.0577
1069.0,0.0575
1068.0,0.0573
1067.0,0.0571
1066.0,0.0568
1065.0,0.0566
1064.0,0.0565
1063.0,0.0563
1062.0,0.0561
1061.0,0.0559
1060.0,0.0557
1059.0,0.0556
1058.0,0.0554
1057.0,0.0553
1056.0,0.0552
1055.0,0.055
1054.0,0.0548
1053.0,0.0547
1052.0,0.0547
1051.0,0.0548
1050.0,0.0549
1049.0,0.055
1048.0,0.0552
1047.0,0.0553
1046.0,0.0554
1045.0,0.0555
1044.0,0.0556
1043.0,0.0557
1042.0,0.0558
1041.0,0.056
1040.0,0.0561
1039.0,0.0562
1038.0,0.0563
1037.0,0.0564
1036.0,0.0564
1035.0,0.0564
1034.0,0.0564
1033.0,0.0564
1032.0,0.0564
1031.0,0.0563
1030.0,0.0562
1029.0,0.0561
1028.0,0.0559
1027.0,0.0558
1026.0,0.0556
1025.0,0.0555
1024.0,0.0554
1023.0,0.0554
1022.0,0.0555
1021.0,0.056
1020.0,0.0567
1019.0,0.0576
1018.0,0.0587
1017.0,0.0598
1016.0,0.0608
1015.0,0.0615
1014.0,0.0619
1013.0,0.062
1012.0,0.0618
1011.0,0.0615
1010.0,0.0611
1009.0,0.0608
1008.0,0.0605
1007.0,0.0603
1006.0,0.0601
1005.0,0.0599
1004.0,0.0598
1003.0,0.0596
1002.0,0.0595
1001.0,0.0594
1000.0,0.0593
999.0,0.0592
998.0,0.0591
997.0,0.059
996.0,0.059
995.0,0.059
994.0,0.059
993.0,0.0589
992.0,0.0588
991.0,0.0586
990.0,0.0585
989.0,0.0584
988.0,0.0584
987.0,0.0583
986.0,0.0582
985.0,0.0581
984.0,0.0581
983.0,0.0581
982.0,0.0581
981.0,0.058
980.0,0.0579
979.0,0.0578
978.0,0.0577
977.0,0.0577
976.0,0.0577
975.0,0.0577
974.0,0.0577
973.0,0.0578
972.0,0.0579
971.0,0.0579
970.0,0.0578
969.0,0.0578
968.0,0.0577
967.0,0.0576
966.0,0.0575
965.0,0.0574
964.0,0.0573
963.0,0.0572
962.0,0.0571
961.0,0.057
960.0,0.057
959.0,0.057
958.0,0.0569
957.0,0.0568
956.0,0.0567
955.0,0.0565
954.0,0.0564
953.0,0.0562
952.0,0.0561
951.0,0.056
950.0,0.0559
949.0,0.0558
948.0,0.0556
947.0,0.0555
946.0,0.0555
945.0,0.0555
944.0,0.0556
943.0,0.0556
942.0,0.0555
941.0,0.0553
940.0,0.0552
939.0,0.0551
938.0,0.055
937.0,0.055
936.0,0.055
935.0,0.0549
934.0,0.0548
933.0,0.0547
932.0,0.0546
931.0,0.0544
930.0,0.0543
929.0,0.0541
928.0,0.054
927.0,0.054
926.0,0.0539
925.0,0.0538
924.0,0.0537
923.0,0.0536
922.0,0.0534
921.0,0.0533
920.0,0.0532
919.0,0.0531
918.0,0.053
917.0,0.0529
916.0,0.0527
915.0,0.0526
914.0,0.0526
913.0,0.0525
912.0,0.0525
911.0,0.0524
910.0,0.0522
909.0,0.0522
908.0,0.0521
907.0,0.052
906.0,0.0519
905.0,0.0519
904.0,0.0518
903.0,0.0519
902.0,0.0519
901.0,0.052
900.0,0.052
899.0,0.0521
898.0,0.0521
897.0,0.0521
896.0,0.052
895.0,0.0519
894.0,0.0518
893.0,0.0518
892.0,0.0519
891.0,0.052
890.0,0.0521
889.0,0.0522
888.0,0.0521
887.0,0.052
886.0,0.0519
885.0,0.0518
884.0,0.0517
883.0,0.0517
882.0,0.0517
881.0,0.0519
880.0,0.0521
879.0,0.0524
878.0,0.0527
877.0,0.053
876.0,0.0534
875.0,0.0539
874.0,0.0543
873.0,0.0546
872.0,0.0549
871.0,0.0551
870.0,0.0551
869.0,0.055
868.0,0.0548
867.0,0.0545
866.0,0.0541
865.0,0.0538
864.0,0.0536
863.0,0.0534
862.0,0.0533
861.0,0.0531
860.0,0.0529
859.0,0.0527
858.0,0.0525
857.0,0.0523
856.0,0.0523
855.0,0.0522
854.0,0.0521
853.0,0.052
852.0,0.0519
851.0,0.0518
850.0,0.0517
849.0,0.0516
848.0,0.0515
847.0,0.0513
846.0,0.0513
845.0,0.0512
844.0,0.0512
843.0,0.051
842.0,0.0509
841.0,0.0508
840.0,0.0506
839.0,0.0505
838.0,0.0503
837.0,0.0502
836.0,0.05
835.0,0.0499
834.0,0.0499
833.0,0.0499
832.0,0.0499
831.0,0.0498
830.0,0.0497
829.0,0.0495
828.0,0.0493
827.0,0.0491
826.0,0.0489
825.0,0.0487
824.0,0.0485
823.0,0.0485
822.0,0.0486
821.0,0.0486
820.0,0.0485
819.0,0.0482
818.0,0.0479
817.0,0.0477
816.0,0.0476
815.0,0.0476
814.0,0.0475
813.0,0.0474
812.0,0.0471
811.0,0.0469
810.0,0.0468
809.0,0.0467
808.0,0.0467
807.0,0.0467
806.0,0.0467
805.0,0.0467
804.0,0.0466
803.0,0.0463
802.0,0.046
801.0,0.0457
800.0,0.0454
799.0,0.0452
798.0,0.0451
797.0,0.045
796.0,0.045
795.0,0.0452
794.0,0.0454
793.0,0.0456
792.0,0.0457
791.0,0.0455
790.0,0.0453
789.0,0.0451
788.0,0.045
787.0,0.0449
786.0,0.0448
785.0,0.0447
784.0,0.0444
783.0,0.0441
782.0,0.0438
781.0,0.0435
780.0,0.0432
779.0,0.0429
778.0,0.0427
777.0,0.0426
776.0,0.0426
775.0,0.0425
774.0,0.0423
773.0,0.042
772.0,0.0417
771.0,0.0412
770.0,0.0408
769.0,0.0405
768.0,0.0403
767.0,0.0401
766.0,0.0401
765.0,0.04
764.0,0.04
763.0,0.0397
762.0,0.0392
761.0,0.0386
760.0,0.038
759.0,0.0375
758.0,0.0372
757.0,0.0369
756.0,0.0366
755.0,0.0362
754.0,0.0358
753.0,0.0355
752.0,0.0351
751.0,0.0347
750.0,0.0343
749.0,0.034
748.0,0.0337
747.0,0.0335
746.0,0.0331
745.0,0.0327
744.0,0.0322
743.0,0.0316
742.0,0.0313
741.0,0.0315
740.0,0.032
739.0,0.033
738.0,0.0342
737.0,0.0358
736.0,0.0377
735.0,0.0396
734.0,0.0416
733.0,0.0439
732.0,0.0462
731.0,0.0486
730.0,0.051
729.0,0.0535
728.0,0.0562
727.0,0.0587
726.0,0.0609
725.0,0.0626
724.0,0.0639
723.0,0.0646
722.0,0.0644
721.0,0.0636
720.0,0.0623
719.0,0.0609
718.0,0.0595
717.0,0.0585
716.0,0.058
715.0,0.0577
714.0,0.0572
713.0,0.0564
712.0,0.0555
711.0,0.0546
710.0,0.0542
709.0,0.0541
708.0,0.0542
707.0,0.0542
706.0,0.054
705.0,0.0539
704.0,0.0537
703.0,0.0535
702.0,0.0533
701.0,0.0533
700.0,0.0535
699.0,0.0537
698.0,0.0541
697.0,0.0546
696.0,0.0551
695.0,0.0552
694.0,0.0552
693.0,0.0552
692.0,0.0555
691.0,0.056
690.0,0.0564
689.0,0.0569
688.0,0.0577
687.0,0.0586
686.0,0.0594
685.0,0.0599
684.0,0.0604
683.0,0.0611
682.0,0.0622
681.0,0.0636
680.0,0.0649
679.0,0.0657
678.0,0.0659
677.0,0.0662
676.0,0.0669
675.0,0.0681
674.0,0.0694
673.0,0.0707
672.0,0.0721
671.0,0.074
670.0,0.0769
669.0,0.0813
668.0,0.0851
667.0,0.0851
666.0,0.0833
665.0,0.0827
664.0,0.0835
663.0,0.0848
662.0,0.0858
661.0,0.0867
660.0,0.0877
659.0,0.089
658.0,0.0905
657.0,0.0924
656.0,0.0946
655.0,0.0966
654.0,0.0983
653.0,0.1
652.0,0.102
651.0,0.1038
650.0,0.1053
649.0,0.1067
648.0,0.1081
647.0,0.1094
646.0,0.1103
645.0,0.1115
644.0,0.1136
643.0,0.1161
642.0,0.1186
641.0,0.1209
640.0,0.1233
639.0,0.1258
638.0,0.1287
637.0,0.1322
636.0,0.1358
635.0,0.1388
634.0,0.141
633.0,0.143
632.0,0.1449
631.0,0.146
630.0,0.1464
629.0,0.1469
628.0,0.1479
627.0,0.1486
626.0,0.1488
625.0,0.149
624.0,0.1499
623.0,0.1513
622.0,0.153
621.0,0.1549
620.0,0.1569
619.0,0.1583
618.0,0.1592
617.0,0.1606
616.0,0.163
615.0,0.165
614.0,0.1657
613.0,0.1656
612.0,0.1654
611.0,0.1651
610.0,0.1645
609.0,0.164
608.0,0.1639
607.0,0.1635
606.0,0.1619
605.0,0.1597
604.0,0.1581
603.0,0.1575
602.0,0.1581
601.0,0.1597
600.0,0.1616
