nm,Intensity
528.626,1863.6
528.711,1865.9
528.795,1865.2
528.879,1865.0
528.963,1864.6
529.048,1864.9
529.132,1864.8
529.216,1864.3
529.3,1864.1
529.385,1864.2
529.469,1864.7
529.553,1864.8
529.637,1864.4
529.721,1864.5
529.806,1865.0
529.89,1864.3
529.974,1862.9
530.058,1864.1
530.143,1865.5
530.227,1864.3
530.311,1865.1
530.395,1863.4
530.48,1866.6
530.564,1865.2
530.648,1863.8
530.732,1865.2
530.816,1864.7
530.901,1864.5
530.985,1864.8
531.069,1866.8
531.153,1866.2
531.237,1868.1
531.322,1868.6
531.406,1869.3
531.49,1870.1
531.574,1874.3
531.658,1892.8
531.743,1979.9
531.827,2338.0
531.911,2925.5
531.995,3542.7
532.079,4007.2
532.164,3784.1
532.248,2905.7
532.332,2160.4
532.416,1898.2
532.5,1871.0
532.585,1867.5
532.669,1868.3
532.753,1866.3
532.837,1866.3
532.921,1865.8
533.006,1863.4
533.09,1865.0
533.174,1867.6
533.258,1864.0
533.342,1866.6
533.426,1869.9
533.511,1874.8
533.595,1894.8
533.679,1938.2
533.763,1995.0
533.847,2055.8
533.931,2105.6
534.016,2144.3
534.1,2165.8
534.184,2169.7
534.268,2168.1
534.352,2176.1
534.436,2162.9
534.521,2151.8
534.605,2173.1
534.689,2164.8
534.773,2177.5
534.857,2165.1
534.941,2183.1
535.025,2164.7
535.11,2168.9
535.194,2170.1
535.278,2165.8
535.362,2166.7
535.446,2175.1
535.53,2174.3
535.614,2171.0
535.699,2160.1
535.783,2159.4
535.867,2160.4
535.951,2154.4
536.035,2152.9
536.119,2154.0
536.203,2142.9
536.287,2138.8
536.372,2128.9
536.456,2130.3
536.54,2142.7
536.624,2138.6
536.708,2137.8
536.792,2129.5
536.876,2128.0
536.96,2120.4
537.044,2115.5
537.129,2124.1
537.213,2138.9
537.297,2147.3
537.381,2142.3
537.465,2160.1
537.549,2142.1
537.633,2144.1
537.717,2144.5
537.801,2148.9
537.885,2146.7
537.97,2138.4
538.054,2145.7
538.138,2137.8
538.222,2127.8
538.306,2127.2
538.39,2145.7
538.474,2141.2
538.558,2145.5
538.642,2137.7
538.726,2144.2
538.81,2137.9
538.894,2121.7
538.979,2128.8
539.063,2134.7
539.147,2130.0
539.231,2123.9
539.315,2126.7
539.399,2127.8
539.483,2134.3
539.567,2117.0
539.651,2124.5
539.735,2127.5
539.819,2137.3
539.903,2138.8
539.987,2132.8
540.071,2136.4
540.155,2134.7
540.239,2126.3
540.324,2111.0
540.408,2121.6
540.492,2116.2
540.576,2129.1
540.66,2126.8
540.744,2129.0
540.828,2120.9
540.912,2122.7
540.996,2117.5
541.08,2133.0
541.164,2133.8
541.248,2119.3
541.332,2126.7
541.416,2137.0
541.5,2122.6
541.584,2120.7
541.668,2126.6
541.752,2135.0
541.836,2141.6
541.92,2124.5
542.004,2129.8
542.088,2129.9
542.172,2138.5
542.256,2138.0
542.34,2133.4
542.424,2125.8
542.508,2141.1
542.592,2146.5
542.676,2145.6
542.76,2127.1
542.844,2119.5
542.928,2131.8
543.012,2121.7
543.096,2126.8
543.18,2139.1
543.264,2131.9
543.348,2120.0
543.432,2122.9
543.516,2134.8
543.6,2124.8
543.684,2140.9
543.768,2150.4
543.852,2147.0
543.936,2156.1
544.02,2143.0
544.104,2137.9
544.188,2137.6
544.272,2138.6
544.356,2126.7
544.44,2133.5
544.524,2127.8
544.608,2127.0
544.692,2125.9
544.776,2135.0
544.86,2143.1
544.944,2145.0
545.028,2149.3
545.112,2150.8
545.196,2152.1
545.28,2151.0
545.364,2148.7
545.448,2126.3
545.532,2131.4
545.616,2134.0
545.7,2131.1
545.784,2152.0
545.867,2155.5
545.951,2148.6
546.035,2147.4
546.119,2130.2
546.203,2128.5
546.287,2145.7
546.371,2144.5
546.455,2148.4
546.539,2148.9
546.623,2142.6
546.707,2147.5
546.791,2141.2
546.875,2150.6
546.959,2157.4
547.043,2160.1
547.127,2157.6
547.21,2150.3
547.294,2145.0
547.378,2127.6
547.462,2131.5
547.546,2131.6
547.63,2132.3
547.714,2130.2
547.798,2141.2
547.882,2139.9
547.966,2135.6
548.05,2143.1
548.134,2144.0
548.217,2141.7
548.301,2156.8
548.385,2160.6
548.469,2164.9
548.553,2154.0
548.637,2157.6
548.721,2154.5
548.805,2137.2
548.889,2150.9
548.972,2159.6
549.056,2139.2
549.14,2143.9
549.224,2153.1
549.308,2160.0
549.392,2147.0
549.476,2148.9
549.56,2152.4
549.644,2153.8
549.727,2159.6
549.811,2163.3
549.895,2157.2
549.979,2144.2
550.063,2149.9
550.147,2147.5
550.231,2136.4
550.315,2150.1
550.398,2146.6
550.482,2156.3
550.566,2146.9
550.65,2165.7
550.734,2146.5
550.818,2153.4
550.902,2151.9
550.985,2153.2
551.069,2147.4
551.153,2166.8
551.237,2152.5
551.321,2154.3
551.405,2158.9
551.488,2164.2
551.572,2156.6
551.656,2168.4
551.74,2156.1
551.824,2176.2
551.908,2176.9
551.991,2178.0
552.075,2175.8
552.159,2172.3
552.243,2168.2
552.327,2171.1
552.411,2176.5
552.494,2158.5
552.578,2169.0
552.662,2151.5
552.746,2152.8
552.83,2152.7
552.914,2159.0
552.997,2145.9
553.081,2174.8
553.165,2193.2
553.249,2175.0
553.333,2162.0
553.416,2169.9
553.5,2175.0
553.584,2180.0
553.668,2175.5
553.752,2180.0
553.835,2187.4
553.919,2174.4
554.003,2172.1
554.087,2197.6
554.171,2190.8
554.254,2170.6
554.338,2170.5
554.422,2172.5
554.506,2178.1
554.589,2174.6
554.673,2194.8
554.757,2193.8
554.841,2194.6
554.925,2202.3
555.008,2200.7
555.092,2186.5
555.176,2202.1
555.26,2188.6
555.343,2180.7
555.427,2192.6
555.511,2199.5
555.595,2189.2
555.679,2194.2
555.762,2190.9
555.846,2183.7
555.93,2188.4
556.014,2204.8
556.097,2192.3
556.181,2199.8
556.265,2197.6
556.349,2199.2
556.432,2205.3
556.516,2190.0
556.6,2189.7
556.684,2195.7
556.767,2189.2
556.851,2203.1
556.935,2200.8
557.018,2199.0
557.102,2192.2
557.186,2187.8
557.27,2191.9
557.353,2207.6
557.437,2197.0
557.521,2217.3
557.605,2217.7
557.688,2213.7
557.772,2217.0
557.856,2228.5
557.939,2214.9
558.023,2224.2
558.107,2217.8
558.191,2225.2
558.274,2227.9
558.358,2230.6
558.442,2214.1
558.525,2208.1
558.609,2198.1
558.693,2199.1
558.776,2206.5
558.86,2195.0
558.944,2214.1
559.028,2205.5
559.111,2216.4
559.195,2201.4
559.279,2216.8
559.362,2197.3
559.446,2216.7
559.53,2211.0
559.613,2216.6
559.697,2212.3
559.781,2217.7
559.864,2203.5
559.948,2195.7
560.032,2194.5
560.115,2195.1
560.199,2197.3
560.283,2190.8
560.366,2212.6
560.45,2204.4
560.534,2223.5
560.617,2234.7
560.701,2224.3
560.785,2230.9
560.868,2228.5
560.952,2228.1
561.036,2238.3
561.119,2245.9
561.203,2224.4
561.287,2233.0
561.37,2212.5
561.454,2212.3
561.538,2204.6
561.621,2213.4
561.705,2235.3
561.789,2210.7
561.872,2228.1
561.956,2241.2
562.039,2251.3
562.123,2246.7
562.207,2240.1
562.29,2238.0
562.374,2226.3
562.458,2229.2
562.541,2239.7
562.625,2238.4
562.708,2255.5
562.792,2243.5
562.876,2271.2
562.959,2271.0
563.043,2263.5
563.127,2279.9
563.21,2270.8
563.294,2282.0
563.377,2262.3
563.461,2268.0
563.545,2290.6
563.628,2288.1
563.712,2328.4
563.795,2365.7
563.879,2409.6
563.963,2454.7
564.046,2464.9
564.13,2446.8
564.213,2423.4
564.297,2373.5
564.38,2342.9
564.464,2322.8
564.548,2326.2
564.631,2323.1
564.715,2329.1
564.798,2322.8
564.882,2336.2
564.966,2313.2
565.049,2306.7
565.133,2302.0
565.216,2292.6
565.3,2307.4
565.383,2304.9
565.467,2294.4
565.551,2284.5
565.634,2309.9
565.718,2327.4
565.801,2342.5
565.885,2391.2
565.968,2473.5
566.052,2496.2
566.135,2524.5
566.219,2512.5
566.302,2460.0
566.386,2420.6
566.47,2386.6
566.553,2336.4
566.637,2308.6
566.72,2326.5
566.804,2306.2
566.887,2317.0
566.971,2324.8
567.054,2331.4
567.138,2306.8
567.221,2333.0
567.305,2326.8
567.388,2334.8
567.472,2335.9
567.555,2333.2
567.639,2328.5
567.722,2322.6
567.806,2317.0
567.889,2314.1
567.973,2316.3
568.057,2322.5
568.14,2335.9
568.224,2323.5
568.307,2327.4
568.391,2327.3
568.474,2324.2
568.558,2317.4
568.641,2319.5
568.725,2324.7
568.808,2338.2
568.892,2328.9
568.975,2346.0
569.058,2322.1
569.142,2336.9
569.225,2341.2
569.309,2345.8
569.392,2370.3
569.476,2352.2
569.559,2348.4
569.643,2356.4
569.726,2373.7
569.81,2364.4
569.893,2368.2
569.977,2368.9
570.06,2361.7
570.144,2368.7
570.227,2368.7
570.311,2370.5
570.394,2405.8
570.477,2399.1
570.561,2407.1
570.644,2409.1
570.728,2414.2
570.811,2426.4
570.895,2408.3
570.978,2411.9
571.062,2445.8
571.145,2472.7
571.229,2539.2
571.312,2586.3
571.395,2685.4
571.479,2789.5
571.562,2802.8
571.646,2768.7
571.729,2706.2
571.813,2605.5
571.896,2585.3
571.979,2575.8
572.063,2555.0
572.146,2537.6
572.23,2552.4
572.313,2532.9
572.397,2527.1
572.48,2547.2
572.563,2534.4
572.647,2534.4
572.73,2514.5
572.814,2504.6
572.897,2514.9
572.98,2527.6
573.064,2541.0
573.147,2540.6
573.231,2536.4
573.314,2553.2
573.397,2563.9
573.481,2580.6
573.564,2572.1
573.648,2577.6
573.731,2568.7
573.814,2592.8
573.898,2610.7
573.981,2619.1
574.064,2621.7
574.148,2625.5
574.231,2613.3
574.315,2600.3
574.398,2604.8
574.481,2602.8
574.565,2630.1
574.648,2671.6
574.731,2667.4
574.815,2671.0
574.898,2663.4
574.982,2651.0
575.065,2674.7
575.148,2674.0
575.232,2694.9
575.315,2752.4
575.398,2806.3
575.482,2876.6
575.565,2894.1
575.648,2905.8
575.732,2929.2
575.815,2908.1
575.898,2898.9
575.982,2937.3
576.065,3010.9
576.148,3104.5
576.232,3113.3
576.315,3136.5
576.398,3128.1
576.482,3132.2
576.565,3076.6
576.648,3100.1
576.732,3120.2
576.815,3114.2
576.898,3128.4
576.982,3139.6
577.065,3074.7
577.148,3080.6
577.232,3088.7
577.315,3063.0
577.398,3034.9
577.481,3032.7
577.565,3059.8
577.648,3045.9
577.731,3059.6
577.815,3059.4
577.898,3070.3
577.981,3086.9
578.065,3114.9
578.148,3088.6
578.231,3107.6
578.314,3113.0
578.398,3143.3
578.481,3147.7
578.564,3129.2
578.648,3179.1
578.731,3180.8
578.814,3210.3
578.897,3244.1
578.981,3247.5
579.064,3287.6
579.147,3271.9
579.23,3282.7
579.314,3323.6
579.397,3320.9
579.48,3375.6
579.563,3371.1
579.647,3369.3
579.73,3382.4
579.813,3425.7
579.896,3432.6
579.98,3486.4
580.063,3492.0
580.146,3491.3
580.229,3479.8
580.313,3521.8
580.396,3507.1
580.479,3596.2
580.562,3593.9
580.646,3593.1
580.729,3606.1
580.812,3602.0
580.895,3665.8
580.979,3687.1
581.062,3705.3
581.145,3765.8
581.228,3776.5
581.311,3760.9
581.395,3747.1
581.478,3771.2
581.561,3783.9
581.644,3756.6
581.728,3788.2
581.811,3835.9
581.894,3854.5
581.977,3871.8
582.06,3906.6
582.144,3905.4
582.227,3928.2
582.31,3971.8
582.393,3915.3
582.476,3907.0
582.56,3959.1
582.643,3994.8
582.726,4045.5
582.809,4036.9
582.892,4072.2
582.975,4099.2
583.059,4076.9
583.142,4086.5
583.225,4141.3
583.308,4238.5
583.391,4198.2
583.475,4152.7
583.558,4136.8
583.641,4167.9
583.724,4204.2
583.807,4295.4
583.89,4286.1
583.973,4296.6
584.057,4369.2
584.14,4415.3
584.223,4487.4
584.306,4462.1
584.389,4373.4
584.472,4377.4
584.556,4517.5
584.639,4528.5
584.722,4526.0
584.805,4444.2
584.888,4457.0
584.971,4486.9
585.054,4602.5
585.138,4588.7
585.221,4578.4
585.304,4575.1
585.387,4602.4
585.47,4677.7
585.553,4654.8
585.636,4642.6
585.719,4647.0
585.802,4705.9
585.886,4782.1
585.969,4836.3
586.052,4909.1
586.135,4920.8
586.218,4840.3
586.301,4827.4
586.384,4880.2
586.467,4982.1
586.55,5009.7
586.634,5048.8
586.717,5102.3
586.8,5098.5
586.883,5027.0
586.966,5125.0
587.049,5163.5
587.132,5172.3
587.215,5276.7
587.298,5244.4
587.381,5278.3
587.464,5276.0
587.548,5383.4
587.631,5394.2
587.714,5487.7
587.797,5511.0
587.88,5539.2
587.963,5597.9
588.046,5632.7
588.129,5690.5
588.212,5620.7
588.295,5607.7
588.378,5705.9
588.461,5676.6
588.544,5759.1
588.627,5823.6
588.71,5808.1
588.793,5810.6
588.876,5728.1
588.96,5791.2
589.043,5858.6
589.126,5976.3
589.209,6037.3
589.292,6002.1
589.375,6012.7
589.458,6105.7
589.541,6108.2
589.624,6101.4
589.707,6199.7
589.79,6238.2
589.873,6272.8
589.956,6204.3
590.039,6185.2
590.122,6243.6
590.205,6277.2
590.288,6345.5
590.371,6530.5
590.454,6534.4
590.537,6637.4
590.62,6491.9
590.703,6566.0
590.786,6576.8
590.869,6626.8
590.952,6673.5
591.035,6717.1
591.118,6683.8
591.201,6691.2
591.284,6761.0
591.367,6783.5
591.45,6788.9
591.533,6827.7
591.616,6796.3
591.699,6838.0
591.782,7033.0
591.865,7013.0
591.948,7106.9
592.031,7139.2
592.114,7130.1
592.197,7098.7
592.28,7173.8
592.363,7247.0
592.446,7291.6
592.529,7218.5
592.611,7149.5
592.694,7264.2
592.777,7262.1
592.86,7250.0
592.943,7338.9
593.026,7344.8
593.109,7368.0
593.192,7372.0
593.275,7421.7
593.358,7472.8
593.441,7492.2
593.524,7478.9
593.607,7365.8
593.69,7421.4
593.773,7571.9
593.856,7603.2
593.939,7523.2
594.021,7593.3
594.104,7636.9
594.187,7576.7
594.27,7637.0
594.353,7832.5
594.436,7864.5
594.519,7829.9
594.602,7877.3
594.685,7859.4
594.768,7891.3
594.851,7772.7
594.933,7892.5
595.016,7915.7
595.099,8035.8
595.182,8005.3
595.265,8159.9
595.348,8183.8
595.431,8233.8
595.514,8192.4
595.597,8255.0
595.68,8257.1
595.762,8392.4
595.845,8515.2
595.928,8554.2
596.011,8482.3
596.094,8461.0
596.177,8524.1
596.26,8620.6
596.342,8686.3
596.425,8620.9
596.508,8677.0
596.591,8824.7
596.674,8713.6
596.757,8801.2
596.84,8920.3
596.923,8925.0
597.005,9072.0
597.088,9030.8
597.171,8852.1
597.254,8915.2
597.337,9042.8
597.42,9176.3
597.502,9242.5
597.585,9281.0
597.668,9292.3
597.751,9214.9
597.834,9233.7
597.917,9362.1
597.999,9456.3
598.082,9479.3
598.165,9453.0
598.248,9477.2
598.331,9562.0
598.414,9679.4
598.496,9668.6
598.579,9682.6
598.662,9729.5
598.745,9859.6
598.828,9760.9
598.91,9869.3
598.993,9857.3
599.076,9887.0
599.159,9988.0
599.242,10210.5
599.324,10152.6
599.407,10000.8
599.49,10045.5
599.573,10274.0
599.656,10270.0
599.738,10316.1
599.821,10339.6
599.904,10278.0
599.987,10226.3
600.069,10323.7
600.152,10260.7
600.235,10212.4
600.318,10349.0
600.401,10435.6
600.483,10392.4
600.566,10323.2
600.649,10285.7
600.732,10281.9
600.814,10407.5
600.897,10496.8
600.98,10487.9
601.063,10160.0
601.145,10242.4
601.228,10424.4
601.311,10528.8
601.394,10332.4
601.476,10331.6
601.559,10472.8
601.642,10516.7
601.725,10528.7
601.807,10389.4
601.89,10431.2
601.973,10230.7
602.055,10142.8
602.138,10193.8
602.221,10183.0
602.304,10106.0
602.386,10198.8
602.469,10080.5
602.552,10147.8
602.635,10129.4
602.717,10181.3
602.8,10083.0
602.883,10119.6
602.965,9914.0
603.048,9970.5
603.131,10118.9
603.213,9964.3
603.296,9991.1
603.379,9861.0
603.462,9778.2
603.544,9604.5
603.627,9645.6
603.71,9687.1
603.792,9753.0
603.875,9751.2
603.958,9666.7
604.04,9545.2
604.123,9417.3
604.206,9351.3
604.288,9270.1
604.371,9252.0
604.454,9298.4
604.536,9244.4
604.619,9212.1
604.702,9091.1
604.784,9116.4
604.867,9036.3
604.95,9120.1
605.032,8923.6
605.115,8773.5
605.198,8836.3
605.28,8745.5
605.363,8807.0
605.446,8745.7
605.528,8689.2
605.611,8737.7
605.693,8646.5
605.776,8435.7
605.859,8378.8
605.941,8425.6
606.024,8347.5
606.107,8305.7
606.189,8255.6
606.272,8261.7
606.354,8246.1
606.437,8260.1
606.52,8179.2
606.602,8115.3
606.685,8094.8
606.767,8000.8
606.85,7963.6
606.933,8046.2
607.015,7977.0
607.098,7794.3
607.181,7850.0
607.263,7822.0
607.346,7728.3
607.428,7533.9
607.511,7577.2
607.593,7730.4
607.676,7739.5
607.759,7550.6
607.841,7435.8
607.924,7517.9
608.006,7372.2
608.089,7370.5
608.172,7467.4
608.254,7489.1
608.337,7446.2
608.419,7303.0
608.502,7187.6
608.584,7180.3
608.667,7107.9
608.749,7194.8
608.832,7111.1
608.915,7168.6
608.997,7160.4
609.08,7095.3
609.162,6902.6
609.245,6897.7
609.327,6924.1
609.41,6972.8
609.492,6869.4
609.575,6860.8
609.657,6807.5
609.74,6878.8
609.823,6902.2
609.905,6846.8
609.988,6742.2
610.07,6785.8
610.153,6724.6
610.235,6713.0
610.318,6751.8
610.4,6652.0
610.483,6667.1
610.565,6649.2
610.648,6638.1
610.73,6587.5
610.813,6543.4
610.895,6525.0
610.978,6516.8
611.06,6572.7
611.143,6471.8
611.225,6455.0
611.308,6415.5
611.39,6548.4
611.473,6507.7
611.555,6490.8
611.638,6417.5
611.72,6378.5
611.803,6354.3
611.885,6245.6
611.968,6262.1
612.05,6221.7
612.133,6225.6
612.215,6250.2
612.297,6309.6
612.38,6263.7
612.462,6166.3
612.545,6019.0
612.627,6075.0
612.71,6181.4
612.792,6026.0
612.875,6082.7
612.957,6109.3
613.04,6082.7
613.122,6033.4
613.204,6028.6
613.287,6103.7
613.369,6005.2
613.452,6021.7
613.534,6014.0
613.617,6001.0
613.699,5872.4
613.781,5878.9
613.864,5892.0
613.946,5904.3
614.029,5851.5
614.111,5871.2
614.194,5835.8
614.276,5805.4
614.358,5815.9
614.441,5798.3
614.523,5829.9
614.606,5785.1
614.688,5756.2
614.77,5668.2
614.853,5674.8
614.935,5647.5
615.018,5674.5
615.1,5662.3
615.182,5693.7
615.265,5717.4
615.347,5640.4
615.43,5636.5
615.512,5686.4
615.594,5608.3
615.677,5506.5
615.759,5520.2
615.841,5500.0
615.924,5521.2
616.006,5517.8
616.089,5440.1
616.171,5387.4
616.253,5498.1
616.336,5484.6
616.418,5363.4
616.5,5356.9
616.583,5396.3
616.665,5384.9
616.747,5359.6
616.83,5399.0
616.912,5410.6
616.994,5339.9
617.077,5242.5
617.159,5342.5
617.242,5337.2
617.324,5309.4
617.406,5186.4
617.489,5170.2
617.571,5192.7
617.653,5240.5
617.735,5267.5
617.818,5195.2
617.9,5248.5
617.982,5202.8
618.065,5122.5
618.147,5169.4
618.229,5146.6
618.312,5138.3
618.394,5142.5
618.476,5111.9
618.559,5009.1
618.641,5044.4
618.723,5096.1
618.805,5116.6
618.888,5058.4
618.97,5087.4
619.052,5048.8
619.135,4959.1
619.217,4929.5
619.299,4993.9
619.381,5054.4
619.464,5036.2
619.546,5031.8
619.628,5043.0
619.711,5022.2
619.793,4967.4
619.875,4935.9
619.957,4929.7
620.04,4986.3
620.122,5008.9
620.204,4952.4
620.286,4905.6
620.369,4897.2
620.451,4876.6
620.533,4785.7
620.615,4796.0
620.698,4898.0
620.78,4924.9
620.862,4939.9
620.944,4862.6
621.027,4860.6
621.109,4860.4
621.191,4830.2
621.273,4837.8
621.356,4823.2
621.438,4819.0
621.52,4791.8
621.602,4809.0
621.684,4821.9
621.767,4759.7
621.849,4788.0
621.931,4818.9
622.013,4815.4
622.095,4833.3
622.178,4792.1
622.26,4853.6
622.342,4734.7
622.424,4760.3
622.506,4819.0
622.589,4773.9
622.671,4768.2
622.753,4739.7
622.835,4770.9
622.917,4720.7
623.0,4688.8
623.082,4685.0
623.164,4632.1
623.246,4596.8
623.328,4682.7
623.41,4646.8
623.493,4643.9
623.575,4635.2
623.657,4645.1
623.739,4668.4
623.821,4575.3
623.903,4546.0
623.986,4540.3
624.068,4572.8
624.15,4540.4
624.232,4538.7
624.314,4548.4
624.396,4628.2
624.478,4615.2
624.561,4541.3
624.643,4505.5
624.725,4522.1
624.807,4566.4
624.889,4543.2
624.971,4530.0
625.053,4539.2
625.136,4584.6
625.218,4555.1
625.3,4528.0
625.382,4451.9
625.464,4428.1
625.546,4478.9
625.628,4483.4
625.71,4453.3
625.792,4460.9
625.875,4466.7
625.957,4487.7
626.039,4459.4
626.121,4473.7
626.203,4498.1
626.285,4512.2
626.367,4532.2
626.449,4636.5
626.531,4739.7
626.613,4779.5
626.695,4888.0
626.778,5023.2
626.86,5236.8
626.942,5502.8
627.024,5793.7
627.106,5984.0
627.188,5999.6
627.27,6087.5
627.352,6004.3
627.434,5979.0
627.516,5869.9
627.598,5694.6
627.68,5548.0
627.762,5495.9
627.844,5451.0
627.926,5422.6
628.008,5391.1
628.09,5357.3
628.172,5505.0
628.255,5618.7
628.337,5805.7
628.419,6041.2
628.501,6319.2
628.583,6232.2
628.665,6037.9
628.747,5839.6
628.829,5686.4
628.911,5624.5
628.993,5593.3
629.075,5539.2
629.157,5475.9
629.239,5473.2
629.321,5466.3
629.403,5332.5
629.485,5219.2
629.567,5149.7
629.649,5105.5
629.731,5164.4
629.813,5175.0
629.895,5130.8
629.977,5100.6
630.059,5026.4
630.141,4977.0
630.223,4908.8
630.305,4903.6
630.387,4947.8
630.469,5026.7
630.551,4927.1
630.633,4873.2
630.715,4844.1
630.797,4822.5
630.878,4674.3
630.96,4613.2
631.042,4614.3
631.124,4538.5
631.206,4443.7
631.288,4500.0
631.37,4404.1
631.452,4406.1
631.534,4364.3
631.616,4391.0
631.698,4336.7
631.78,4307.9
631.862,4326.3
631.944,4298.0
632.026,4262.3
632.108,4257.9
632.19,4260.0
632.272,4328.0
632.353,4342.5
632.435,4317.2
632.517,4211.6
632.599,4258.2
632.681,4352.4
632.763,4345.6
632.845,4330.0
632.927,4272.9
633.009,4264.4
633.091,4241.3
633.173,4337.5
633.254,4354.8
633.336,4282.6
633.418,4319.4
633.5,4279.5
633.582,4279.9
633.664,4247.1
633.746,4273.6
633.828,4275.9
633.91,4279.7
633.991,4308.7
634.073,4270.9
634.155,4288.0
634.237,4300.5
634.319,4318.3
634.401,4308.1
634.483,4298.0
634.564,4292.9
634.646,4294.4
634.728,4261.6
634.81,4334.7
634.892,4370.4
634.974,4399.2
635.056,4352.8
635.137,4281.2
635.219,4242.0
635.301,4233.8
635.383,4248.3
635.465,4237.7
635.547,4308.5
635.628,4292.5
635.71,4265.3
635.792,4217.5
635.874,4275.4
635.956,4324.3
636.038,4353.8
636.119,4341.9
636.201,4322.7
636.283,4365.7
636.365,4359.0
636.447,4339.7
636.528,4359.4
636.61,4349.0
636.692,4352.4
636.774,4380.1
636.856,4358.7
636.937,4318.5
637.019,4321.1
637.101,4370.4
637.183,4346.1
637.265,4406.0
637.346,4343.4
637.428,4327.0
637.51,4310.5
637.592,4372.2
637.673,4380.3
637.755,4405.3
637.837,4384.7
637.919,4379.7
638.0,4322.3
638.082,4351.5
638.164,4417.3
638.246,4462.0
638.327,4413.7
638.409,4383.0
638.491,4411.1
638.573,4390.8
638.654,4387.7
638.736,4407.5
638.818,4403.4
638.9,4397.7
638.981,4407.2
639.063,4399.8
639.145,4430.0
639.227,4432.7
639.308,4445.2
639.39,4397.3
639.472,4413.2
639.553,4460.2
639.635,4427.2
639.717,4430.4
639.799,4435.0
639.88,4500.2
639.962,4525.6
640.044,4444.7
640.125,4494.4
640.207,4538.1
640.289,4510.3
640.37,4446.5
640.452,4434.7
640.534,4438.3
640.616,4538.6
640.697,4509.4
640.779,4475.7
640.861,4486.1
640.942,4507.8
641.024,4517.1
641.106,4470.5
641.187,4459.8
641.269,4484.1
641.351,4540.4
641.432,4645.3
641.514,4614.0
641.596,4583.6
641.677,4552.4
641.759,4553.9
641.84,4567.3
641.922,4542.5
642.004,4567.5
642.085,4541.1
642.167,4581.5
642.249,4547.8
642.33,4549.8
642.412,4601.6
642.494,4649.3
642.575,4644.1
642.657,4648.8
642.738,4654.9
642.82,4638.3
642.902,4618.0
642.983,4608.4
643.065,4583.7
643.147,4577.3
643.228,4543.2
643.31,4666.1
643.391,4737.2
643.473,4687.9
643.555,4639.7
643.636,4638.0
643.718,4633.3
643.799,4665.6
643.881,4612.0
643.963,4688.1
644.044,4776.2
644.126,4818.9
644.207,4694.7
644.289,4685.0
644.37,4696.3
644.452,4725.9
644.534,4672.3
644.615,4744.1
644.697,4676.3
644.778,4734.1
644.86,4717.0
644.941,4606.0
645.023,4602.0
645.104,4732.1
645.186,4761.5
645.268,4711.1
645.349,4702.3
645.431,4717.9
645.512,4738.8
645.594,4773.0
645.675,4750.5
645.757,4705.0
645.838,4660.4
645.92,4755.0
646.001,4757.1
646.083,4774.3
646.164,4735.4
646.246,4639.2
646.327,4708.8
646.409,4767.6
646.49,4749.3
646.572,4692.9
646.653,4731.5
646.735,4772.9
646.816,4773.2
646.898,4704.7
646.979,4687.3
647.061,4640.2
647.142,4749.3
647.224,4806.2
647.305,4822.2
647.387,4776.1
647.468,4688.1
647.55,4617.6
647.631,4695.1
647.713,4742.5
647.794,4735.3
647.876,4742.6
647.957,4655.8
648.039,4690.8
648.12,4740.2
648.202,4698.5
648.283,4732.7
648.365,4739.2
648.446,4699.7
648.527,4613.1
648.609,4643.6
648.69,4756.1
648.772,4746.1
648.853,4736.7
648.935,4733.2
649.016,4682.9
649.098,4673.7
649.179,4701.2
649.26,4735.2
649.342,4714.1
649.423,4638.0
649.505,4644.4
649.586,4652.1
649.667,4724.2
649.749,4715.0
649.83,4666.3
649.912,4697.7
649.993,4714.0
650.075,4741.4
650.156,4661.0
650.237,4654.4
650.319,4658.3
650.4,4757.0
650.482,4717.1
650.563,4691.9
650.644,4682.5
650.726,4688.1
650.807,4685.9
650.888,4713.2
650.97,4773.3
651.051,4866.2
651.133,4839.4
651.214,4660.3
651.295,4606.4
651.377,4613.5
651.458,4681.5
651.539,4726.9
651.621,4710.2
651.702,4630.8
651.783,4708.2
651.865,4645.6
651.946,4687.2
652.027,4692.8
652.109,4707.0
652.19,4786.0
652.271,4853.4
652.353,4751.5
652.434,4681.7
652.515,4624.3
652.597,4719.4
652.678,4755.9
652.759,4683.0
652.841,4741.2
652.922,4721.1
653.003,4701.3
653.085,4682.4
653.166,4672.2
653.247,4686.7
653.329,4685.8
653.41,4714.7
653.491,4671.0
653.573,4666.3
653.654,4640.6
653.735,4623.3
653.816,4596.4
653.898,4576.6
653.979,4627.1
654.06,4638.5
654.142,4623.5
654.223,4610.6
654.304,4637.7
654.385,4575.4
654.467,4614.2
654.548,4575.4
654.629,4505.1
654.71,4514.8
654.792,4623.2
654.873,4641.7
654.954,4592.7
655.035,4607.3
655.117,4521.5
655.198,4539.0
655.279,4543.0
655.36,4562.8
655.442,4606.8
655.523,4545.6
655.604,4532.6
655.685,4510.4
655.767,4603.7
655.848,4510.3
655.929,4496.3
656.01,4481.1
656.091,4510.2
656.173,4412.4
656.254,4461.1
656.335,4490.5
656.416,4524.1
656.498,4491.8
656.579,4442.7
656.66,4420.2
656.741,4460.0
656.822,4359.0
656.904,4326.0
656.985,4326.8
657.066,4314.1
657.147,4353.7
657.228,4365.0
657.309,4392.4
657.391,4360.9
657.472,4355.0
657.553,4298.7
657.634,4355.0
657.715,4354.0
657.796,4235.2
657.878,4186.0
657.959,4237.3
658.04,4203.5
658.121,4170.4
658.202,4180.7
658.283,4163.3
658.365,4160.7
658.446,4081.0
658.527,4118.4
658.608,4165.5
658.689,4111.2
658.77,4040.4
658.851,4071.2
658.933,4035.8
659.014,4068.1
659.095,4066.9
659.176,4040.4
659.257,3962.0
659.338,3909.0
659.419,3918.0
659.5,3915.0
659.581,3963.6
659.663,3926.3
659.744,3929.1
659.825,3891.1
659.906,3906.6
659.987,3879.9
660.068,3902.5
660.149,3903.4
660.23,3937.9
660.311,3933.8
660.392,3852.0
660.474,3799.7
660.555,3791.7
660.636,3845.1
660.717,3848.7
660.798,3824.2
660.879,3776.3
660.96,3722.7
661.041,3714.7
