cm-1,A
4000.0,0.0065
3999.0,0.0065
3998.0,0.0066
3997.0,0.0066
3996.0,0.0067
3995.0,0.0068
3994.0,0.0068
3993.0,0.0068
3992.0,0.0067
3991.0,0.0067
3990.0,0.0067
3989.0,0.0067
3988.0,0.0067
3987.0,0.0068
3986.0,0.0068
3985.0,0.0067
3984.0,0.0067
3983.0,0.0067
3982.0,0.0067
3981.0,0.0067
3980.0,0.0067
3979.0,0.0067
3978.0,0.0066
3977.0,0.0066
3976.0,0.0065
3975.0,0.0065
3974.0,0.0064
3973.0,0.0064
3972.0,0.0064
3971.0,0.0064
3970.0,0.0065
3969.0,0.0065
3968.0,0.0066
3967.0,0.0067
3966.0,0.0068
3965.0,0.0068
3964.0,0.0069
3963.0,0.0068
3962.0,0.0067
3961.0,0.0066
3960.0,0.0066
3959.0,0.0066
3958.0,0.0067
3957.0,0.0066
3956.0,0.0066
3955.0,0.0065
3954.0,0.0064
3953.0,0.0064
3952.0,0.0064
3951.0,0.0065
3950.0,0.0066
3949.0,0.0066
3948.0,0.0066
3947.0,0.0066
3946.0,0.0065
3945.0,0.0064
3944.0,0.0063
3943.0,0.0063
3942.0,0.0064
3941.0,0.0064
3940.0,0.0065
3939.0,0.0066
3938.0,0.0067
3937.0,0.0068
3936.0,0.0068
3935.0,0.0068
3934.0,0.0068
3933.0,0.0067
3932.0,0.0067
3931.0,0.0066
3930.0,0.0066
3929.0,0.0067
3928.0,0.0067
3927.0,0.0068
3926.0,0.0068
3925.0,0.0068
3924.0,0.0068
3923.0,0.0068
3922.0,0.0067
3921.0,0.0067
3920.0,0.0067
3919.0,0.0067
3918.0,0.0068
3917.0,0.0068
3916.0,0.0067
3915.0,0.0067
3914.0,0.0067
3913.0,0.0066
3912.0,0.0066
3911.0,0.0066
3910.0,0.0065
3909.0,0.0064
3908.0,0.0064
3907.0,0.0063
3906.0,0.0063
3905.0,0.0063
3904.0,0.0064
3903.0,0.0064
3902.0,0.0065
3901.0,0.0065
3900.0,0.0066
3899.0,0.0067
3898.0,0.0067
3897.0,0.0067
3896.0,0.0068
3895.0,0.0068
3894.0,0.0068
3893.0,0.0068
3892.0,0.0069
3891.0,0.0068
3890.0,0.0067
3889.0,0.0067
3888.0,0.0067
3887.0,0.0068
3886.0,0.0068
3885.0,0.0068
3884.0,0.0067
3883.0,0.0067
3882.0,0.0067
3881.0,0.0067
3880.0,0.0066
3879.0,0.0065
3878.0,0.0064
3877.0,0.0064
3876.0,0.0064
3875.0,0.0065
3874.0,0.0066
3873.0,0.0067
3872.0,0.007
3871.0,0.0072
3870.0,0.0072
3869.0,0.007
3868.0,0.0067
3867.0,0.0066
3866.0,0.0065
3865.0,0.0065
3864.0,0.0066
3863.0,0.0068
3862.0,0.0069
3861.0,0.0069
3860.0,0.0069
3859.0,0.0069
3858.0,0.0069
3857.0,0.0069
3856.0,0.0068
3855.0,0.0067
3854.0,0.0068
3853.0,0.0068
3852.0,0.0067
3851.0,0.0069
3850.0,0.0071
3849.0,0.0071
3848.0,0.0071
3847.0,0.0071
3846.0,0.0071
3845.0,0.0071
3844.0,0.0071
3843.0,0.007
3842.0,0.0069
3841.0,0.0068
3840.0,0.0068
3839.0,0.0068
3838.0,0.0068
3837.0,0.0067
3836.0,0.0067
3835.0,0.0068
3834.0,0.0069
3833.0,0.007
3832.0,0.007
3831.0,0.0069
3830.0,0.0068
3829.0,0.0068
3828.0,0.0069
3827.0,0.007
3826.0,0.0069
3825.0,0.0068
3824.0,0.0067
3823.0,0.0066
3822.0,0.0067
3821.0,0.0069
3820.0,0.0069
3819.0,0.0069
3818.0,0.007
3817.0,0.007
3816.0,0.0069
3815.0,0.0068
3814.0,0.0067
3813.0,0.0068
3812.0,0.0068
3811.0,0.0068
3810.0,0.0068
3809.0,0.0068
3808.0,0.007
3807.0,0.0071
3806.0,0.007
3805.0,0.0069
3804.0,0.0068
3803.0,0.0069
3802.0,0.007
3801.0,0.007
3800.0,0.0069
3799.0,0.0069
3798.0,0.007
3797.0,0.0072
3796.0,0.0073
3795.0,0.0074
3794.0,0.0073
3793.0,0.0072
3792.0,0.0071
3791.0,0.007
3790.0,0.0069
3789.0,0.007
3788.0,0.007
3787.0,0.0071
3786.0,0.0072
3785.0,0.0073
3784.0,0.0073
3783.0,0.0073
3782.0,0.0073
3781.0,0.0073
3780.0,0.0072
3779.0,0.0072
3778.0,0.0072
3777.0,0.0072
3776.0,0.0072
3775.0,0.0072
3774.0,0.0072
3773.0,0.0071
3772.0,0.0071
3771.0,0.0072
3770.0,0.0072
3769.0,0.0072
3768.0,0.0072
3767.0,0.0072
3766.0,0.0072
3765.0,0.0073
3764.0,0.0073
3763.0,0.0073
3762.0,0.0073
3761.0,0.0073
3760.0,0.0073
3759.0,0.0072
3758.0,0.0072
3757.0,0.0071
3756.0,0.0071
3755.0,0.007
3754.0,0.0069
3753.0,0.0068
3752.0,0.0068
3751.0,0.0069
3750.0,0.0069
3749.0,0.0069
3748.0,0.0069
3747.0,0.0071
3746.0,0.0073
3745.0,0.0075
3744.0,0.0075
3743.0,0.0073
3742.0,0.0074
3741.0,0.0075
3740.0,0.0075
3739.0,0.0075
3738.0,0.0075
3737.0,0.0075
3736.0,0.0075
3735.0,0.0075
3734.0,0.0074
3733.0,0.0074
3732.0,0.0075
3731.0,0.0077
3730.0,0.0079
3729.0,0.008
3728.0,0.0081
3727.0,0.0081
3726.0,0.008
3725.0,0.0079
3724.0,0.0079
3723.0,0.0079
3722.0,0.0079
3721.0,0.008
3720.0,0.008
3719.0,0.0079
3718.0,0.0078
3717.0,0.0077
3716.0,0.0075
3715.0,0.0074
3714.0,0.0073
3713.0,0.0074
3712.0,0.0076
3711.0,0.0077
3710.0,0.0077
3709.0,0.0076
3708.0,0.0077
3707.0,0.0078
3706.0,0.008
3705.0,0.008
3704.0,0.008
3703.0,0.0079
3702.0,0.0079
3701.0,0.0078
3700.0,0.0078
3699.0,0.0079
3698.0,0.0079
3697.0,0.008
3696.0,0.008
3695.0,0.008
3694.0,0.0079
3693.0,0.0078
3692.0,0.0075
3691.0,0.0074
3690.0,0.0074
3689.0,0.0075
3688.0,0.0077
3687.0,0.0078
3686.0,0.0078
3685.0,0.0079
3684.0,0.0079
3683.0,0.0079
3682.0,0.0078
3681.0,0.0077
3680.0,0.0076
3679.0,0.0076
3678.0,0.0076
3677.0,0.0077
3676.0,0.0079
3675.0,0.0078
3674.0,0.0076
3673.0,0.0075
3672.0,0.0075
3671.0,0.0076
3670.0,0.0078
3669.0,0.0078
3668.0,0.0078
3667.0,0.0079
3666.0,0.0079
3665.0,0.0079
3664.0,0.0078
3663.0,0.0077
3662.0,0.0077
3661.0,0.0077
3660.0,0.0077
3659.0,0.0077
3658.0,0.0078
3657.0,0.0079
3656.0,0.0078
3655.0,0.0077
3654.0,0.0075
3653.0,0.0073
3652.0,0.0071
3651.0,0.0071
3650.0,0.0074
3649.0,0.0078
3648.0,0.0081
3647.0,0.0081
3646.0,0.0081
3645.0,0.0081
3644.0,0.0082
3643.0,0.0082
3642.0,0.0083
3641.0,0.0082
3640.0,0.0082
3639.0,0.0082
3638.0,0.0082
3637.0,0.0083
3636.0,0.0083
3635.0,0.0084
3634.0,0.0085
3633.0,0.0085
3632.0,0.0084
3631.0,0.0083
3630.0,0.0083
3629.0,0.0084
3628.0,0.0084
3627.0,0.0084
3626.0,0.0085
3625.0,0.0085
3624.0,0.0085
3623.0,0.0084
3622.0,0.0083
3621.0,0.0083
3620.0,0.0084
3619.0,0.0084
3618.0,0.0083
3617.0,0.0081
3616.0,0.0081
3615.0,0.0081
3614.0,0.0081
3613.0,0.0081
3612.0,0.0081
3611.0,0.0081
3610.0,0.0082
3609.0,0.0084
3608.0,0.0087
3607.0,0.0088
3606.0,0.0089
3605.0,0.0089
3604.0,0.0089
3603.0,0.0089
3602.0,0.0089
3601.0,0.0089
3600.0,0.0089
3599.0,0.0088
3598.0,0.0088
3597.0,0.0088
3596.0,0.0089
3595.0,0.009
3594.0,0.009
3593.0,0.0089
3592.0,0.0088
3591.0,0.0087
3590.0,0.0086
3589.0,0.0085
3588.0,0.0085
3587.0,0.0085
3586.0,0.0086
3585.0,0.0086
3584.0,0.0088
3583.0,0.009
3582.0,0.0091
3581.0,0.0092
3580.0,0.0093
3579.0,0.0092
3578.0,0.0092
3577.0,0.0091
3576.0,0.009
3575.0,0.009
3574.0,0.009
3573.0,0.0091
3572.0,0.0091
3571.0,0.0092
3570.0,0.0092
3569.0,0.0094
3568.0,0.0095
3567.0,0.0095
3566.0,0.0094
3565.0,0.0093
3564.0,0.0092
3563.0,0.0093
3562.0,0.0094
3561.0,0.0095
3560.0,0.0096
3559.0,0.0096
3558.0,0.0095
3557.0,0.0094
3556.0,0.0094
3555.0,0.0095
3554.0,0.0097
3553.0,0.0098
3552.0,0.0099
3551.0,0.0098
3550.0,0.0097
3549.0,0.0095
3548.0,0.0093
3547.0,0.0092
3546.0,0.0093
3545.0,0.0094
3544.0,0.0096
3543.0,0.0098
3542.0,0.01
3541.0,0.01
3540.0,0.01
3539.0,0.01
3538.0,0.01
3537.0,0.01
3536.0,0.01
3535.0,0.01
3534.0,0.01
3533.0,0.0101
3532.0,0.0101
3531.0,0.0102
3530.0,0.0102
3529.0,0.0102
3528.0,0.0102
3527.0,0.0102
3526.0,0.0102
3525.0,0.0102
3524.0,0.0102
3523.0,0.0102
3522.0,0.0102
3521.0,0.0102
3520.0,0.0103
3519.0,0.0103
3518.0,0.0104
3517.0,0.0105
3516.0,0.0105
3515.0,0.0105
3514.0,0.0105
3513.0,0.0105
3512.0,0.0104
3511.0,0.0103
3510.0,0.0103
3509.0,0.0103
3508.0,0.0103
3507.0,0.0103
3506.0,0.0104
3505.0,0.0104
3504.0,0.0105
3503.0,0.0105
3502.0,0.0106
3501.0,0.0106
3500.0,0.0106
3499.0,0.0106
3498.0,0.0106
3497.0,0.0106
3496.0,0.0106
3495.0,0.0106
3494.0,0.0106
3493.0,0.0106
3492.0,0.0107
3491.0,0.0107
3490.0,0.0107
3489.0,0.0108
3488.0,0.0108
3487.0,0.0108
3486.0,0.0108
3485.0,0.0107
3484.0,0.0107
3483.0,0.0108
3482.0,0.0109
3481.0,0.0109
3480.0,0.0109
3479.0,0.0109
3478.0,0.0109
3477.0,0.0108
3476.0,0.0108
3475.0,0.0108
3474.0,0.0109
3473.0,0.0109
3472.0,0.011
3471.0,0.0111
3470.0,0.0111
3469.0,0.0111
3468.0,0.0112
3467.0,0.0112
3466.0,0.0111
3465.0,0.011
3464.0,0.011
3463.0,0.011
3462.0,0.0111
3461.0,0.0112
3460.0,0.0113
3459.0,0.0114
3458.0,0.0115
3457.0,0.0115
3456.0,0.0115
3455.0,0.0115
3454.0,0.0115
3453.0,0.0116
3452.0,0.0116
3451.0,0.0116
3450.0,0.0116
3449.0,0.0116
3448.0,0.0116
3447.0,0.0117
3446.0,0.0117
3445.0,0.0117
3444.0,0.0118
3443.0,0.0118
3442.0,0.0118
3441.0,0.0116
3440.0,0.0115
3439.0,0.0114
3438.0,0.0114
3437.0,0.0116
3436.0,0.0116
3435.0,0.0116
3434.0,0.0116
3433.0,0.0116
3432.0,0.0116
3431.0,0.0117
3430.0,0.0118
3429.0,0.0119
3428.0,0.0119
3427.0,0.0118
3426.0,0.0118
3425.0,0.0118
3424.0,0.0118
3423.0,0.0118
3422.0,0.0118
3421.0,0.0118
3420.0,0.0118
3419.0,0.0118
3418.0,0.0119
3417.0,0.0119
3416.0,0.0119
3415.0,0.0118
3414.0,0.0117
3413.0,0.0117
3412.0,0.0117
3411.0,0.0117
3410.0,0.0118
3409.0,0.0118
3408.0,0.0117
3407.0,0.0117
3406.0,0.0117
3405.0,0.0117
3404.0,0.0117
3403.0,0.0118
3402.0,0.0118
3401.0,0.0117
3400.0,0.0116
3399.0,0.0115
3398.0,0.0115
3397.0,0.0116
3396.0,0.0117
3395.0,0.0118
3394.0,0.0119
3393.0,0.0121
3392.0,0.0122
3391.0,0.0122
3390.0,0.0122
3389.0,0.012
3388.0,0.0119
3387.0,0.0119
3386.0,0.0118
3385.0,0.0118
3384.0,0.0117
3383.0,0.0116
3382.0,0.0117
3381.0,0.0118
3380.0,0.0119
3379.0,0.012
3378.0,0.012
3377.0,0.0119
3376.0,0.0118
3375.0,0.0117
3374.0,0.0117
3373.0,0.0118
3372.0,0.0119
3371.0,0.0119
3370.0,0.0119
3369.0,0.0118
3368.0,0.0117
3367.0,0.0117
3366.0,0.0117
3365.0,0.0117
3364.0,0.0118
3363.0,0.0118
3362.0,0.0118
3361.0,0.0118
3360.0,0.0118
3359.0,0.0118
3358.0,0.0118
3357.0,0.0118
3356.0,0.0118
3355.0,0.0118
3354.0,0.0119
3353.0,0.0119
3352.0,0.0119
3351.0,0.0119
3350.0,0.0118
3349.0,0.0118
3348.0,0.0117
3347.0,0.0117
3346.0,0.0116
3345.0,0.0115
3344.0,0.0114
3343.0,0.0114
3342.0,0.0115
3341.0,0.0116
3340.0,0.0116
3339.0,0.0116
3338.0,0.0116
3337.0,0.0116
3336.0,0.0116
3335.0,0.0116
3334.0,0.0116
3333.0,0.0116
3332.0,0.0116
3331.0,0.0116
3330.0,0.0116
3329.0,0.0115
3328.0,0.0114
3327.0,0.0114
3326.0,0.0113
3325.0,0.0113
3324.0,0.0113
3323.0,0.0113
3322.0,0.0112
3321.0,0.0112
3320.0,0.0113
3319.0,0.0114
3318.0,0.0115
3317.0,0.0115
3316.0,0.0114
3315.0,0.0114
3314.0,0.0114
3313.0,0.0113
3312.0,0.0113
3311.0,0.0113
3310.0,0.0112
3309.0,0.0111
3308.0,0.011
3307.0,0.0109
3306.0,0.0109
3305.0,0.011
3304.0,0.0111
3303.0,0.0112
3302.0,0.0111
3301.0,0.011
3300.0,0.0109
3299.0,0.0109
3298.0,0.011
3297.0,0.0111
3296.0,0.0112
3295.0,0.0113
3294.0,0.0113
3293.0,0.0113
3292.0,0.0112
3291.0,0.0111
3290.0,0.0111
3289.0,0.0112
3288.0,0.0112
3287.0,0.0113
3286.0,0.0112
3285.0,0.0112
3284.0,0.0111
3283.0,0.011
3282.0,0.0109
3281.0,0.0109
3280.0,0.0109
3279.0,0.0108
3278.0,0.0108
3277.0,0.0107
3276.0,0.0107
3275.0,0.0107
3274.0,0.0108
3273.0,0.0109
3272.0,0.011
3271.0,0.011
3270.0,0.011
3269.0,0.0109
3268.0,0.0109
3267.0,0.0108
3266.0,0.0108
3265.0,0.0108
3264.0,0.0108
3263.0,0.0108
3262.0,0.0109
3261.0,0.0108
3260.0,0.0108
3259.0,0.0107
3258.0,0.0107
3257.0,0.0107
3256.0,0.0107
3255.0,0.0107
3254.0,0.0107
3253.0,0.0107
3252.0,0.0107
3251.0,0.0106
3250.0,0.0105
3249.0,0.0105
3248.0,0.0104
3247.0,0.0105
3246.0,0.0105
3245.0,0.0105
3244.0,0.0105
3243.0,0.0104
3242.0,0.0102
3241.0,0.0101
3240.0,0.0101
3239.0,0.0101
3238.0,0.0102
3237.0,0.0102
3236.0,0.0102
3235.0,0.0102
3234.0,0.0102
3233.0,0.0103
3232.0,0.0104
3231.0,0.0104
3230.0,0.0103
3229.0,0.0102
3228.0,0.0102
3227.0,0.0101
3226.0,0.0101
3225.0,0.0101
3224.0,0.0102
3223.0,0.0102
3222.0,0.0103
3221.0,0.0103
3220.0,0.0104
3219.0,0.0104
3218.0,0.0104
3217.0,0.0103
3216.0,0.0103
3215.0,0.0103
3214.0,0.0103
3213.0,0.0103
3212.0,0.0103
3211.0,0.0102
3210.0,0.0102
3209.0,0.0102
3208.0,0.0101
3207.0,0.0101
3206.0,0.0101
3205.0,0.0101
3204.0,0.0101
3203.0,0.0101
3202.0,0.0101
3201.0,0.0101
3200.0,0.0101
3199.0,0.0101
3198.0,0.01
3197.0,0.0099
3196.0,0.0098
3195.0,0.0098
3194.0,0.0098
3193.0,0.0099
3192.0,0.01
3191.0,0.0101
3190.0,0.0101
3189.0,0.01
3188.0,0.01
3187.0,0.0099
3186.0,0.0098
3185.0,0.0098
3184.0,0.0098
3183.0,0.0098
3182.0,0.0097
3181.0,0.0097
3180.0,0.0097
3179.0,0.0097
3178.0,0.0096
3177.0,0.0096
3176.0,0.0096
3175.0,0.0096
3174.0,0.0095
3173.0,0.0095
3172.0,0.0095
3171.0,0.0096
3170.0,0.0096
3169.0,0.0096
3168.0,0.0095
3167.0,0.0095
3166.0,0.0094
3165.0,0.0094
3164.0,0.0094
3163.0,0.0094
3162.0,0.0094
3161.0,0.0094
3160.0,0.0093
3159.0,0.0093
3158.0,0.0092
3157.0,0.0092
3156.0,0.0091
3155.0,0.0091
3154.0,0.0091
3153.0,0.0091
3152.0,0.0091
3151.0,0.009
3150.0,0.009
3149.0,0.009
3148.0,0.0091
3147.0,0.0091
3146.0,0.0092
3145.0,0.0093
3144.0,0.0093
3143.0,0.0093
3142.0,0.0092
3141.0,0.0092
3140.0,0.0092
3139.0,0.0092
3138.0,0.0092
3137.0,0.0091
3136.0,0.009
3135.0,0.0089
3134.0,0.0088
3133.0,0.0087
3132.0,0.0086
3131.0,0.0086
3130.0,0.0086
3129.0,0.0086
3128.0,0.0086
3127.0,0.0086
3126.0,0.0085
3125.0,0.0085
3124.0,0.0085
3123.0,0.0085
3122.0,0.0085
3121.0,0.0085
3120.0,0.0085
3119.0,0.0085
3118.0,0.0085
3117.0,0.0084
3116.0,0.0085
3115.0,0.0085
3114.0,0.0084
3113.0,0.0083
3112.0,0.0082
3111.0,0.0082
3110.0,0.0082
3109.0,0.0082
3108.0,0.0082
3107.0,0.0081
3106.0,0.008
3105.0,0.008
3104.0,0.008
3103.0,0.0081
3102.0,0.0082
3101.0,0.0082
3100.0,0.0082
3099.0,0.0081
3098.0,0.008
3097.0,0.0079
3096.0,0.0079
3095.0,0.0078
3094.0,0.0078
3093.0,0.0077
3092.0,0.0077
3091.0,0.0077
3090.0,0.0077
3089.0,0.0077
3088.0,0.0077
3087.0,0.0076
3086.0,0.0075
3085.0,0.0075
3084.0,0.0074
3083.0,0.0074
3082.0,0.0074
3081.0,0.0074
3080.0,0.0075
3079.0,0.0076
3078.0,0.0076
3077.0,0.0076
3076.0,0.0075
3075.0,0.0074
3074.0,0.0074
3073.0,0.0073
3072.0,0.0073
3071.0,0.0072
3070.0,0.0072
3069.0,0.0072
3068.0,0.0072
3067.0,0.0072
3066.0,0.0072
3065.0,0.0071
3064.0,0.0071
3063.0,0.0071
3062.0,0.0071
3061.0,0.007
3060.0,0.007
3059.0,0.0069
3058.0,0.007
3057.0,0.007
3056.0,0.007
3055.0,0.0069
3054.0,0.0069
3053.0,0.0068
3052.0,0.0068
3051.0,0.0067
3050.0,0.0067
3049.0,0.0067
3048.0,0.0066
3047.0,0.0066
3046.0,0.0066
3045.0,0.0066
3044.0,0.0066
3043.0,0.0066
3042.0,0.0066
3041.0,0.0065
3040.0,0.0063
3039.0,0.0061
3038.0,0.0059
3037.0,0.0058
3036.0,0.0058
3035.0,0.0058
3034.0,0.0058
3033.0,0.0058
3032.0,0.0059
3031.0,0.0059
3030.0,0.006
3029.0,0.006
3028.0,0.0059
3027.0,0.0059
3026.0,0.0059
3025.0,0.0059
3024.0,0.0059
3023.0,0.0059
3022.0,0.0059
3021.0,0.0057
3020.0,0.0056
3019.0,0.0055
3018.0,0.0055
3017.0,0.0055
3016.0,0.0055
3015.0,0.0055
3014.0,0.0055
3013.0,0.0054
3012.0,0.0054
3011.0,0.0054
3010.0,0.0055
3009.0,0.0055
3008.0,0.0055
3007.0,0.0054
3006.0,0.0052
3005.0,0.0052
3004.0,0.0051
3003.0,0.0051
3002.0,0.0051
3001.0,0.0052
3000.0,0.0052
2999.0,0.0052
2998.0,0.0053
2997.0,0.0053
2996.0,0.0053
2995.0,0.0053
2994.0,0.0053
2993.0,0.0054
2992.0,0.0055
2991.0,0.0057
2990.0,0.0059
2989.0,0.0062
2988.0,0.0064
2987.0,0.0067
2986.0,0.0071
2985.0,0.0074
2984.0,0.0078
2983.0,0.0082
2982.0,0.0088
2981.0,0.0095
2980.0,0.0104
2979.0,0.0115
2978.0,0.0127
2977.0,0.0141
2976.0,0.0157
2975.0,0.0176
2974.0,0.0198
2973.0,0.0224
2972.0,0.0253
2971.0,0.0286
2970.0,0.0322
2969.0,0.0361
2968.0,0.0405
2967.0,0.0452
2966.0,0.0501
2965.0,0.0551
2964.0,0.0598
2963.0,0.064
2962.0,0.0673
2961.0,0.0696
2960.0,0.0711
2959.0,0.0719
2958.0,0.0725
2957.0,0.0733
2956.0,0.0747
2955.0,0.0767
2954.0,0.0793
2953.0,0.0821
2952.0,0.0844
2951.0,0.0858
2950.0,0.0857
2949.0,0.084
2948.0,0.0807
2947.0,0.0762
2946.0,0.0709
2945.0,0.0654
2944.0,0.0602
2943.0,0.0557
2942.0,0.0521
2941.0,0.0495
2940.0,0.0479
2939.0,0.0471
2938.0,0.0471
2937.0,0.0478
2936.0,0.0491
2935.0,0.0512
2934.0,0.0539
2933.0,0.0572
2932.0,0.061
2931.0,0.0652
2930.0,0.0697
2929.0,0.0744
2928.0,0.0791
2927.0,0.0836
2926.0,0.0881
2925.0,0.0924
2924.0,0.0968
2923.0,0.1011
2922.0,0.1053
2921.0,0.1092
2920.0,0.1125
2919.0,0.1147
2918.0,0.1156
2917.0,0.1148
2916.0,0.1126
2915.0,0.1094
2914.0,0.1058
2913.0,0.1022
2912.0,0.0989
2911.0,0.096
2910.0,0.0935
2909.0,0.0914
2908.0,0.0894
2907.0,0.0875
2906.0,0.0854
2905.0,0.0832
2904.0,0.0809
2903.0,0.0785
2902.0,0.076
2901.0,0.0736
2900.0,0.0712
2899.0,0.0689
2898.0,0.0667
2897.0,0.0647
2896.0,0.0629
2895.0,0.0613
2894.0,0.0599
2893.0,0.0588
2892.0,0.058
2891.0,0.0574
2890.0,0.057
2889.0,0.0567
2888.0,0.0565
2887.0,0.0565
2886.0,0.0565
2885.0,0.0567
2884.0,0.0571
2883.0,0.0576
2882.0,0.0581
2881.0,0.0588
2880.0,0.0593
2879.0,0.0597
2878.0,0.0598
2877.0,0.0597
2876.0,0.0594
2875.0,0.0591
2874.0,0.059
2873.0,0.0592
2872.0,0.0596
2871.0,0.0604
2870.0,0.0612
2869.0,0.062
2868.0,0.0625
2867.0,0.0625
2866.0,0.0616
2865.0,0.0598
2864.0,0.0572
2863.0,0.0541
2862.0,0.051
2861.0,0.0483
2860.0,0.0461
2859.0,0.0445
2858.0,0.0435
2857.0,0.043
2856.0,0.043
2855.0,0.0435
2854.0,0.0445
2853.0,0.0457
2852.0,0.047
2851.0,0.048
2850.0,0.0487
2849.0,0.0492
2848.0,0.0496
2847.0,0.0503
2846.0,0.0516
2845.0,0.0534
2844.0,0.0557
2843.0,0.0583
2842.0,0.0608
2841.0,0.063
2840.0,0.0647
2839.0,0.0655
2838.0,0.0653
2837.0,0.064
2836.0,0.0617
2835.0,0.0585
2834.0,0.0549
2833.0,0.0511
2832.0,0.0476
2831.0,0.0445
2830.0,0.0419
2829.0,0.0396
2828.0,0.0378
2827.0,0.0362
2826.0,0.0349
2825.0,0.0339
2824.0,0.0329
2823.0,0.032
2822.0,0.0312
2821.0,0.0305
2820.0,0.0298
2819.0,0.0293
2818.0,0.0289
2817.0,0.0284
2816.0,0.028
2815.0,0.0276
2814.0,0.0272
2813.0,0.0268
2812.0,0.0264
2811.0,0.0261
2810.0,0.0258
2809.0,0.0255
2808.0,0.0253
2807.0,0.025
2806.0,0.0247
2805.0,0.0244
2804.0,0.024
2803.0,0.0237
2802.0,0.0234
2801.0,0.0232
2800.0,0.0229
2799.0,0.0227
2798.0,0.0226
2797.0,0.0224
2796.0,0.0223
2795.0,0.0222
2794.0,0.022
2793.0,0.0219
2792.0,0.0216
2791.0,0.0214
2790.0,0.0212
2789.0,0.021
2788.0,0.0208
2787.0,0.0206
2786.0,0.0203
2785.0,0.0201
2784.0,0.02
2783.0,0.0199
2782.0,0.0198
2781.0,0.0197
2780.0,0.0195
2779.0,0.0193
2778.0,0.0191
2777.0,0.019
2776.0,0.019
2775.0,0.0189
2774.0,0.0188
2773.0,0.0187
2772.0,0.0186
2771.0,0.0185
2770.0,0.0185
2769.0,0.0184
2768.0,0.0184
2767.0,0.0183
2766.0,0.0183
2765.0,0.0183
2764.0,0.0183
2763.0,0.0182
2762.0,0.0181
2761.0,0.018
2760.0,0.0179
2759.0,0.0179
2758.0,0.0179
2757.0,0.0178
2756.0,0.0178
2755.0,0.0177
2754.0,0.0177
2753.0,0.0176
2752.0,0.0175
2751.0,0.0174
2750.0,0.0173
2749.0,0.0173
2748.0,0.0172
2747.0,0.0171
2746.0,0.017
2745.0,0.017
2744.0,0.017
2743.0,0.0171
2742.0,0.0172
2741.0,0.0173
2740.0,0.0173
2739.0,0.0174
2738.0,0.0174
2737.0,0.0175
2736.0,0.0175
2735.0,0.0176
2734.0,0.0176
2733.0,0.0176
2732.0,0.0177
2731.0,0.0177
2730.0,0.0177
2729.0,0.0178
2728.0,0.0179
2727.0,0.018
2726.0,0.0181
2725.0,0.0182
2724.0,0.0182
2723.0,0.0182
2722.0,0.0182
2721.0,0.0182
2720.0,0.0182
2719.0,0.0181
2718.0,0.018
2717.0,0.0178
2716.0,0.0177
2715.0,0.0175
2714.0,0.0174
2713.0,0.0172
2712.0,0.0172
2711.0,0.0171
2710.0,0.0171
2709.0,0.0171
2708.0,0.017
2707.0,0.0168
2706.0,0.0166
2705.0,0.0165
2704.0,0.0164
2703.0,0.0163
2702.0,0.0163
2701.0,0.0163
2700.0,0.0163
2699.0,0.0163
2698.0,0.0163
2697.0,0.0162
2696.0,0.0162
2695.0,0.0161
2694.0,0.0161
2693.0,0.016
2692.0,0.016
2691.0,0.016
2690.0,0.016
2689.0,0.016
2688.0,0.016
2687.0,0.016
2686.0,0.016
2685.0,0.0159
2684.0,0.0159
2683.0,0.0158
2682.0,0.0158
2681.0,0.0158
2680.0,0.0158
2679.0,0.0158
2678.0,0.0159
2677.0,0.0159
2676.0,0.0159
2675.0,0.0159
2674.0,0.0159
2673.0,0.0159
2672.0,0.0158
2671.0,0.0158
2670.0,0.0157
2669.0,0.0157
2668.0,0.0158
2667.0,0.0158
2666.0,0.0158
2665.0,0.0158
2664.0,0.0158
2663.0,0.0158
2662.0,0.0158
2661.0,0.0157
2660.0,0.0157
2659.0,0.0157
2658.0,0.0157
2657.0,0.0157
2656.0,0.0156
2655.0,0.0155
2654.0,0.0155
2653.0,0.0155
2652.0,0.0155
2651.0,0.0155
2650.0,0.0155
2649.0,0.0155
2648.0,0.0155
2647.0,0.0154
2646.0,0.0153
2645.0,0.0152
2644.0,0.0152
2643.0,0.0151
2642.0,0.0151
2641.0,0.0152
2640.0,0.0151
2639.0,0.0151
2638.0,0.0151
2637.0,0.0151
2636.0,0.0151
2635.0,0.0152
2634.0,0.0152
2633.0,0.0152
2632.0,0.0152
2631.0,0.0151
2630.0,0.015
2629.0,0.015
2628.0,0.015
2627.0,0.0151
2626.0,0.0152
2625.0,0.0152
2624.0,0.0152
2623.0,0.0152
2622.0,0.0151
2621.0,0.015
2620.0,0.015
2619.0,0.015
2618.0,0.015
2617.0,0.015
2616.0,0.015
2615.0,0.015
2614.0,0.015
2613.0,0.015
2612.0,0.015
2611.0,0.015
2610.0,0.015
2609.0,0.0149
2608.0,0.0149
2607.0,0.0148
2606.0,0.0147
2605.0,0.0146
2604.0,0.0146
2603.0,0.0146
2602.0,0.0147
2601.0,0.0147
2600.0,0.0147
2599.0,0.0147
2598.0,0.0147
2597.0,0.0147
2596.0,0.0147
2595.0,0.0147
2594.0,0.0147
2593.0,0.0147
2592.0,0.0147
2591.0,0.0147
2590.0,0.0147
2589.0,0.0147
2588.0,0.0148
2587.0,0.0148
2586.0,0.0149
2585.0,0.0149
2584.0,0.015
2583.0,0.0151
2582.0,0.0151
2581.0,0.015
2580.0,0.0149
2579.0,0.0148
2578.0,0.0147
2577.0,0.0147
2576.0,0.0147
2575.0,0.0147
2574.0,0.0147
2573.0,0.0147
2572.0,0.0147
2571.0,0.0147
2570.0,0.0146
2569.0,0.0145
2568.0,0.0144
2567.0,0.0144
2566.0,0.0144
2565.0,0.0144
2564.0,0.0143
2563.0,0.0143
2562.0,0.0143
2561.0,0.0143
2560.0,0.0143
2559.0,0.0143
2558.0,0.0143
2557.0,0.0142
2556.0,0.0142
2555.0,0.0141
2554.0,0.0141
2553.0,0.0141
2552.0,0.0142
2551.0,0.0142
2550.0,0.0142
2549.0,0.0142
2548.0,0.0141
2547.0,0.0142
2546.0,0.0141
2545.0,0.0141
2544.0,0.0141
2543.0,0.014
2542.0,0.014
2541.0,0.0139
2540.0,0.0139
2539.0,0.0139
2538.0,0.0139
2537.0,0.014
2536.0,0.014
2535.0,0.014
2534.0,0.014
2533.0,0.0139
2532.0,0.0139
2531.0,0.0138
2530.0,0.0138
2529.0,0.0138
2528.0,0.0139
2527.0,0.0139
2526.0,0.0139
2525.0,0.0138
2524.0,0.0137
2523.0,0.0137
2522.0,0.0137
2521.0,0.0137
2520.0,0.0136
2519.0,0.0136
2518.0,0.0135
2517.0,0.0135
2516.0,0.0135
2515.0,0.0136
2514.0,0.0136
2513.0,0.0136
2512.0,0.0136
2511.0,0.0135
2510.0,0.0135
2509.0,0.0135
2508.0,0.0136
2507.0,0.0137
2506.0,0.0138
2505.0,0.0138
2504.0,0.0138
2503.0,0.0137
2502.0,0.0137
2501.0,0.0136
2500.0,0.0136
2499.0,0.0136
2498.0,0.0136
2497.0,0.0136
2496.0,0.0136
2495.0,0.0136
2494.0,0.0136
2493.0,0.0135
2492.0,0.0135
2491.0,0.0135
2490.0,0.0135
2489.0,0.0135
2488.0,0.0135
2487.0,0.0134
2486.0,0.0134
2485.0,0.0134
2484.0,0.0134
2483.0,0.0134
2482.0,0.0134
2481.0,0.0135
2480.0,0.0135
2479.0,0.0136
2478.0,0.0136
2477.0,0.0135
2476.0,0.0135
2475.0,0.0134
2474.0,0.0133
2473.0,0.0133
2472.0,0.0133
2471.0,0.0133
2470.0,0.0134
2469.0,0.0134
2468.0,0.0134
2467.0,0.0134
2466.0,0.0134
2465.0,0.0133
2464.0,0.0133
2463.0,0.0132
2462.0,0.0132
2461.0,0.0132
2460.0,0.0133
2459.0,0.0133
2458.0,0.0133
2457.0,0.0133
2456.0,0.0133
2455.0,0.0133
2454.0,0.0133
2453.0,0.0133
2452.0,0.0133
2451.0,0.0133
2450.0,0.0133
2449.0,0.0132
2448.0,0.0132
2447.0,0.0132
2446.0,0.0132
2445.0,0.0132
2444.0,0.0132
2443.0,0.0133
2442.0,0.0133
2441.0,0.0133
2440.0,0.0133
2439.0,0.0133
2438.0,0.0133
2437.0,0.0134
2436.0,0.0134
2435.0,0.0134
2434.0,0.0134
2433.0,0.0134
2432.0,0.0134
2431.0,0.0133
2430.0,0.0134
2429.0,0.0134
2428.0,0.0134
2427.0,0.0134
2426.0,0.0134
2425.0,0.0134
2424.0,0.0134
2423.0,0.0133
2422.0,0.0132
2421.0,0.0132
2420.0,0.0132
2419.0,0.0133
2418.0,0.0134
2417.0,0.0134
2416.0,0.0134
2415.0,0.0134
2414.0,0.0133
2413.0,0.0133
2412.0,0.0133
2411.0,0.0133
2410.0,0.0133
2409.0,0.0133
2408.0,0.0133
2407.0,0.0133
2406.0,0.0133
2405.0,0.0133
2404.0,0.0132
2403.0,0.0132
2402.0,0.0132
2401.0,0.0132
2400.0,0.0132
2399.0,0.0132
2398.0,0.0132
2397.0,0.0132
2396.0,0.0132
2395.0,0.0132
2394.0,0.0132
2393.0,0.0132
2392.0,0.0133
2391.0,0.0133
2390.0,0.0133
2389.0,0.0134
2388.0,0.0134
2387.0,0.0135
2386.0,0.0137
2385.0,0.0138
2384.0,0.014
2383.0,0.0141
2382.0,0.0142
2381.0,0.0141
2380.0,0.014
2379.0,0.0139
2378.0,0.0139
2377.0,0.0139
2376.0,0.0141
2375.0,0.0145
2374.0,0.015
2373.0,0.0152
2372.0,0.0151
2371.0,0.0147
2370.0,0.0144
2369.0,0.0143
2368.0,0.0147
2367.0,0.0152
2366.0,0.0155
2365.0,0.0156
2364.0,0.0153
2363.0,0.0148
2362.0,0.0145
2361.0,0.0145
2360.0,0.0145
2359.0,0.0144
2358.0,0.0144
2357.0,0.0147
2356.0,0.0148
2355.0,0.0149
2354.0,0.015
2353.0,0.0152
2352.0,0.0153
2351.0,0.0153
2350.0,0.0151
2349.0,0.015
2348.0,0.0149
2347.0,0.0149
2346.0,0.015
2345.0,0.015
2344.0,0.0151
2343.0,0.0154
2342.0,0.0156
2341.0,0.0155
2340.0,0.0153
2339.0,0.0151
2338.0,0.0149
2337.0,0.0147
2336.0,0.0146
2335.0,0.0147
2334.0,0.0148
2333.0,0.015
2332.0,0.015
2331.0,0.015
2330.0,0.0149
2329.0,0.0148
2328.0,0.0149
2327.0,0.015
2326.0,0.015
2325.0,0.0148
2324.0,0.0145
2323.0,0.0143
2322.0,0.0142
2321.0,0.0143
2320.0,0.0146
2319.0,0.0148
2318.0,0.0148
2317.0,0.0147
2316.0,0.0146
2315.0,0.0144
2314.0,0.0144
2313.0,0.0146
2312.0,0.0148
2311.0,0.015
2310.0,0.015
2309.0,0.0149
2308.0,0.0147
2307.0,0.0146
2306.0,0.0144
2305.0,0.0144
2304.0,0.0143
2303.0,0.0143
2302.0,0.0143
2301.0,0.0142
2300.0,0.0142
2299.0,0.0142
2298.0,0.0142
2297.0,0.0141
2296.0,0.0141
2295.0,0.0141
2294.0,0.0141
2293.0,0.014
2292.0,0.0138
2291.0,0.0137
2290.0,0.0136
2289.0,0.0135
2288.0,0.0135
2287.0,0.0134
2286.0,0.0133
2285.0,0.0132
2284.0,0.0131
2283.0,0.0131
2282.0,0.0132
2281.0,0.0132
2280.0,0.0133
2279.0,0.0133
2278.0,0.0133
2277.0,0.0133
2276.0,0.0133
2275.0,0.0133
2274.0,0.0133
2273.0,0.0133
2272.0,0.0134
2271.0,0.0134
2270.0,0.0133
2269.0,0.0133
2268.0,0.0133
2267.0,0.0134
2266.0,0.0134
2265.0,0.0133
2264.0,0.0133
2263.0,0.0132
2262.0,0.0132
2261.0,0.0132
2260.0,0.0132
2259.0,0.0133
2258.0,0.0133
2257.0,0.0133
2256.0,0.0133
2255.0,0.0132
2254.0,0.0132
2253.0,0.0131
2252.0,0.013
2251.0,0.013
2250.0,0.013
2249.0,0.013
2248.0,0.013
2247.0,0.013
2246.0,0.013
2245.0,0.0131
2244.0,0.0131
2243.0,0.0131
2242.0,0.0131
2241.0,0.013
2240.0,0.0131
2239.0,0.013
2238.0,0.013
2237.0,0.013
2236.0,0.0131
2235.0,0.0131
2234.0,0.0131
2233.0,0.0131
2232.0,0.0131
2231.0,0.0131
2230.0,0.0131
2229.0,0.0131
2228.0,0.0131
2227.0,0.0131
2226.0,0.013
2225.0,0.013
2224.0,0.0129
2223.0,0.013
2222.0,0.013
2221.0,0.013
2220.0,0.013
2219.0,0.0129
2218.0,0.0129
2217.0,0.0128
2216.0,0.0128
2215.0,0.0128
2214.0,0.0128
2213.0,0.0128
2212.0,0.0128
2211.0,0.0128
2210.0,0.0129
2209.0,0.013
2208.0,0.013
2207.0,0.0131
2206.0,0.0131
2205.0,0.013
2204.0,0.0129
2203.0,0.0129
2202.0,0.0128
2201.0,0.0129
2200.0,0.0129
2199.0,0.0129
2198.0,0.013
2197.0,0.0131
2196.0,0.0131
2195.0,0.0131
2194.0,0.0131
2193.0,0.0131
2192.0,0.0131
2191.0,0.0131
2190.0,0.0131
2189.0,0.0131
2188.0,0.0131
2187.0,0.0131
2186.0,0.0131
2185.0,0.0131
2184.0,0.0131
2183.0,0.0131
2182.0,0.0131
2181.0,0.0131
2180.0,0.013
2179.0,0.0129
2178.0,0.0129
2177.0,0.013
2176.0,0.0131
2175.0,0.0131
2174.0,0.0131
2173.0,0.0131
2172.0,0.0131
2171.0,0.0131
2170.0,0.0131
2169.0,0.0131
2168.0,0.0131
2167.0,0.013
2166.0,0.013
2165.0,0.013
2164.0,0.013
2163.0,0.013
2162.0,0.013
2161.0,0.013
2160.0,0.0129
2159.0,0.0129
2158.0,0.0129
2157.0,0.013
2156.0,0.013
2155.0,0.0131
2154.0,0.0131
2153.0,0.013
2152.0,0.013
2151.0,0.013
2150.0,0.0129
2149.0,0.0129
2148.0,0.0129
2147.0,0.0129
2146.0,0.0129
2145.0,0.013
2144.0,0.013
2143.0,0.0129
2142.0,0.0129
2141.0,0.013
2140.0,0.013
2139.0,0.013
2138.0,0.013
2137.0,0.013
2136.0,0.013
2135.0,0.013
2134.0,0.0131
2133.0,0.0131
2132.0,0.0131
2131.0,0.0131
2130.0,0.013
2129.0,0.013
2128.0,0.013
2127.0,0.0129
2126.0,0.0129
2125.0,0.013
2124.0,0.013
2123.0,0.013
2122.0,0.013
2121.0,0.013
2120.0,0.013
2119.0,0.013
2118.0,0.013
2117.0,0.013
2116.0,0.013
2115.0,0.0129
2114.0,0.0129
2113.0,0.013
2112.0,0.013
2111.0,0.013
2110.0,0.013
2109.0,0.013
2108.0,0.013
2107.0,0.013
2106.0,0.013
2105.0,0.013
2104.0,0.013
2103.0,0.013
2102.0,0.013
2101.0,0.013
2100.0,0.013
2099.0,0.013
2098.0,0.0129
2097.0,0.0129
2096.0,0.0129
2095.0,0.013
2094.0,0.013
2093.0,0.013
2092.0,0.013
2091.0,0.013
2090.0,0.013
2089.0,0.0131
2088.0,0.0131
2087.0,0.0131
2086.0,0.013
2085.0,0.013
2084.0,0.013
2083.0,0.013
2082.0,0.0129
2081.0,0.0129
2080.0,0.0128
2079.0,0.0128
2078.0,0.0129
2077.0,0.0129
2076.0,0.013
2075.0,0.013
2074.0,0.013
2073.0,0.013
2072.0,0.0131
2071.0,0.0131
2070.0,0.013
2069.0,0.013
2068.0,0.0131
2067.0,0.0131
2066.0,0.0131
2065.0,0.013
2064.0,0.0129
2063.0,0.0129
2062.0,0.0129
2061.0,0.0129
2060.0,0.0129
2059.0,0.013
2058.0,0.013
2057.0,0.0131
2056.0,0.0131
2055.0,0.0131
2054.0,0.013
2053.0,0.013
2052.0,0.013
2051.0,0.013
2050.0,0.0129
2049.0,0.0129
2048.0,0.0129
2047.0,0.013
2046.0,0.013
2045.0,0.013
2044.0,0.013
2043.0,0.013
2042.0,0.013
2041.0,0.013
2040.0,0.013
2039.0,0.013
2038.0,0.013
2037.0,0.013
2036.0,0.013
2035.0,0.013
2034.0,0.013
2033.0,0.013
2032.0,0.013
2031.0,0.0131
2030.0,0.0131
2029.0,0.013
2028.0,0.013
2027.0,0.0129
2026.0,0.0129
2025.0,0.013
2024.0,0.013
2023.0,0.0131
2022.0,0.0131
2021.0,0.0131
2020.0,0.0131
2019.0,0.0131
2018.0,0.013
2017.0,0.013
2016.0,0.0129
2015.0,0.013
2014.0,0.013
2013.0,0.0131
2012.0,0.0132
2011.0,0.0132
2010.0,0.0131
2009.0,0.0131
2008.0,0.0131
2007.0,0.0131
2006.0,0.013
2005.0,0.013
2004.0,0.013
2003.0,0.013
2002.0,0.013
2001.0,0.0131
2000.0,0.0132
1999.0,0.0132
1998.0,0.0132
1997.0,0.0132
1996.0,0.0132
1995.0,0.0132
1994.0,0.0132
1993.0,0.0132
1992.0,0.0133
1991.0,0.0133
1990.0,0.0133
1989.0,0.0133
1988.0,0.0133
1987.0,0.0132
1986.0,0.0132
1985.0,0.0132
1984.0,0.0132
1983.0,0.0132
1982.0,0.0132
1981.0,0.0132
1980.0,0.0132
1979.0,0.0132
1978.0,0.0132
1977.0,0.0131
1976.0,0.0131
1975.0,0.0131
1974.0,0.0131
1973.0,0.0131
1972.0,0.0131
1971.0,0.0131
1970.0,0.013
1969.0,0.013
1968.0,0.0131
1967.0,0.0131
1966.0,0.0132
1965.0,0.0132
1964.0,0.0131
1963.0,0.0131
1962.0,0.0131
1961.0,0.0131
1960.0,0.0131
1959.0,0.0131
1958.0,0.0132
1957.0,0.0132
1956.0,0.0133
1955.0,0.0133
1954.0,0.0133
1953.0,0.0133
1952.0,0.0133
1951.0,0.0133
1950.0,0.0133
1949.0,0.0133
1948.0,0.0133
1947.0,0.0133
1946.0,0.0132
1945.0,0.0132
1944.0,0.0132
1943.0,0.0132
1942.0,0.0133
1941.0,0.0133
1940.0,0.0133
1939.0,0.0134
1938.0,0.0135
1937.0,0.0135
1936.0,0.0135
1935.0,0.0135
1934.0,0.0134
1933.0,0.0134
1932.0,0.0134
1931.0,0.0134
1930.0,0.0133
1929.0,0.0133
1928.0,0.0132
1927.0,0.0132
1926.0,0.0132
1925.0,0.0132
1924.0,0.0133
1923.0,0.0133
1922.0,0.0133
1921.0,0.0134
1920.0,0.0134
1919.0,0.0135
1918.0,0.0135
1917.0,0.0135
1916.0,0.0135
1915.0,0.0135
1914.0,0.0134
1913.0,0.0134
1912.0,0.0134
1911.0,0.0134
1910.0,0.0134
1909.0,0.0134
1908.0,0.0134
1907.0,0.0135
1906.0,0.0135
1905.0,0.0135
1904.0,0.0135
1903.0,0.0135
1902.0,0.0135
1901.0,0.0136
1900.0,0.0135
1899.0,0.0135
1898.0,0.0135
1897.0,0.0135
1896.0,0.0135
1895.0,0.0135
1894.0,0.0135
1893.0,0.0136
1892.0,0.0136
1891.0,0.0135
1890.0,0.0135
1889.0,0.0135
1888.0,0.0135
1887.0,0.0136
1886.0,0.0136
1885.0,0.0137
1884.0,0.0137
1883.0,0.0137
1882.0,0.0137
1881.0,0.0137
1880.0,0.0137
1879.0,0.0136
1878.0,0.0136
1877.0,0.0136
1876.0,0.0136
1875.0,0.0136
1874.0,0.0136
1873.0,0.0136
1872.0,0.0136
1871.0,0.0136
1870.0,0.0135
1869.0,0.0135
1868.0,0.0135
1867.0,0.0135
1866.0,0.0135
1865.0,0.0136
1864.0,0.0137
1863.0,0.0137
1862.0,0.0137
1861.0,0.0137
1860.0,0.0137
1859.0,0.0137
1858.0,0.0136
1857.0,0.0136
1856.0,0.0135
1855.0,0.0135
1854.0,0.0136
1853.0,0.0136
1852.0,0.0137
1851.0,0.0137
1850.0,0.0137
1849.0,0.0137
1848.0,0.0137
1847.0,0.0137
1846.0,0.0137
1845.0,0.0137
1844.0,0.0138
1843.0,0.0137
1842.0,0.0137
1841.0,0.0137
1840.0,0.0137
1839.0,0.0136
1838.0,0.0135
1837.0,0.0135
1836.0,0.0136
1835.0,0.0136
1834.0,0.0136
1833.0,0.0136
1832.0,0.0136
1831.0,0.0135
1830.0,0.0136
1829.0,0.0136
1828.0,0.0137
1827.0,0.0138
1826.0,0.0138
1825.0,0.0137
1824.0,0.0137
1823.0,0.0136
1822.0,0.0136
1821.0,0.0136
1820.0,0.0137
1819.0,0.0138
1818.0,0.0138
1817.0,0.0138
1816.0,0.0138
1815.0,0.0137
1814.0,0.0137
1813.0,0.0137
1812.0,0.0137
1811.0,0.0137
1810.0,0.0137
1809.0,0.0137
1808.0,0.0137
1807.0,0.0137
1806.0,0.0136
1805.0,0.0136
1804.0,0.0136
1803.0,0.0136
1802.0,0.0137
1801.0,0.0138
1800.0,0.0138
1799.0,0.0138
1798.0,0.0138
1797.0,0.0138
1796.0,0.0139
1795.0,0.0139
1794.0,0.0138
1793.0,0.0139
1792.0,0.0139
1791.0,0.0139
1790.0,0.0139
1789.0,0.0139
1788.0,0.014
1787.0,0.0139
1786.0,0.0139
1785.0,0.014
1784.0,0.014
1783.0,0.014
1782.0,0.014
1781.0,0.0139
1780.0,0.0139
1779.0,0.0139
1778.0,0.0138
1777.0,0.0138
1776.0,0.0138
1775.0,0.0138
1774.0,0.0138
1773.0,0.0139
1772.0,0.0139
1771.0,0.014
1770.0,0.0141
1769.0,0.0142
1768.0,0.0143
1767.0,0.0142
1766.0,0.0141
1765.0,0.0141
1764.0,0.0141
1763.0,0.0141
1762.0,0.0141
1761.0,0.0141
1760.0,0.0142
1759.0,0.0143
1758.0,0.0144
1757.0,0.0144
1756.0,0.0145
1755.0,0.0146
1754.0,0.0147
1753.0,0.0148
1752.0,0.0149
1751.0,0.015
1750.0,0.0151
1749.0,0.0151
1748.0,0.0152
1747.0,0.0152
1746.0,0.0152
1745.0,0.0152
1744.0,0.0153
1743.0,0.0154
1742.0,0.0155
1741.0,0.0156
1740.0,0.0155
1739.0,0.0155
1738.0,0.0154
1737.0,0.0154
1736.0,0.0154
1735.0,0.0154
1734.0,0.0155
1733.0,0.0155
1732.0,0.0155
1731.0,0.0155
1730.0,0.0154
1729.0,0.0154
1728.0,0.0153
1727.0,0.0153
1726.0,0.0153
1725.0,0.0153
1724.0,0.0153
1723.0,0.0153
1722.0,0.0153
1721.0,0.0153
1720.0,0.0153
1719.0,0.0152
1718.0,0.0152
1717.0,0.0153
1716.0,0.0154
1715.0,0.0155
1714.0,0.0155
1713.0,0.0155
1712.0,0.0154
1711.0,0.0154
1710.0,0.0154
1709.0,0.0154
1708.0,0.0154
1707.0,0.0153
1706.0,0.0153
1705.0,0.0154
1704.0,0.0155
1703.0,0.0157
1702.0,0.0157
1701.0,0.0158
1700.0,0.0158
1699.0,0.0157
1698.0,0.0157
1697.0,0.0158
1696.0,0.0158
1695.0,0.0157
1694.0,0.0157
1693.0,0.0157
1692.0,0.0157
1691.0,0.0157
1690.0,0.0157
1689.0,0.0158
1688.0,0.0159
1687.0,0.016
1686.0,0.0159
1685.0,0.0161
1684.0,0.0163
1683.0,0.0163
1682.0,0.0163
1681.0,0.0164
1680.0,0.0164
1679.0,0.0164
1678.0,0.0164
1677.0,0.0165
1676.0,0.0165
1675.0,0.0165
1674.0,0.0165
1673.0,0.0165
1672.0,0.0165
1671.0,0.0165
1670.0,0.0166
1669.0,0.0167
1668.0,0.0168
1667.0,0.0168
1666.0,0.0168
1665.0,0.0168
1664.0,0.0169
1663.0,0.0169
1662.0,0.0169
1661.0,0.017
1660.0,0.017
1659.0,0.017
1658.0,0.017
1657.0,0.017
1656.0,0.0171
1655.0,0.0171
1654.0,0.0172
1653.0,0.0173
1652.0,0.0171
1651.0,0.0171
1650.0,0.0171
1649.0,0.0171
1648.0,0.0172
1647.0,0.0173
1646.0,0.0173
1645.0,0.0172
1644.0,0.0172
1643.0,0.0172
1642.0,0.0173
1641.0,0.0173
1640.0,0.0172
1639.0,0.0171
1638.0,0.017
1637.0,0.017
1636.0,0.0171
1635.0,0.0171
1634.0,0.0171
1633.0,0.0171
1632.0,0.0171
1631.0,0.0171
1630.0,0.017
1629.0,0.0169
1628.0,0.0169
1627.0,0.0168
1626.0,0.0169
1625.0,0.0168
1624.0,0.0168
1623.0,0.0168
1622.0,0.0168
1621.0,0.0167
1620.0,0.0167
1619.0,0.0166
1618.0,0.0165
1617.0,0.0164
1616.0,0.0165
1615.0,0.0165
1614.0,0.0166
1613.0,0.0166
1612.0,0.0166
1611.0,0.0165
1610.0,0.0165
1609.0,0.0165
1608.0,0.0165
1607.0,0.0165
1606.0,0.0166
1605.0,0.0167
1604.0,0.0167
1603.0,0.0167
1602.0,0.0167
1601.0,0.0166
1600.0,0.0166
1599.0,0.0166
1598.0,0.0166
1597.0,0.0165
1596.0,0.0165
1595.0,0.0164
1594.0,0.0164
1593.0,0.0163
1592.0,0.0163
1591.0,0.0163
1590.0,0.0163
1589.0,0.0164
1588.0,0.0164
1587.0,0.0164
1586.0,0.0165
1585.0,0.0165
1584.0,0.0165
1583.0,0.0165
1582.0,0.0166
1581.0,0.0166
1580.0,0.0167
1579.0,0.0167
1578.0,0.0167
1577.0,0.0166
1576.0,0.0167
1575.0,0.0167
1574.0,0.0167
1573.0,0.0167
1572.0,0.0166
1571.0,0.0164
1570.0,0.0164
1569.0,0.0164
1568.0,0.0164
1567.0,0.0164
1566.0,0.0164
1565.0,0.0163
1564.0,0.0164
1563.0,0.0165
1562.0,0.0165
1561.0,0.0163
1560.0,0.0161
1559.0,0.0164
1558.0,0.0164
1557.0,0.0164
1556.0,0.0165
1555.0,0.0165
1554.0,0.0165
1553.0,0.0165
1552.0,0.0165
1551.0,0.0165
1550.0,0.0166
1549.0,0.0166
1548.0,0.0165
1547.0,0.0165
1546.0,0.0164
1545.0,0.0163
1544.0,0.0164
1543.0,0.0164
1542.0,0.0164
1541.0,0.0165
1540.0,0.0166
1539.0,0.0164
1538.0,0.0163
1537.0,0.0163
1536.0,0.0162
1535.0,0.0161
1534.0,0.016
1533.0,0.0159
1532.0,0.0159
1531.0,0.0158
1530.0,0.0157
1529.0,0.0156
1528.0,0.0156
1527.0,0.0156
1526.0,0.0155
1525.0,0.0155
1524.0,0.0155
1523.0,0.0155
1522.0,0.0155
1521.0,0.0155
1520.0,0.0154
1519.0,0.0153
1518.0,0.0153
1517.0,0.0153
1516.0,0.0153
1515.0,0.0153
1514.0,0.0153
1513.0,0.0153
1512.0,0.0154
1511.0,0.0154
1510.0,0.0154
1509.0,0.0153
1508.0,0.0154
1507.0,0.0156
1506.0,0.0155
1505.0,0.0153
1504.0,0.0153
1503.0,0.0152
1502.0,0.0151
1501.0,0.0151
1500.0,0.0152
1499.0,0.0152
1498.0,0.0153
1497.0,0.0156
1496.0,0.016
1495.0,0.0162
1494.0,0.0164
1493.0,0.0164
1492.0,0.0164
1491.0,0.0162
1490.0,0.0161
1489.0,0.0162
1488.0,0.0163
1487.0,0.0164
1486.0,0.0164
1485.0,0.0166
1484.0,0.0167
1483.0,0.0169
1482.0,0.0171
1481.0,0.0175
1480.0,0.0179
1479.0,0.0183
1478.0,0.0189
1477.0,0.0198
1476.0,0.0211
1475.0,0.0226
1474.0,0.0247
1473.0,0.0277
1472.0,0.031
1471.0,0.0335
1470.0,0.0358
1469.0,0.0384
1468.0,0.0412
1467.0,0.0444
1466.0,0.0487
1465.0,0.0539
1464.0,0.0584
1463.0,0.0611
1462.0,0.0626
1461.0,0.0635
1460.0,0.0641
1459.0,0.0647
1458.0,0.0662
1457.0,0.0685
1456.0,0.0698
1455.0,0.07
1454.0,0.0699
1453.0,0.0696
1452.0,0.0691
1451.0,0.068
1450.0,0.0663
1449.0,0.0638
1448.0,0.0602
1447.0,0.0563
1446.0,0.0527
1445.0,0.0495
1444.0,0.0466
1443.0,0.0441
1442.0,0.0421
1441.0,0.0406
1440.0,0.0396
1439.0,0.0391
1438.0,0.0391
1437.0,0.0392
1436.0,0.039
1435.0,0.038
1434.0,0.0365
1433.0,0.0347
1432.0,0.0327
1431.0,0.0309
1430.0,0.0294
1429.0,0.0283
1428.0,0.0274
1427.0,0.0268
1426.0,0.0263
1425.0,0.0259
1424.0,0.0254
1423.0,0.0251
1422.0,0.0249
1421.0,0.0246
1420.0,0.0243
1419.0,0.0242
1418.0,0.024
1417.0,0.0237
1416.0,0.0234
1415.0,0.0231
1414.0,0.0229
1413.0,0.0227
1412.0,0.0225
1411.0,0.0224
1410.0,0.0223
1409.0,0.022
1408.0,0.0218
1407.0,0.0215
1406.0,0.0214
1405.0,0.0212
1404.0,0.0211
1403.0,0.0209
1402.0,0.0208
1401.0,0.0206
1400.0,0.0204
1399.0,0.0203
1398.0,0.0203
1397.0,0.0202
1396.0,0.0201
1395.0,0.02
1394.0,0.02
1393.0,0.02
1392.0,0.0199
1391.0,0.02
1390.0,0.0202
1389.0,0.0204
1388.0,0.021
1387.0,0.0221
1386.0,0.0238
1385.0,0.026
1384.0,0.0292
1383.0,0.034
1382.0,0.0405
1381.0,0.0491
1380.0,0.0601
1379.0,0.0728
1378.0,0.0851
1377.0,0.0941
1376.0,0.0977
1375.0,0.0943
1374.0,0.0853
1373.0,0.0748
1372.0,0.0655
1371.0,0.0577
1370.0,0.051
1369.0,0.0456
1368.0,0.0417
1367.0,0.0391
1366.0,0.0376
1365.0,0.0368
1364.0,0.0366
1363.0,0.0371
1362.0,0.0381
1361.0,0.0391
1360.0,0.0398
1359.0,0.04
1358.0,0.0395
1357.0,0.0385
1356.0,0.037
1355.0,0.0354
1354.0,0.0337
1353.0,0.0323
1352.0,0.0312
1351.0,0.0302
1350.0,0.0294
1349.0,0.0286
1348.0,0.028
1347.0,0.0275
1346.0,0.027
1345.0,0.0266
1344.0,0.0262
1343.0,0.0258
1342.0,0.0255
1341.0,0.0252
1340.0,0.0251
1339.0,0.025
1338.0,0.025
1337.0,0.025
1336.0,0.025
1335.0,0.025
1334.0,0.025
1333.0,0.0251
1332.0,0.0252
1331.0,0.0253
1330.0,0.0254
1329.0,0.0254
1328.0,0.0253
1327.0,0.0252
1326.0,0.0249
1325.0,0.0247
1324.0,0.0244
1323.0,0.0241
1322.0,0.0239
1321.0,0.0237
1320.0,0.0236
1319.0,0.0235
1318.0,0.0234
1317.0,0.0233
1316.0,0.0232
1315.0,0.0231
1314.0,0.023
1313.0,0.023
1312.0,0.0229
1311.0,0.023
1310.0,0.0231
1309.0,0.0234
1308.0,0.0238
1307.0,0.0245
1306.0,0.0251
1305.0,0.0255
1304.0,0.0256
1303.0,0.0255
1302.0,0.0252
1301.0,0.0249
1300.0,0.0247
1299.0,0.0246
1298.0,0.0246
1297.0,0.0246
1296.0,0.0246
1295.0,0.0245
1294.0,0.0243
1293.0,0.0241
1292.0,0.0239
1291.0,0.0238
1290.0,0.0236
1289.0,0.0234
1288.0,0.0233
1287.0,0.0232
1286.0,0.0231
1285.0,0.0231
1284.0,0.023
1283.0,0.0229
1282.0,0.0228
1281.0,0.0227
1280.0,0.0227
1279.0,0.0227
1278.0,0.0226
1277.0,0.0226
1276.0,0.0226
1275.0,0.0225
1274.0,0.0225
1273.0,0.0224
1272.0,0.0224
1271.0,0.0224
1270.0,0.0224
1269.0,0.0225
1268.0,0.0226
1267.0,0.0227
1266.0,0.0228
1265.0,0.023
1264.0,0.0231
1263.0,0.0232
1262.0,0.0233
1261.0,0.0235
1260.0,0.0238
1259.0,0.0242
1258.0,0.0247
1257.0,0.0251
1256.0,0.0253
1255.0,0.0253
1254.0,0.025
1253.0,0.0246
1252.0,0.0242
1251.0,0.0238
1250.0,0.0235
1249.0,0.0233
1248.0,0.0232
1247.0,0.0231
1246.0,0.023
1245.0,0.0229
1244.0,0.0229
1243.0,0.0228
1242.0,0.0228
1241.0,0.0227
1240.0,0.0227
1239.0,0.0226
1238.0,0.0226
1237.0,0.0225
1236.0,0.0225
1235.0,0.0225
1234.0,0.0225
1233.0,0.0225
1232.0,0.0225
1231.0,0.0225
1230.0,0.0224
1229.0,0.0224
1228.0,0.0225
1227.0,0.0226
1226.0,0.0227
1225.0,0.0229
1224.0,0.023
1223.0,0.0231
1222.0,0.0231
1221.0,0.0232
1220.0,0.0232
1219.0,0.0233
1218.0,0.0233
1217.0,0.0233
1216.0,0.0232
1215.0,0.0231
1214.0,0.023
1213.0,0.0229
1212.0,0.0228
1211.0,0.0227
1210.0,0.0226
1209.0,0.0226
1208.0,0.0226
1207.0,0.0226
1206.0,0.0226
1205.0,0.0226
1204.0,0.0225
1203.0,0.0225
1202.0,0.0225
1201.0,0.0225
1200.0,0.0226
1199.0,0.0227
1198.0,0.0227
1197.0,0.0227
1196.0,0.0227
1195.0,0.0227
1194.0,0.0227
1193.0,0.0227
1192.0,0.0226
1191.0,0.0227
1190.0,0.0227
1189.0,0.0228
1188.0,0.0229
1187.0,0.023
1186.0,0.023
1185.0,0.0231
1184.0,0.0233
1183.0,0.0234
1182.0,0.0236
1181.0,0.0237
1180.0,0.0239
1179.0,0.0241
1178.0,0.0244
1177.0,0.0247
1176.0,0.0253
1175.0,0.0261
1174.0,0.0271
1173.0,0.0284
1172.0,0.03
1171.0,0.0317
1170.0,0.0335
1169.0,0.035
1168.0,0.036
1167.0,0.0363
1166.0,0.036
1165.0,0.0352
1164.0,0.0343
1163.0,0.0333
1162.0,0.0325
1161.0,0.0318
1160.0,0.0312
1159.0,0.0308
1158.0,0.0305
1157.0,0.0302
1156.0,0.03
1155.0,0.0299
1154.0,0.0298
1153.0,0.0296
1152.0,0.0294
1151.0,0.0291
1150.0,0.0287
1149.0,0.0283
1148.0,0.0279
1147.0,0.0275
1146.0,0.0271
1145.0,0.0267
1144.0,0.0264
1143.0,0.0262
1142.0,0.0259
1141.0,0.0257
1140.0,0.0254
1139.0,0.0252
1138.0,0.025
1137.0,0.0248
1136.0,0.0247
1135.0,0.0246
1134.0,0.0245
1133.0,0.0244
1132.0,0.0243
1131.0,0.0242
1130.0,0.0242
1129.0,0.0243
1128.0,0.0243
1127.0,0.0244
1126.0,0.0244
1125.0,0.0243
1124.0,0.0241
1123.0,0.024
1122.0,0.024
1121.0,0.024
1120.0,0.024
1119.0,0.024
1118.0,0.0239
1117.0,0.0239
1116.0,0.0239
1115.0,0.0239
1114.0,0.0239
1113.0,0.024
1112.0,0.0242
1111.0,0.0243
1110.0,0.0244
1109.0,0.0246
1108.0,0.0248
1107.0,0.025
1106.0,0.0253
1105.0,0.0256
1104.0,0.0258
1103.0,0.0259
1102.0,0.0259
1101.0,0.0258
1100.0,0.0256
1099.0,0.0253
1098.0,0.0251
1097.0,0.025
1096.0,0.0249
1095.0,0.0248
1094.0,0.0246
1093.0,0.0244
1092.0,0.0243
1091.0,0.0241
1090.0,0.0241
1089.0,0.024
1088.0,0.0239
1087.0,0.0239
1086.0,0.0239
1085.0,0.0239
1084.0,0.024
1083.0,0.024
1082.0,0.024
1081.0,0.024
1080.0,0.024
1079.0,0.0241
1078.0,0.0241
1077.0,0.024
1076.0,0.024
1075.0,0.024
1074.0,0.024
1073.0,0.024
1072.0,0.024
1071.0,0.024
1070.0,0.0239
1069.0,0.0238
1068.0,0.0237
1067.0,0.0237
1066.0,0.0238
1065.0,0.0238
1064.0,0.0238
1063.0,0.0238
1062.0,0.0238
1061.0,0.0238
1060.0,0.0238
1059.0,0.0238
1058.0,0.0239
1057.0,0.024
1056.0,0.0241
1055.0,0.0242
1054.0,0.0243
1053.0,0.0245
1052.0,0.0246
1051.0,0.0246
1050.0,0.0246
1049.0,0.0247
1048.0,0.0249
1047.0,0.0252
1046.0,0.0255
1045.0,0.0257
1044.0,0.0258
1043.0,0.0257
1042.0,0.0256
1041.0,0.0254
1040.0,0.0253
1039.0,0.0252
1038.0,0.0252
1037.0,0.0251
1036.0,0.025
1035.0,0.025
1034.0,0.025
1033.0,0.0249
1032.0,0.0249
1031.0,0.0249
1030.0,0.0249
1029.0,0.0249
1028.0,0.025
1027.0,0.0251
1026.0,0.0252
1025.0,0.0252
1024.0,0.0253
1023.0,0.0253
1022.0,0.0253
1021.0,0.0253
1020.0,0.0252
1019.0,0.0252
1018.0,0.0252
1017.0,0.0252
1016.0,0.0252
1015.0,0.0252
1014.0,0.0252
1013.0,0.0251
1012.0,0.0252
1011.0,0.0253
1010.0,0.0255
1009.0,0.0257
1008.0,0.026
1007.0,0.0263
1006.0,0.0268
1005.0,0.0274
1004.0,0.0281
1003.0,0.0293
1002.0,0.031
1001.0,0.0332
1000.0,0.0358
999.0,0.0381
998.0,0.0394
997.0,0.0395
996.0,0.0383
995.0,0.0364
994.0,0.0342
993.0,0.0323
992.0,0.0308
991.0,0.0297
990.0,0.0289
989.0,0.0284
988.0,0.028
987.0,0.0277
986.0,0.0276
985.0,0.0276
984.0,0.0277
983.0,0.028
982.0,0.0284
981.0,0.0291
980.0,0.0301
979.0,0.0315
978.0,0.0333
977.0,0.0357
976.0,0.0383
975.0,0.041
974.0,0.0431
973.0,0.0442
972.0,0.0439
971.0,0.0424
970.0,0.04
969.0,0.0375
968.0,0.0353
967.0,0.0335
966.0,0.0322
965.0,0.0312
964.0,0.0304
963.0,0.0299
962.0,0.0295
961.0,0.0291
960.0,0.0288
959.0,0.0285
958.0,0.0282
957.0,0.0281
956.0,0.028
955.0,0.0279
954.0,0.0279
953.0,0.0278
952.0,0.0278
951.0,0.0277
950.0,0.0277
949.0,0.0277
948.0,0.0277
947.0,0.0278
946.0,0.0279
945.0,0.028
944.0,0.0281
943.0,0.0283
942.0,0.0285
941.0,0.0286
940.0,0.0287
939.0,0.0287
938.0,0.0285
937.0,0.0283
936.0,0.0281
935.0,0.0279
934.0,0.0277
933.0,0.0275
932.0,0.0275
931.0,0.0274
930.0,0.0275
929.0,0.0276
928.0,0.0276
927.0,0.0276
926.0,0.0276
925.0,0.0276
924.0,0.0277
923.0,0.0277
922.0,0.0278
921.0,0.0278
920.0,0.0279
919.0,0.0279
918.0,0.028
917.0,0.0281
916.0,0.0281
915.0,0.0282
914.0,0.0283
913.0,0.0283
912.0,0.0284
911.0,0.0284
910.0,0.0285
909.0,0.0286
908.0,0.0288
907.0,0.0291
906.0,0.0296
905.0,0.0301
904.0,0.0309
903.0,0.0318
902.0,0.0329
901.0,0.034
900.0,0.0348
899.0,0.0352
898.0,0.035
897.0,0.0345
896.0,0.0338
895.0,0.0331
894.0,0.0325
893.0,0.032
892.0,0.0316
891.0,0.0313
890.0,0.0311
889.0,0.031
888.0,0.0309
887.0,0.0308
886.0,0.0308
885.0,0.0308
884.0,0.0308
883.0,0.0309
882.0,0.0309
881.0,0.0309
880.0,0.0309
879.0,0.031
878.0,0.0313
877.0,0.0316
876.0,0.0318
875.0,0.032
874.0,0.032
873.0,0.0319
872.0,0.0317
871.0,0.0316
870.0,0.0316
869.0,0.0317
868.0,0.0318
867.0,0.0318
866.0,0.0317
865.0,0.0316
864.0,0.0316
863.0,0.0317
862.0,0.0318
861.0,0.032
860.0,0.0322
859.0,0.0322
858.0,0.0322
857.0,0.032
856.0,0.0319
855.0,0.0319
854.0,0.032
853.0,0.0322
852.0,0.0326
851.0,0.0329
850.0,0.0332
849.0,0.0335
848.0,0.0339
847.0,0.0344
846.0,0.0354
845.0,0.0369
844.0,0.0393
843.0,0.0423
842.0,0.0451
841.0,0.0464
840.0,0.0458
839.0,0.0437
838.0,0.0412
837.0,0.0392
836.0,0.0379
835.0,0.0372
834.0,0.0368
833.0,0.0365
832.0,0.0362
831.0,0.0359
830.0,0.0357
829.0,0.0356
828.0,0.0356
827.0,0.0355
826.0,0.0354
825.0,0.0352
824.0,0.0352
823.0,0.0353
822.0,0.0354
821.0,0.0354
820.0,0.0354
819.0,0.0353
818.0,0.0354
817.0,0.0356
816.0,0.036
815.0,0.0367
814.0,0.0376
813.0,0.0386
812.0,0.0395
811.0,0.0403
810.0,0.0408
809.0,0.041
808.0,0.0411
807.0,0.0408
806.0,0.0403
805.0,0.0397
804.0,0.0391
803.0,0.0385
802.0,0.0381
801.0,0.0378
800.0,0.0376
799.0,0.0374
798.0,0.0373
797.0,0.0372
796.0,0.0371
795.0,0.037
794.0,0.037
793.0,0.0371
792.0,0.0372
791.0,0.0372
790.0,0.0372
789.0,0.0371
788.0,0.0369
787.0,0.0366
786.0,0.0364
785.0,0.0362
784.0,0.0362
783.0,0.0362
782.0,0.0363
781.0,0.0364
780.0,0.0365
779.0,0.0364
778.0,0.0364
777.0,0.0365
776.0,0.0366
775.0,0.0366
774.0,0.0367
773.0,0.0369
772.0,0.0371
771.0,0.0372
770.0,0.0371
769.0,0.0371
768.0,0.0373
767.0,0.0375
766.0,0.0376
765.0,0.0376
764.0,0.0377
763.0,0.0379
762.0,0.0382
761.0,0.0383
760.0,0.0383
759.0,0.0382
758.0,0.0381
757.0,0.0381
756.0,0.0382
755.0,0.0385
754.0,0.0388
753.0,0.0391
752.0,0.0392
751.0,0.0393
750.0,0.0393
749.0,0.0393
748.0,0.0395
747.0,0.0398
746.0,0.0399
745.0,0.0399
744.0,0.0398
743.0,0.0398
742.0,0.0398
741.0,0.0399
740.0,0.0399
739.0,0.0398
738.0,0.0398
737.0,0.0399
736.0,0.0402
735.0,0.0407
734.0,0.0413
733.0,0.042
732.0,0.0428
731.0,0.0434
730.0,0.0438
729.0,0.0439
728.0,0.044
727.0,0.044
726.0,0.044
725.0,0.044
724.0,0.0442
723.0,0.0445
722.0,0.0451
721.0,0.0457
720.0,0.0461
719.0,0.0461
718.0,0.0457
717.0,0.0453
716.0,0.045
715.0,0.0447
714.0,0.0442
713.0,0.0438
712.0,0.0436
711.0,0.0436
710.0,0.0437
709.0,0.0437
708.0,0.0438
707.0,0.0439
706.0,0.0442
705.0,0.0449
704.0,0.0461
703.0,0.0474
702.0,0.0486
701.0,0.0496
700.0,0.0503
699.0,0.0507
698.0,0.0507
697.0,0.0502
696.0,0.0494
695.0,0.0482
694.0,0.047
693.0,0.0461
692.0,0.0453
691.0,0.0445
690.0,0.044
689.0,0.0439
688.0,0.0442
687.0,0.0446
686.0,0.0447
685.0,0.0446
684.0,0.0444
683.0,0.0441
682.0,0.0437
681.0,0.0435
680.0,0.0437
679.0,0.0442
678.0,0.0447
677.0,0.045
676.0,0.0449
675.0,0.0447
674.0,0.0448
673.0,0.0453
672.0,0.0459
671.0,0.0459
670.0,0.045
669.0,0.0436
668.0,0.0426
667.0,0.0428
666.0,0.0436
665.0,0.0441
664.0,0.044
663.0,0.0439
662.0,0.0439
661.0,0.044
660.0,0.044
659.0,0.0438
658.0,0.0433
657.0,0.0428
656.0,0.0426
655.0,0.0429
654.0,0.0436
653.0,0.0441
652.0,0.0441
651.0,0.0435
650.0,0.0429
649.0,0.0426
648.0,0.0426
647.0,0.0428
646.0,0.043
645.0,0.0434
644.0,0.0439
643.0,0.0441
642.0,0.0439
641.0,0.0438
640.0,0.0443
639.0,0.0452
638.0,0.0461
637.0,0.0469
636.0,0.0477
635.0,0.0483
634.0,0.0483
633.0,0.0475
632.0,0.0461
631.0,0.0448
630.0,0.0443
629.0,0.0445
628.0,0.0448
627.0,0.0449
626.0,0.0449
625.0,0.0449
624.0,0.0451
623.0,0.0453
622.0,0.0456
621.0,0.046
620.0,0.0463
619.0,0.0461
618.0,0.0454
617.0,0.0448
616.0,0.0448
615.0,0.0452
614.0,0.0459
613.0,0.0468
612.0,0.0479
611.0,0.0488
610.0,0.049
609.0,0.0486
608.0,0.0476
607.0,0.0466
606.0,0.046
605.0,0.0463
604.0,0.047
603.0,0.0474
602.0,0.047
601.0,0.0464
600.0,0.0464
