nm,Intensity
528.635,1837.3
528.719,1837.2
528.803,1838.4
528.887,1836.4
528.972,1839.2
529.056,1838.8
529.14,1838.8
529.224,1837.6
529.308,1837.7
529.393,1838.4
529.477,1839.3
529.561,1839.0
529.645,1839.7
529.73,1837.7
529.814,1837.9
529.898,1839.6
529.982,1837.4
530.066,1837.5
530.151,1837.8
530.235,1837.1
530.319,1837.9
530.403,1837.5
530.487,1837.7
530.572,1836.3
530.656,1838.0
530.74,1838.6
530.824,1838.4
530.908,1839.1
530.993,1837.7
531.077,1841.1
531.161,1839.7
531.245,1842.3
531.329,1842.4
531.414,1842.5
531.498,1848.2
531.582,1854.6
531.666,1892.2
531.75,2020.9
531.835,2527.6
531.919,3484.0
532.003,4378.1
532.087,5275.7
532.171,4898.3
532.255,3121.7
532.34,2125.0
532.424,1866.9
532.508,1841.4
532.592,1840.5
532.676,1839.4
532.76,1839.2
532.845,1838.8
532.929,1840.2
533.013,1838.3
533.097,1838.7
533.181,1839.4
533.265,1842.1
533.35,1841.2
533.434,1846.8
533.518,1858.6
533.602,1897.5
533.686,1974.0
533.77,2056.4
533.854,2158.6
533.939,2239.2
534.023,2267.8
534.107,2279.0
534.191,2292.1
534.275,2264.1
534.359,2269.8
534.443,2271.5
534.528,2273.9
534.612,2297.3
534.696,2294.9
534.78,2300.5
534.864,2309.5
534.948,2309.0
535.032,2290.0
535.117,2261.7
535.201,2242.7
535.285,2215.4
535.369,2194.6
535.453,2168.8
535.537,2137.0
535.621,2116.9
535.705,2110.5
535.79,2090.6
535.874,2080.7
535.958,2052.6
536.042,2053.3
536.126,2060.6
536.21,2055.1
536.294,2048.6
536.378,2034.8
536.462,2046.4
536.546,2048.7
536.631,2051.5
536.715,2040.5
536.799,2038.7
536.883,2034.1
536.967,2034.7
537.051,2032.6
537.135,2035.9
537.219,2027.8
537.303,2029.4
537.387,2032.9
537.472,2032.1
537.556,2034.5
537.64,2025.3
537.724,2033.7
537.808,2033.1
537.892,2036.4
537.976,2029.0
538.06,2027.4
538.144,2024.8
538.228,2024.6
538.312,2014.2
538.396,2016.7
538.48,2008.7
538.565,2007.8
538.649,2013.5
538.733,2009.0
538.817,1984.8
538.901,2006.5
538.985,1994.5
539.069,1997.6
539.153,2000.1
539.237,2004.6
539.321,1996.0
539.405,1990.1
539.489,1989.8
539.573,1981.4
539.657,1989.1
539.741,1983.7
539.825,1984.8
539.909,1982.2
539.993,1980.4
540.077,1985.0
540.161,1982.9
540.246,1977.6
540.33,1973.0
540.414,1977.0
540.498,1982.0
540.582,1977.2
540.666,1984.9
540.75,1981.1
540.834,1968.7
540.918,1974.1
541.002,1987.2
541.086,1975.4
541.17,1974.0
541.254,1975.3
541.338,1970.4
541.422,1966.1
541.506,1970.2
541.59,1979.5
541.674,1974.9
541.758,1976.8
541.842,1973.7
541.926,1982.3
542.01,1979.9
542.094,1974.3
542.178,1979.2
542.262,1986.2
542.346,1977.5
542.43,1977.6
542.514,1977.0
542.598,1970.8
542.682,1971.4
542.766,1958.9
542.85,1965.4
542.934,1980.2
543.018,1980.5
543.102,1975.9
543.186,1978.4
543.27,1980.0
543.354,1978.8
543.438,1971.4
543.522,1969.2
543.606,1978.3
543.69,1966.4
543.774,1966.3
543.858,1973.6
543.942,1971.9
544.026,1974.8
544.11,1971.1
544.194,1970.4
544.278,1972.5
544.362,1980.5
544.445,1984.9
544.529,1978.6
544.613,1973.8
544.697,1973.5
544.781,1977.2
544.865,1976.7
544.949,1973.6
545.033,1963.8
545.117,1970.5
545.201,1972.6
545.285,1971.7
545.369,1968.2
545.453,1971.4
545.537,1976.2
545.621,1965.2
545.705,1980.1
545.789,1969.3
545.873,1980.3
545.957,1978.4
546.04,1976.9
546.124,1978.7
546.208,1974.2
546.292,1971.9
546.376,1973.9
546.46,1979.1
546.544,1973.4
546.628,1972.0
546.712,1981.0
546.796,1979.7
546.88,1983.9
546.964,1979.9
547.048,1977.2
547.131,1980.7
547.215,1966.4
547.299,1978.7
547.383,1991.7
547.467,1986.6
547.551,1981.1
547.635,1972.9
547.719,1977.3
547.803,1979.9
547.887,1993.5
547.97,1990.2
548.054,1983.6
548.138,1983.4
548.222,1985.5
548.306,1982.3
548.39,1981.5
548.474,1984.5
548.558,1980.5
548.642,1975.4
548.725,1981.8
548.809,1976.4
548.893,1983.8
548.977,1977.9
549.061,1982.1
549.145,1978.4
549.229,1983.0
549.313,1980.7
549.396,1978.6
549.48,1976.5
549.564,1990.2
549.648,1993.6
549.732,1982.2
549.816,1979.5
549.9,1972.5
549.983,1980.5
550.067,1988.4
550.151,1984.2
550.235,1980.4
550.319,1981.6
550.403,1990.8
550.487,1984.5
550.57,1993.4
550.654,1990.3
550.738,1982.2
550.822,1987.7
550.906,1997.1
550.99,1986.8
551.074,1992.5
551.157,1985.1
551.241,1988.9
551.325,1994.8
551.409,1992.7
551.493,1998.0
551.576,1989.5
551.66,1998.9
551.744,1993.7
551.828,1997.1
551.912,1983.6
551.996,1985.1
552.079,1993.0
552.163,1985.6
552.247,1994.5
552.331,1991.6
552.415,1986.8
552.499,1989.6
552.582,1997.9
552.666,1991.0
552.75,1987.8
552.834,1995.1
552.918,1990.9
553.001,1995.5
553.085,2007.0
553.169,1995.5
553.253,2008.2
553.337,2016.4
553.42,2011.0
553.504,2017.4
553.588,2008.4
553.672,2002.9
553.755,2009.1
553.839,2002.9
553.923,2006.6
554.007,2018.4
554.091,2008.0
554.174,2013.5
554.258,2008.5
554.342,2014.8
554.426,2020.3
554.509,2030.4
554.593,2013.3
554.677,2024.1
554.761,2012.8
554.845,2018.9
554.928,2025.8
555.012,2020.9
555.096,2021.4
555.18,2011.7
555.263,2017.6
555.347,2018.3
555.431,2020.6
555.515,2029.2
555.598,2027.6
555.682,2026.9
555.766,2036.3
555.85,2033.7
555.933,2035.0
556.017,2035.1
556.101,2030.9
556.185,2025.9
556.268,2035.0
556.352,2037.9
556.436,2033.8
556.52,2030.0
556.603,2046.4
556.687,2048.0
556.771,2030.5
556.854,2041.3
556.938,2045.4
557.022,2054.0
557.106,2059.6
557.189,2053.7
557.273,2068.1
557.357,2078.0
557.44,2066.2
557.524,2078.4
557.608,2078.4
557.692,2071.1
557.775,2082.4
557.859,2079.2
557.943,2076.2
558.026,2079.3
558.11,2078.9
558.194,2086.2
558.278,2090.9
558.361,2096.9
558.445,2093.1
558.529,2091.9
558.612,2093.4
558.696,2079.6
558.78,2075.8
558.863,2073.9
558.947,2069.1
559.031,2068.2
559.114,2073.2
559.198,2079.6
559.282,2071.9
559.365,2067.3
559.449,2067.8
559.533,2065.0
559.616,2062.0
559.7,2063.6
559.784,2071.2
559.867,2066.1
559.951,2067.8
560.035,2054.9
560.118,2060.3
560.202,2056.4
560.286,2062.0
560.369,2057.9
560.453,2058.4
560.537,2065.5
560.62,2065.9
560.704,2054.8
560.788,2063.1
560.871,2066.5
560.955,2055.6
561.039,2063.3
561.122,2055.0
561.206,2060.2
561.29,2062.4
561.373,2070.8
561.457,2077.9
561.54,2073.7
561.624,2065.8
561.708,2082.7
561.791,2072.6
561.875,2082.1
561.959,2082.3
562.042,2084.8
562.126,2105.1
562.209,2078.9
562.293,2090.4
562.377,2106.2
562.46,2093.4
562.544,2105.0
562.628,2102.5
562.711,2097.2
562.795,2103.0
562.878,2102.5
562.962,2121.7
563.046,2114.3
563.129,2108.9
563.213,2121.4
563.296,2132.2
563.38,2139.4
563.464,2157.3
563.547,2204.8
563.631,2286.6
563.714,2424.8
563.798,2676.7
563.881,2922.9
563.965,3141.8
564.049,3140.3
564.132,2923.6
564.216,2658.5
564.299,2417.8
564.383,2318.4
564.467,2285.4
564.55,2280.5
564.634,2272.5
564.717,2268.1
564.801,2261.8
564.884,2229.7
564.968,2221.4
565.052,2207.8
565.135,2203.4
565.219,2188.4
565.302,2178.8
565.386,2198.3
565.469,2223.1
565.553,2217.8
565.636,2265.4
565.72,2322.2
565.803,2444.4
565.887,2653.2
565.971,2965.2
566.054,3302.9
566.138,3552.4
566.221,3470.4
566.305,3107.4
566.388,2691.6
566.472,2406.3
566.555,2259.8
566.639,2200.7
566.722,2179.7
566.806,2166.3
566.889,2179.7
566.973,2177.8
567.056,2166.0
567.14,2201.6
567.224,2211.3
567.307,2254.2
567.391,2280.7
567.474,2283.1
567.558,2262.9
567.641,2203.4
567.725,2149.8
567.808,2134.1
567.892,2131.4
567.975,2128.6
568.059,2112.5
568.142,2117.0
568.226,2106.4
568.309,2105.7
568.393,2102.4
568.476,2112.4
568.56,2102.3
568.643,2106.7
568.727,2099.3
568.81,2105.7
568.893,2100.0
568.977,2115.1
569.06,2112.3
569.144,2119.7
569.227,2112.1
569.311,2120.8
569.394,2106.7
569.478,2125.7
569.561,2135.5
569.645,2121.1
569.728,2114.5
569.812,2114.9
569.895,2112.0
569.979,2123.1
570.062,2133.5
570.145,2123.4
570.229,2136.3
570.312,2163.3
570.396,2157.2
570.479,2176.3
570.563,2182.6
570.646,2214.8
570.73,2217.6
570.813,2204.9
570.897,2218.1
570.98,2220.9
571.063,2253.2
571.147,2352.2
571.23,2533.7
571.314,2911.1
571.397,3393.5
571.481,3838.2
571.564,3972.4
571.647,3611.2
571.731,3018.3
571.814,2644.6
571.898,2433.2
571.981,2347.6
572.064,2313.8
572.148,2256.2
572.231,2244.0
572.315,2224.2
572.398,2191.4
572.482,2172.7
572.565,2158.1
572.648,2154.7
572.732,2138.7
572.815,2127.4
572.899,2130.5
572.982,2118.5
573.065,2131.5
573.149,2126.6
573.232,2130.3
573.315,2120.9
573.399,2126.7
573.482,2124.2
573.566,2127.8
573.649,2158.5
573.732,2173.0
573.816,2203.0
573.899,2229.3
573.983,2227.8
574.066,2188.4
574.149,2159.6
574.233,2132.4
574.316,2116.1
574.399,2107.0
574.483,2114.9
574.566,2108.2
574.649,2114.2
574.733,2126.2
574.816,2131.4
574.9,2127.1
574.983,2120.9
575.066,2167.1
575.15,2216.7
575.233,2354.7
575.316,2552.9
575.4,2815.8
575.483,3036.9
575.566,3094.6
575.65,2948.3
575.733,2757.1
575.816,2640.8
575.9,2654.6
575.983,2760.1
576.066,2923.8
576.15,3110.2
576.233,3273.7
576.316,3307.2
576.4,3210.8
576.483,3060.3
576.566,2953.9
576.65,2890.3
576.733,2833.9
576.816,2830.8
576.899,2823.9
576.983,2830.6
577.066,2822.9
577.149,2753.8
577.233,2662.5
577.316,2563.8
577.399,2480.7
577.483,2380.5
577.566,2322.6
577.649,2283.7
577.732,2256.9
577.816,2220.7
577.899,2195.4
577.982,2194.6
578.066,2177.4
578.149,2178.6
578.232,2172.9
578.315,2172.7
578.399,2173.4
578.482,2177.5
578.565,2160.3
578.649,2154.5
578.732,2160.6
578.815,2170.0
578.898,2165.1
578.982,2169.3
579.065,2167.3
579.148,2148.4
579.231,2154.4
579.315,2137.5
579.398,2140.5
579.481,2143.1
579.564,2151.2
579.648,2133.6
579.731,2129.9
579.814,2136.2
579.897,2135.1
579.981,2133.3
580.064,2131.5
580.147,2125.1
580.23,2133.0
580.314,2135.9
580.397,2134.4
580.48,2137.6
580.563,2134.0
580.647,2137.6
580.73,2129.1
580.813,2134.0
580.896,2127.9
580.979,2138.2
581.063,2135.7
581.146,2120.5
581.229,2123.0
581.312,2124.0
581.396,2123.9
581.479,2114.5
581.562,2138.4
581.645,2141.7
581.728,2123.6
581.812,2129.0
581.895,2139.3
581.978,2127.5
582.061,2120.4
582.144,2129.7
582.228,2109.8
582.311,2114.8
582.394,2120.3
582.477,2111.5
582.56,2126.0
582.643,2124.5
582.727,2128.9
582.81,2129.5
582.893,2122.7
582.976,2125.9
583.059,2121.6
583.143,2123.7
583.226,2108.1
583.309,2127.0
583.392,2122.5
583.475,2126.6
583.558,2134.6
583.642,2132.2
583.725,2127.6
583.808,2143.3
583.891,2120.0
583.974,2135.6
584.057,2124.6
584.14,2123.9
584.224,2122.0
584.307,2135.4
584.39,2130.8
584.473,2121.3
584.556,2145.4
584.639,2143.7
584.722,2134.6
584.806,2142.9
584.889,2136.5
584.972,2129.8
585.055,2130.7
585.138,2144.4
585.221,2142.2
585.304,2138.8
585.387,2136.9
585.471,2153.2
585.554,2153.1
585.637,2158.3
585.72,2145.4
585.803,2148.8
585.886,2148.8
585.969,2145.8
586.052,2161.2
586.135,2166.3
586.219,2170.5
586.302,2161.4
586.385,2162.3
586.468,2171.7
586.551,2180.0
586.634,2198.2
586.717,2194.0
586.8,2184.6
586.883,2194.5
586.966,2167.7
587.049,2184.2
587.133,2186.0
587.216,2192.7
587.299,2196.2
587.382,2196.2
587.465,2205.6
587.548,2203.8
587.631,2215.4
587.714,2207.7
587.797,2202.9
587.88,2203.0
587.963,2214.6
588.046,2211.8
588.129,2238.7
588.212,2231.3
588.295,2220.0
588.379,2240.0
588.462,2230.4
588.545,2234.0
588.628,2240.5
588.711,2256.2
588.794,2269.4
588.877,2251.9
588.96,2248.8
589.043,2246.9
589.126,2255.4
589.209,2244.0
589.292,2259.6
589.375,2262.8
589.458,2275.3
589.541,2276.7
589.624,2269.9
589.707,2290.8
589.79,2267.2
589.873,2249.6
589.956,2260.5
590.039,2272.7
590.122,2291.0
590.205,2291.2
590.288,2289.7
590.371,2288.8
590.454,2315.4
590.537,2294.3
590.62,2280.5
590.703,2298.7
590.786,2317.6
590.869,2328.3
590.952,2318.4
591.035,2288.9
591.118,2315.2
591.201,2321.9
591.284,2318.6
591.367,2315.8
591.45,2337.7
591.533,2313.0
591.616,2336.4
591.699,2346.3
591.782,2342.2
591.865,2330.6
591.948,2333.4
592.031,2345.7
592.114,2330.4
592.197,2335.1
592.28,2344.2
592.363,2337.7
592.446,2346.5
592.529,2353.0
592.612,2351.8
592.695,2343.9
592.778,2353.5
592.86,2346.2
592.943,2326.1
593.026,2341.0
593.109,2347.3
593.192,2351.0
593.275,2344.5
593.358,2359.0
593.441,2356.2
593.524,2327.9
593.607,2319.0
593.69,2342.8
593.773,2348.8
593.856,2320.4
593.939,2330.2
594.022,2360.9
594.104,2357.3
594.187,2359.3
594.27,2326.4
594.353,2321.7
594.436,2327.3
594.519,2330.6
594.602,2334.3
594.685,2340.9
594.768,2340.0
594.851,2359.4
594.934,2327.2
595.016,2332.5
595.099,2344.7
595.182,2340.7
595.265,2312.4
595.348,2322.9
595.431,2328.4
595.514,2347.8
595.597,2328.6
595.679,2354.1
595.762,2356.1
595.845,2360.6
595.928,2372.0
596.011,2363.4
596.094,2346.7
596.177,2333.4
596.26,2336.8
596.342,2357.7
596.425,2356.0
596.508,2364.1
596.591,2350.6
596.674,2342.4
596.757,2342.1
596.84,2330.3
596.922,2327.6
597.005,2338.7
597.088,2357.2
597.171,2364.0
597.254,2363.9
597.337,2355.7
597.42,2351.1
597.502,2346.6
597.585,2347.5
597.668,2345.8
597.751,2329.1
597.834,2343.1
597.917,2356.3
597.999,2372.4
598.082,2348.1
598.165,2356.5
598.248,2361.5
598.331,2358.8
598.413,2348.0
598.496,2341.0
598.579,2348.2
598.662,2382.1
598.745,2367.1
598.827,2369.2
598.91,2365.1
598.993,2383.0
599.076,2387.8
599.159,2373.2
599.241,2400.0
599.324,2387.0
599.407,2384.2
599.49,2385.4
599.573,2388.8
599.655,2387.5
599.738,2388.3
599.821,2394.3
599.904,2421.6
599.987,2412.3
600.069,2386.0
600.152,2393.2
600.235,2394.4
600.318,2397.0
600.4,2401.1
600.483,2394.1
600.566,2393.7
600.649,2387.6
600.731,2396.4
600.814,2405.8
600.897,2411.5
600.98,2406.2
601.062,2400.4
601.145,2411.6
601.228,2411.8
601.311,2426.7
601.393,2429.9
601.476,2408.9
601.559,2415.1
601.642,2429.2
601.724,2434.9
601.807,2416.9
601.89,2436.9
601.973,2454.6
602.055,2447.0
602.138,2458.6
602.221,2479.9
602.303,2451.8
602.386,2444.3
602.469,2412.8
602.552,2425.6
602.634,2444.1
602.717,2420.1
602.8,2418.0
602.882,2425.1
602.965,2430.5
603.048,2427.9
603.13,2417.0
603.213,2427.5
603.296,2432.7
603.379,2418.0
603.461,2421.8
603.544,2416.6
603.627,2421.5
603.709,2441.7
603.792,2440.8
603.875,2420.5
603.957,2442.4
604.04,2440.5
604.123,2424.1
604.205,2429.4
604.288,2440.8
604.371,2416.1
604.453,2430.0
604.536,2415.1
604.619,2401.5
604.701,2406.8
604.784,2419.7
604.867,2413.7
604.949,2411.4
605.032,2429.1
605.115,2413.1
605.197,2412.0
605.28,2428.8
605.363,2416.5
605.445,2407.8
605.528,2412.0
605.61,2410.7
605.693,2411.3
605.776,2408.8
605.858,2393.9
605.941,2395.0
606.024,2401.7
606.106,2399.3
606.189,2405.1
606.272,2390.0
606.354,2384.6
606.437,2406.1
606.519,2382.4
606.602,2384.0
606.685,2392.3
606.767,2390.6
606.85,2387.1
606.932,2387.3
607.015,2389.2
607.098,2389.4
607.18,2392.6
607.263,2361.2
607.345,2364.3
607.428,2374.5
607.511,2377.2
607.593,2386.8
607.676,2365.5
607.758,2364.5
607.841,2381.1
607.923,2367.5
608.006,2355.1
608.089,2373.0
608.171,2359.6
608.254,2368.9
608.336,2358.2
608.419,2343.4
608.501,2358.4
608.584,2373.1
608.667,2376.0
608.749,2361.0
608.832,2382.9
608.914,2380.9
608.997,2371.8
609.079,2367.8
609.162,2357.6
609.244,2372.8
609.327,2359.5
609.41,2337.9
609.492,2344.9
609.575,2357.5
609.657,2353.0
609.74,2353.7
609.822,2352.4
609.905,2355.2
609.987,2364.8
610.07,2363.4
610.152,2355.3
610.235,2360.6
610.317,2380.5
610.4,2369.7
610.482,2375.6
610.565,2371.4
610.647,2374.0
610.73,2372.8
610.812,2358.6
610.895,2384.7
610.977,2384.5
611.06,2394.7
611.142,2396.0
611.225,2377.2
611.307,2376.7
611.39,2376.9
611.472,2370.3
611.555,2378.5
611.637,2356.0
611.72,2368.3
611.802,2354.4
611.885,2349.2
611.967,2351.3
612.05,2376.3
612.132,2355.2
612.215,2338.4
612.297,2345.2
612.38,2356.3
612.462,2347.3
612.545,2343.0
612.627,2336.8
612.709,2320.8
612.792,2340.4
612.874,2350.0
612.957,2344.8
613.039,2345.9
613.122,2348.2
613.204,2341.6
613.287,2331.0
613.369,2339.9
613.451,2361.1
613.534,2340.7
613.616,2334.4
613.699,2346.5
613.781,2339.8
613.864,2331.8
613.946,2334.5
614.028,2327.0
614.111,2334.5
614.193,2342.5
614.276,2334.9
614.358,2364.5
614.441,2344.6
614.523,2328.3
614.605,2332.5
614.688,2333.3
614.77,2339.8
614.853,2346.6
614.935,2345.0
615.017,2348.9
615.1,2323.4
615.182,2333.8
615.265,2333.1
615.347,2337.2
615.429,2339.2
615.512,2345.9
615.594,2361.6
615.676,2345.4
615.759,2351.7
615.841,2344.8
615.924,2344.6
616.006,2344.0
616.088,2345.5
616.171,2361.3
616.253,2352.6
616.335,2353.0
616.418,2347.8
616.5,2346.5
616.582,2367.5
616.665,2378.3
616.747,2388.0
616.829,2371.7
616.912,2380.7
616.994,2393.6
617.077,2395.8
617.159,2399.1
617.241,2392.6
617.324,2410.7
617.406,2400.0
617.488,2392.5
617.571,2409.1
617.653,2428.3
617.735,2432.5
617.818,2429.7
617.9,2416.3
617.982,2415.5
618.064,2390.0
618.147,2388.5
618.229,2394.3
618.311,2392.8
618.394,2390.8
618.476,2393.7
618.558,2400.0
618.641,2401.4
618.723,2361.9
618.805,2399.8
618.887,2417.7
618.97,2401.8
619.052,2389.4
619.134,2397.7
619.217,2404.6
619.299,2420.2
619.381,2439.5
619.463,2428.8
619.546,2451.9
619.628,2457.2
619.71,2439.2
619.793,2419.0
619.875,2422.0
619.957,2426.7
620.039,2413.1
620.122,2408.9
620.204,2413.2
620.286,2422.2
620.368,2407.1
620.451,2399.0
620.533,2425.4
620.615,2425.4
620.697,2443.8
620.78,2442.2
620.862,2463.3
620.944,2468.5
621.026,2469.7
621.109,2466.0
621.191,2486.6
621.273,2538.9
621.355,2555.9
621.438,2581.1
621.52,2620.5
621.602,2640.1
621.684,2683.2
621.766,2713.4
621.849,2766.4
621.931,2789.8
622.013,2852.0
622.095,2885.7
622.177,2879.1
622.26,2872.8
622.342,2846.0
622.424,2830.6
622.506,2795.2
622.588,2732.1
622.671,2659.9
622.753,2599.3
622.835,2566.0
622.917,2538.2
622.999,2494.4
623.082,2482.3
623.164,2443.9
623.246,2431.8
623.328,2427.8
623.41,2398.4
623.492,2398.5
623.575,2408.8
623.657,2394.5
623.739,2390.8
623.821,2390.7
623.903,2376.1
623.985,2382.9
624.068,2379.5
624.15,2379.4
624.232,2376.1
624.314,2382.7
624.396,2385.1
624.478,2388.2
624.56,2397.9
624.643,2395.5
624.725,2400.8
624.807,2390.9
624.889,2399.0
624.971,2391.2
625.053,2402.2
625.135,2400.8
625.218,2403.3
625.3,2406.1
625.382,2433.2
625.464,2451.8
625.546,2443.9
625.628,2462.7
625.71,2488.6
625.792,2513.4
625.874,2553.0
625.957,2578.0
626.039,2608.2
626.121,2698.0
626.203,2742.9
626.285,2880.4
626.367,3095.2
626.449,3348.8
626.531,3721.0
626.613,4264.7
626.695,4937.2
626.777,5869.6
626.86,6869.9
626.942,7950.0
627.024,8902.2
627.106,9579.3
627.188,9789.0
627.27,9575.0
627.352,9147.0
627.434,8526.4
627.516,7993.5
627.598,7535.3
627.68,7057.3
627.762,6860.3
627.844,6790.8
627.926,6660.9
628.008,6614.2
628.09,6901.9
628.172,7228.5
628.255,7908.6
628.337,8854.4
628.419,9608.3
628.501,9919.7
628.583,9520.1
628.665,8434.7
628.747,7331.5
628.829,6631.3
628.911,6223.8
628.993,6075.7
629.075,6030.3
629.157,5791.4
629.239,5598.4
629.321,5544.3
629.403,5478.2
629.485,5300.2
629.567,5063.3
629.649,4902.3
629.731,4732.4
629.813,4535.9
629.895,4472.8
629.977,4490.2
630.059,4441.0
630.141,4376.5
630.223,4354.8
630.305,4319.0
630.387,4200.7
630.469,4174.4
630.551,4069.8
630.633,3893.2
630.715,3719.4
630.797,3556.3
630.879,3387.1
630.961,3190.1
631.043,3016.7
631.124,2853.4
631.206,2761.8
631.288,2677.6
631.37,2596.9
631.452,2544.8
631.534,2498.2
631.616,2477.9
631.698,2459.8
631.78,2434.1
631.862,2415.6
631.944,2397.1
632.026,2392.2
632.108,2383.8
632.19,2349.3
632.272,2364.3
632.354,2353.7
632.436,2331.2
632.517,2326.5
632.599,2318.1
632.681,2318.5
632.763,2312.3
632.845,2294.2
632.927,2302.5
633.009,2300.8
633.091,2283.1
633.173,2276.7
633.255,2277.5
633.337,2292.3
633.418,2269.1
633.5,2281.0
633.582,2266.8
633.664,2251.8
633.746,2245.3
633.828,2236.0
633.91,2243.1
633.992,2246.6
634.074,2225.4
634.155,2230.4
634.237,2231.9
634.319,2229.5
634.401,2215.1
634.483,2213.5
634.565,2214.4
634.647,2221.0
634.728,2207.4
634.81,2208.6
634.892,2207.4
634.974,2212.6
635.056,2198.3
635.138,2193.0
635.22,2188.9
635.301,2187.8
635.383,2191.5
635.465,2175.0
635.547,2181.9
635.629,2170.4
635.711,2166.7
635.792,2188.1
635.874,2185.1
635.956,2178.3
636.038,2174.3
636.12,2183.7
636.202,2188.3
636.283,2182.8
636.365,2191.9
636.447,2170.1
636.529,2178.5
636.611,2187.3
636.692,2177.8
636.774,2158.4
636.856,2139.7
636.938,2152.6
637.02,2161.6
637.101,2144.6
637.183,2145.3
637.265,2139.9
637.347,2145.6
637.429,2141.2
637.51,2136.5
637.592,2134.4
637.674,2117.2
637.756,2124.7
637.837,2128.9
637.919,2137.7
638.001,2135.0
638.083,2130.4
638.164,2111.8
638.246,2123.3
638.328,2134.6
638.41,2137.0
638.491,2129.8
638.573,2120.0
638.655,2122.8
638.737,2113.1
638.818,2119.2
638.9,2125.5
638.982,2128.4
639.064,2120.5
639.145,2108.1
639.227,2121.4
639.309,2107.4
639.391,2117.7
639.472,2108.2
639.554,2129.3
639.636,2117.8
639.717,2116.5
639.799,2103.0
639.881,2109.9
639.963,2120.8
640.044,2105.7
640.126,2119.7
640.208,2129.8
640.289,2122.2
640.371,2117.3
640.453,2117.8
640.534,2113.3
640.616,2111.9
640.698,2110.7
640.78,2110.0
640.861,2107.5
640.943,2115.7
641.025,2113.5
641.106,2102.7
641.188,2115.3
641.27,2115.1
641.351,2107.5
641.433,2102.1
641.515,2094.2
641.596,2095.3
641.678,2116.9
641.76,2110.0
641.841,2105.4
641.923,2109.8
642.005,2118.0
642.086,2113.7
642.168,2109.7
642.249,2109.0
642.331,2104.6
642.413,2103.5
642.494,2110.4
642.576,2104.1
642.658,2102.6
642.739,2109.2
642.821,2110.7
642.903,2106.2
642.984,2091.7
643.066,2104.8
643.147,2096.5
643.229,2106.6
643.311,2098.2
643.392,2104.7
643.474,2116.4
643.555,2101.8
643.637,2102.4
643.719,2110.7
643.8,2117.5
643.882,2118.6
643.963,2111.5
644.045,2098.5
644.127,2102.3
644.208,2112.6
644.29,2100.7
644.371,2106.6
644.453,2102.3
644.534,2095.3
644.616,2094.9
644.698,2103.2
644.779,2098.6
644.861,2099.8
644.942,2111.2
645.024,2107.9
645.105,2093.8
645.187,2102.3
645.269,2083.5
645.35,2102.6
645.432,2105.5
645.513,2104.4
645.595,2107.0
645.676,2097.2
645.758,2090.4
645.839,2095.6
645.921,2093.9
646.002,2092.1
646.084,2086.2
646.165,2108.6
646.247,2092.2
646.329,2095.6
646.41,2089.4
646.492,2083.2
646.573,2090.5
646.655,2093.5
646.736,2085.8
646.818,2087.2
646.899,2087.2
646.981,2079.9
647.062,2089.2
647.144,2094.8
647.225,2092.3
647.307,2092.4
647.388,2094.9
647.47,2095.0
647.551,2077.6
647.633,2101.6
647.714,2096.3
647.796,2080.6
647.877,2095.3
647.958,2096.0
648.04,2093.7
648.121,2079.4
648.203,2094.2
648.284,2084.9
648.366,2087.7
648.447,2090.1
648.529,2081.7
648.61,2079.2
648.692,2085.3
648.773,2078.4
648.855,2075.0
648.936,2066.6
649.017,2074.7
649.099,2073.3
649.18,2075.6
649.262,2085.5
649.343,2075.4
649.425,2066.8
649.506,2065.2
649.587,2069.1
649.669,2077.5
649.75,2077.8
649.832,2073.5
649.913,2074.8
649.995,2073.2
650.076,2079.1
650.157,2067.1
650.239,2068.1
650.32,2063.3
650.402,2068.0
650.483,2067.1
650.564,2080.3
650.646,2075.5
650.727,2072.3
650.809,2056.7
650.89,2056.6
650.971,2060.8
651.053,2066.0
651.134,2068.3
651.215,2063.9
651.297,2071.1
651.378,2049.7
651.46,2066.9
651.541,2058.0
651.622,2075.0
651.704,2062.7
651.785,2058.2
651.866,2061.8
651.948,2060.9
652.029,2051.8
652.11,2056.5
652.192,2059.4
652.273,2052.6
652.354,2049.2
652.436,2058.5
652.517,2072.2
652.598,2059.9
652.68,2064.6
652.761,2059.7
652.842,2061.9
652.924,2054.2
653.005,2056.6
653.086,2052.6
653.168,2066.5
653.249,2069.6
653.33,2052.3
653.412,2056.4
653.493,2057.5
653.574,2052.3
653.656,2053.6
653.737,2034.7
653.818,2043.6
653.899,2063.5
653.981,2056.6
654.062,2059.8
654.143,2052.9
654.225,2048.6
654.306,2039.7
654.387,2066.2
654.468,2056.8
654.55,2038.4
654.631,2063.1
654.712,2055.8
654.794,2053.0
654.875,2048.0
654.956,2059.0
655.037,2061.3
655.119,2051.9
655.2,2049.9
655.281,2054.5
655.362,2060.6
655.444,2045.5
655.525,2036.3
655.606,2032.6
655.687,2042.1
655.769,2048.6
655.85,2047.4
655.931,2051.7
656.012,2051.1
656.093,2037.5
656.175,2047.0
656.256,2052.4
656.337,2040.7
656.418,2049.2
656.5,2047.0
656.581,2039.7
656.662,2042.7
656.743,2051.7
656.824,2042.9
656.906,2046.4
656.987,2038.1
657.068,2047.1
657.149,2040.9
657.23,2051.9
657.312,2035.0
657.393,2049.1
657.474,2040.5
657.555,2039.7
657.636,2031.0
657.718,2034.3
657.799,2039.6
657.88,2045.7
657.961,2047.2
658.042,2044.2
658.123,2030.2
658.205,2025.9
658.286,2033.9
658.367,2029.8
658.448,2023.5
658.529,2012.8
658.61,2031.2
658.691,2025.2
658.773,2041.2
658.854,2035.8
658.935,2032.9
659.016,2038.7
659.097,2031.9
659.178,2027.5
659.259,2025.6
659.341,2032.9
659.422,2022.6
659.503,2025.1
659.584,2031.6
659.665,2028.7
659.746,2035.0
659.827,2039.5
659.908,2036.9
659.989,2033.0
660.071,2052.1
660.152,2045.0
660.233,2038.1
660.314,2022.7
660.395,2029.1
660.476,2021.2
660.557,2009.1
660.638,2032.6
660.719,2027.0
660.8,2024.5
660.881,2029.1
660.963,2028.6
661.044,2025.6
