cm-1,A
4000.0,0.0071
3999.0,0.007
3998.0,0.007
3997.0,0.007
3996.0,0.0071
3995.0,0.0072
3994.0,0.0072
3993.0,0.0073
3992.0,0.0073
3991.0,0.0073
3990.0,0.0073
3989.0,0.0073
3988.0,0.0073
3987.0,0.0073
3986.0,0.0073
3985.0,0.0073
3984.0,0.0073
3983.0,0.0074
3982.0,0.0074
3981.0,0.0074
3980.0,0.0074
3979.0,0.0074
3978.0,0.0074
3977.0,0.0074
3976.0,0.0074
3975.0,0.0074
3974.0,0.0073
3973.0,0.0072
3972.0,0.0072
3971.0,0.0072
3970.0,0.0071
3969.0,0.0071
3968.0,0.007
3967.0,0.007
3966.0,0.0071
3965.0,0.0071
3964.0,0.0072
3963.0,0.0072
3962.0,0.0072
3961.0,0.0072
3960.0,0.0072
3959.0,0.0073
3958.0,0.0074
3957.0,0.0075
3956.0,0.0075
3955.0,0.0074
3954.0,0.0073
3953.0,0.0072
3952.0,0.0072
3951.0,0.0072
3950.0,0.0073
3949.0,0.0074
3948.0,0.0074
3947.0,0.0075
3946.0,0.0075
3945.0,0.0075
3944.0,0.0074
3943.0,0.0073
3942.0,0.0072
3941.0,0.0072
3940.0,0.0073
3939.0,0.0074
3938.0,0.0075
3937.0,0.0075
3936.0,0.0075
3935.0,0.0074
3934.0,0.0074
3933.0,0.0073
3932.0,0.0072
3931.0,0.0072
3930.0,0.0073
3929.0,0.0074
3928.0,0.0075
3927.0,0.0075
3926.0,0.0074
3925.0,0.0073
3924.0,0.0072
3923.0,0.0073
3922.0,0.0075
3921.0,0.0076
3920.0,0.0077
3919.0,0.0078
3918.0,0.0078
3917.0,0.0077
3916.0,0.0076
3915.0,0.0074
3914.0,0.0073
3913.0,0.0072
3912.0,0.0072
3911.0,0.0073
3910.0,0.0073
3909.0,0.0074
3908.0,0.0074
3907.0,0.0073
3906.0,0.0073
3905.0,0.0073
3904.0,0.0074
3903.0,0.0075
3902.0,0.0077
3901.0,0.0078
3900.0,0.0078
3899.0,0.0078
3898.0,0.0078
3897.0,0.0077
3896.0,0.0077
3895.0,0.0075
3894.0,0.0074
3893.0,0.0073
3892.0,0.0073
3891.0,0.0073
3890.0,0.0075
3889.0,0.0077
3888.0,0.0077
3887.0,0.0076
3886.0,0.0075
3885.0,0.0076
3884.0,0.0077
3883.0,0.0078
3882.0,0.0077
3881.0,0.0075
3880.0,0.0073
3879.0,0.0073
3878.0,0.0074
3877.0,0.0074
3876.0,0.0073
3875.0,0.0072
3874.0,0.0073
3873.0,0.0074
3872.0,0.0076
3871.0,0.0076
3870.0,0.0076
3869.0,0.0076
3868.0,0.0076
3867.0,0.0076
3866.0,0.0075
3865.0,0.0075
3864.0,0.0075
3863.0,0.0075
3862.0,0.0075
3861.0,0.0075
3860.0,0.0075
3859.0,0.0076
3858.0,0.0076
3857.0,0.0076
3856.0,0.0076
3855.0,0.0077
3854.0,0.0078
3853.0,0.0077
3852.0,0.0077
3851.0,0.0078
3850.0,0.0078
3849.0,0.0078
3848.0,0.0078
3847.0,0.0077
3846.0,0.0077
3845.0,0.0076
3844.0,0.0076
3843.0,0.0076
3842.0,0.0076
3841.0,0.0076
3840.0,0.0074
3839.0,0.0073
3838.0,0.0072
3837.0,0.0073
3836.0,0.0075
3835.0,0.0076
3834.0,0.0077
3833.0,0.0076
3832.0,0.0075
3831.0,0.0074
3830.0,0.0075
3829.0,0.0075
3828.0,0.0075
3827.0,0.0076
3826.0,0.0076
3825.0,0.0078
3824.0,0.0078
3823.0,0.0079
3822.0,0.0079
3821.0,0.0079
3820.0,0.0081
3819.0,0.0082
3818.0,0.0081
3817.0,0.0079
3816.0,0.0076
3815.0,0.0075
3814.0,0.0076
3813.0,0.0077
3812.0,0.0079
3811.0,0.008
3810.0,0.0082
3809.0,0.0083
3808.0,0.0081
3807.0,0.0079
3806.0,0.0079
3805.0,0.0079
3804.0,0.0079
3803.0,0.0078
3802.0,0.0076
3801.0,0.0075
3800.0,0.0076
3799.0,0.0077
3798.0,0.0078
3797.0,0.0078
3796.0,0.0079
3795.0,0.008
3794.0,0.0081
3793.0,0.008
3792.0,0.008
3791.0,0.0079
3790.0,0.0079
3789.0,0.0078
3788.0,0.0078
3787.0,0.0078
3786.0,0.0077
3785.0,0.0077
3784.0,0.0078
3783.0,0.0079
3782.0,0.0079
3781.0,0.0078
3780.0,0.0077
3779.0,0.0077
3778.0,0.0078
3777.0,0.0079
3776.0,0.008
3775.0,0.008
3774.0,0.008
3773.0,0.008
3772.0,0.0078
3771.0,0.0078
3770.0,0.0078
3769.0,0.008
3768.0,0.0081
3767.0,0.0081
3766.0,0.008
3765.0,0.008
3764.0,0.008
3763.0,0.0081
3762.0,0.0081
3761.0,0.008
3760.0,0.008
3759.0,0.0079
3758.0,0.0079
3757.0,0.0079
3756.0,0.0079
3755.0,0.008
3754.0,0.0081
3753.0,0.0082
3752.0,0.0084
3751.0,0.0084
3750.0,0.0082
3749.0,0.0082
3748.0,0.0083
3747.0,0.0084
3746.0,0.0084
3745.0,0.0083
3744.0,0.0083
3743.0,0.0085
3742.0,0.0085
3741.0,0.0084
3740.0,0.0082
3739.0,0.0082
3738.0,0.0083
3737.0,0.0084
3736.0,0.0084
3735.0,0.0084
3734.0,0.0083
3733.0,0.0081
3732.0,0.0081
3731.0,0.0081
3730.0,0.0082
3729.0,0.0083
3728.0,0.0083
3727.0,0.0082
3726.0,0.0081
3725.0,0.0081
3724.0,0.0081
3723.0,0.0081
3722.0,0.0082
3721.0,0.0082
3720.0,0.0083
3719.0,0.0082
3718.0,0.0082
3717.0,0.0083
3716.0,0.0083
3715.0,0.0083
3714.0,0.0083
3713.0,0.0083
3712.0,0.0084
3711.0,0.0084
3710.0,0.0084
3709.0,0.0084
3708.0,0.0084
3707.0,0.0084
3706.0,0.0084
3705.0,0.0084
3704.0,0.0083
3703.0,0.0082
3702.0,0.008
3701.0,0.0079
3700.0,0.0079
3699.0,0.008
3698.0,0.0081
3697.0,0.0081
3696.0,0.0081
3695.0,0.0081
3694.0,0.008
3693.0,0.008
3692.0,0.0081
3691.0,0.0082
3690.0,0.0083
3689.0,0.0083
3688.0,0.0083
3687.0,0.0084
3686.0,0.0084
3685.0,0.0084
3684.0,0.0083
3683.0,0.0083
3682.0,0.0082
3681.0,0.0082
3680.0,0.008
3679.0,0.008
3678.0,0.0081
3677.0,0.0082
3676.0,0.0082
3675.0,0.0082
3674.0,0.0082
3673.0,0.0083
3672.0,0.0082
3671.0,0.0081
3670.0,0.0082
3669.0,0.0083
3668.0,0.0085
3667.0,0.0086
3666.0,0.0086
3665.0,0.0085
3664.0,0.0085
3663.0,0.0085
3662.0,0.0085
3661.0,0.0085
3660.0,0.0085
3659.0,0.0085
3658.0,0.0085
3657.0,0.0085
3656.0,0.0085
3655.0,0.0086
3654.0,0.0086
3653.0,0.0086
3652.0,0.0086
3651.0,0.0086
3650.0,0.0087
3649.0,0.0086
3648.0,0.0084
3647.0,0.0085
3646.0,0.0088
3645.0,0.009
3644.0,0.0091
3643.0,0.0091
3642.0,0.009
3641.0,0.0089
3640.0,0.0088
3639.0,0.0087
3638.0,0.0087
3637.0,0.0088
3636.0,0.0088
3635.0,0.0089
3634.0,0.009
3633.0,0.0091
3632.0,0.0093
3631.0,0.0094
3630.0,0.0094
3629.0,0.0095
3628.0,0.0095
3627.0,0.0095
3626.0,0.0094
3625.0,0.0093
3624.0,0.0092
3623.0,0.0092
3622.0,0.0091
3621.0,0.009
3620.0,0.0089
3619.0,0.0089
3618.0,0.009
3617.0,0.0091
3616.0,0.0092
3615.0,0.0093
3614.0,0.0095
3613.0,0.0096
3612.0,0.0097
3611.0,0.0098
3610.0,0.0098
3609.0,0.0098
3608.0,0.0098
3607.0,0.0097
3606.0,0.0097
3605.0,0.0096
3604.0,0.0096
3603.0,0.0096
3602.0,0.0096
3601.0,0.0097
3600.0,0.0098
3599.0,0.0099
3598.0,0.01
3597.0,0.01
3596.0,0.0099
3595.0,0.0099
3594.0,0.01
3593.0,0.0102
3592.0,0.0104
3591.0,0.0105
3590.0,0.0106
3589.0,0.0107
3588.0,0.0107
3587.0,0.0108
3586.0,0.0108
3585.0,0.0107
3584.0,0.0106
3583.0,0.0105
3582.0,0.0103
3581.0,0.0103
3580.0,0.0103
3579.0,0.0104
3578.0,0.0105
3577.0,0.0106
3576.0,0.0106
3575.0,0.0106
3574.0,0.0106
3573.0,0.0107
3572.0,0.0107
3571.0,0.0107
3570.0,0.0107
3569.0,0.0106
3568.0,0.0107
3567.0,0.0107
3566.0,0.0108
3565.0,0.0108
3564.0,0.0108
3563.0,0.0107
3562.0,0.0107
3561.0,0.0108
3560.0,0.0109
3559.0,0.0109
3558.0,0.011
3557.0,0.0111
3556.0,0.0112
3555.0,0.0114
3554.0,0.0115
3553.0,0.0115
3552.0,0.0115
3551.0,0.0114
3550.0,0.0114
3549.0,0.0114
3548.0,0.0115
3547.0,0.0116
3546.0,0.0116
3545.0,0.0117
3544.0,0.0116
3543.0,0.0116
3542.0,0.0116
3541.0,0.0116
3540.0,0.0116
3539.0,0.0115
3538.0,0.0115
3537.0,0.0116
3536.0,0.0116
3535.0,0.0117
3534.0,0.0118
3533.0,0.0118
3532.0,0.0118
3531.0,0.0117
3530.0,0.0116
3529.0,0.0116
3528.0,0.0118
3527.0,0.0119
3526.0,0.0121
3525.0,0.0122
3524.0,0.0122
3523.0,0.0122
3522.0,0.0122
3521.0,0.0122
3520.0,0.0123
3519.0,0.0123
3518.0,0.0123
3517.0,0.0123
3516.0,0.0123
3515.0,0.0123
3514.0,0.0123
3513.0,0.0123
3512.0,0.0123
3511.0,0.0123
3510.0,0.0124
3509.0,0.0124
3508.0,0.0124
3507.0,0.0124
3506.0,0.0124
3505.0,0.0124
3504.0,0.0124
3503.0,0.0124
3502.0,0.0124
3501.0,0.0124
3500.0,0.0124
3499.0,0.0125
3498.0,0.0125
3497.0,0.0126
3496.0,0.0127
3495.0,0.0127
3494.0,0.0128
3493.0,0.0128
3492.0,0.0129
3491.0,0.0131
3490.0,0.0132
3489.0,0.0132
3488.0,0.0132
3487.0,0.013
3486.0,0.013
3485.0,0.0129
3484.0,0.013
3483.0,0.013
3482.0,0.0131
3481.0,0.0132
3480.0,0.0132
3479.0,0.0132
3478.0,0.0133
3477.0,0.0134
3476.0,0.0135
3475.0,0.0135
3474.0,0.0136
3473.0,0.0136
3472.0,0.0136
3471.0,0.0135
3470.0,0.0135
3469.0,0.0135
3468.0,0.0134
3467.0,0.0134
3466.0,0.0135
3465.0,0.0136
3464.0,0.0137
3463.0,0.0137
3462.0,0.0137
3461.0,0.0136
3460.0,0.0136
3459.0,0.0136
3458.0,0.0136
3457.0,0.0135
3456.0,0.0136
3455.0,0.0136
3454.0,0.0136
3453.0,0.0136
3452.0,0.0135
3451.0,0.0136
3450.0,0.0136
3449.0,0.0137
3448.0,0.0137
3447.0,0.0138
3446.0,0.0138
3445.0,0.0139
3444.0,0.014
3443.0,0.0142
3442.0,0.0142
3441.0,0.0143
3440.0,0.0143
3439.0,0.0144
3438.0,0.0144
3437.0,0.0144
3436.0,0.0143
3435.0,0.0143
3434.0,0.0142
3433.0,0.0142
3432.0,0.0142
3431.0,0.0142
3430.0,0.0143
3429.0,0.0143
3428.0,0.0143
3427.0,0.0143
3426.0,0.0143
3425.0,0.0143
3424.0,0.0143
3423.0,0.0143
3422.0,0.0143
3421.0,0.0143
3420.0,0.0143
3419.0,0.0144
3418.0,0.0144
3417.0,0.0144
3416.0,0.0144
3415.0,0.0144
3414.0,0.0144
3413.0,0.0146
3412.0,0.0148
3411.0,0.0148
3410.0,0.0148
3409.0,0.0148
3408.0,0.0147
3407.0,0.0147
3406.0,0.0147
3405.0,0.0147
3404.0,0.0146
3403.0,0.0146
3402.0,0.0145
3401.0,0.0145
3400.0,0.0144
3399.0,0.0144
3398.0,0.0144
3397.0,0.0144
3396.0,0.0143
3395.0,0.0142
3394.0,0.014
3393.0,0.0139
3392.0,0.0139
3391.0,0.014
3390.0,0.014
3389.0,0.014
3388.0,0.014
3387.0,0.014
3386.0,0.014
3385.0,0.014
3384.0,0.014
3383.0,0.0139
3382.0,0.0139
3381.0,0.0138
3380.0,0.0138
3379.0,0.0139
3378.0,0.0139
3377.0,0.0138
3376.0,0.0138
3375.0,0.0139
3374.0,0.0139
3373.0,0.014
3372.0,0.0141
3371.0,0.0141
3370.0,0.0141
3369.0,0.0141
3368.0,0.014
3367.0,0.0139
3366.0,0.0138
3365.0,0.0137
3364.0,0.0137
3363.0,0.0136
3362.0,0.0136
3361.0,0.0136
3360.0,0.0136
3359.0,0.0136
3358.0,0.0135
3357.0,0.0135
3356.0,0.0136
3355.0,0.0135
3354.0,0.0135
3353.0,0.0134
3352.0,0.0134
3351.0,0.0134
3350.0,0.0135
3349.0,0.0135
3348.0,0.0135
3347.0,0.0134
3346.0,0.0132
3345.0,0.0131
3344.0,0.013
3343.0,0.013
3342.0,0.0131
3341.0,0.0131
3340.0,0.0132
3339.0,0.0132
3338.0,0.0131
3337.0,0.0131
3336.0,0.0131
3335.0,0.0131
3334.0,0.0131
3333.0,0.0131
3332.0,0.013
3331.0,0.0129
3330.0,0.0128
3329.0,0.0128
3328.0,0.0128
3327.0,0.0127
3326.0,0.0127
3325.0,0.0126
3324.0,0.0125
3323.0,0.0125
3322.0,0.0126
3321.0,0.0126
3320.0,0.0126
3319.0,0.0126
3318.0,0.0126
3317.0,0.0126
3316.0,0.0126
3315.0,0.0125
3314.0,0.0124
3313.0,0.0123
3312.0,0.0123
3311.0,0.0123
3310.0,0.0124
3309.0,0.0124
3308.0,0.0123
3307.0,0.0122
3306.0,0.012
3305.0,0.0119
3304.0,0.0119
3303.0,0.012
3302.0,0.0121
3301.0,0.0121
3300.0,0.0121
3299.0,0.0121
3298.0,0.0121
3297.0,0.012
3296.0,0.012
3295.0,0.012
3294.0,0.012
3293.0,0.0121
3292.0,0.0121
3291.0,0.0121
3290.0,0.0121
3289.0,0.0121
3288.0,0.012
3287.0,0.012
3286.0,0.0119
3285.0,0.0119
3284.0,0.0119
3283.0,0.0119
3282.0,0.0119
3281.0,0.0119
3280.0,0.0119
3279.0,0.0119
3278.0,0.0119
3277.0,0.0118
3276.0,0.0118
3275.0,0.0117
3274.0,0.0117
3273.0,0.0117
3272.0,0.0117
3271.0,0.0117
3270.0,0.0117
3269.0,0.0117
3268.0,0.0117
3267.0,0.0118
3266.0,0.0118
3265.0,0.0117
3264.0,0.0117
3263.0,0.0117
3262.0,0.0116
3261.0,0.0116
3260.0,0.0115
3259.0,0.0115
3258.0,0.0115
3257.0,0.0115
3256.0,0.0114
3255.0,0.0114
3254.0,0.0114
3253.0,0.0115
3252.0,0.0115
3251.0,0.0115
3250.0,0.0115
3249.0,0.0114
3248.0,0.0113
3247.0,0.0112
3246.0,0.0112
3245.0,0.0113
3244.0,0.0115
3243.0,0.0116
3242.0,0.0115
3241.0,0.0113
3240.0,0.0111
3239.0,0.0109
3238.0,0.0109
3237.0,0.011
3236.0,0.0111
3235.0,0.0112
3234.0,0.0112
3233.0,0.011
3232.0,0.0109
3231.0,0.0109
3230.0,0.0109
3229.0,0.011
3228.0,0.011
3227.0,0.011
3226.0,0.0109
3225.0,0.0109
3224.0,0.0108
3223.0,0.0108
3222.0,0.0109
3221.0,0.0111
3220.0,0.0112
3219.0,0.0112
3218.0,0.0113
3217.0,0.0112
3216.0,0.0112
3215.0,0.0111
3214.0,0.011
3213.0,0.0109
3212.0,0.0109
3211.0,0.0109
3210.0,0.011
3209.0,0.0109
3208.0,0.0108
3207.0,0.0108
3206.0,0.0107
3205.0,0.0108
3204.0,0.0108
3203.0,0.0109
3202.0,0.0109
3201.0,0.011
3200.0,0.011
3199.0,0.011
3198.0,0.011
3197.0,0.0109
3196.0,0.0109
3195.0,0.0109
3194.0,0.011
3193.0,0.0111
3192.0,0.011
3191.0,0.0109
3190.0,0.0108
3189.0,0.0107
3188.0,0.0107
3187.0,0.0107
3186.0,0.0106
3185.0,0.0106
3184.0,0.0106
3183.0,0.0106
3182.0,0.0105
3181.0,0.0105
3180.0,0.0105
3179.0,0.0105
3178.0,0.0105
3177.0,0.0105
3176.0,0.0106
3175.0,0.0106
3174.0,0.0106
3173.0,0.0106
3172.0,0.0105
3171.0,0.0104
3170.0,0.0102
3169.0,0.0101
3168.0,0.01
3167.0,0.01
3166.0,0.0101
3165.0,0.0102
3164.0,0.0102
3163.0,0.0103
3162.0,0.0103
3161.0,0.0102
3160.0,0.0102
3159.0,0.0102
3158.0,0.0101
3157.0,0.01
3156.0,0.01
3155.0,0.01
3154.0,0.01
3153.0,0.01
3152.0,0.0099
3151.0,0.0098
3150.0,0.0097
3149.0,0.0096
3148.0,0.0095
3147.0,0.0094
3146.0,0.0094
3145.0,0.0095
3144.0,0.0096
3143.0,0.0097
3142.0,0.0098
3141.0,0.0098
3140.0,0.0098
3139.0,0.0097
3138.0,0.0096
3137.0,0.0095
3136.0,0.0095
3135.0,0.0094
3134.0,0.0094
3133.0,0.0094
3132.0,0.0094
3131.0,0.0094
3130.0,0.0094
3129.0,0.0093
3128.0,0.0092
3127.0,0.0092
3126.0,0.0092
3125.0,0.0092
3124.0,0.0093
3123.0,0.0093
3122.0,0.0093
3121.0,0.0093
3120.0,0.0092
3119.0,0.0092
3118.0,0.0092
3117.0,0.0092
3116.0,0.0092
3115.0,0.0092
3114.0,0.0091
3113.0,0.009
3112.0,0.0088
3111.0,0.0087
3110.0,0.0087
3109.0,0.0086
3108.0,0.0087
3107.0,0.0087
3106.0,0.0086
3105.0,0.0086
3104.0,0.0087
3103.0,0.0087
3102.0,0.0087
3101.0,0.0087
3100.0,0.0086
3099.0,0.0086
3098.0,0.0086
3097.0,0.0085
3096.0,0.0085
3095.0,0.0084
3094.0,0.0084
3093.0,0.0083
3092.0,0.0082
3091.0,0.0082
3090.0,0.0082
3089.0,0.0082
3088.0,0.0082
3087.0,0.0081
3086.0,0.0081
3085.0,0.0081
3084.0,0.0081
3083.0,0.008
3082.0,0.0079
3081.0,0.0078
3080.0,0.0077
3079.0,0.0076
3078.0,0.0076
3077.0,0.0076
3076.0,0.0076
3075.0,0.0077
3074.0,0.0077
3073.0,0.0077
3072.0,0.0077
3071.0,0.0077
3070.0,0.0077
3069.0,0.0077
3068.0,0.0077
3067.0,0.0076
3066.0,0.0075
3065.0,0.0074
3064.0,0.0074
3063.0,0.0073
3062.0,0.0073
3061.0,0.0073
3060.0,0.0073
3059.0,0.0073
3058.0,0.0073
3057.0,0.0073
3056.0,0.0072
3055.0,0.0072
3054.0,0.0072
3053.0,0.0072
3052.0,0.0072
3051.0,0.0071
3050.0,0.0071
3049.0,0.0071
3048.0,0.007
3047.0,0.0069
3046.0,0.0069
3045.0,0.0069
3044.0,0.0069
3043.0,0.0068
3042.0,0.0068
3041.0,0.0067
3040.0,0.0068
3039.0,0.0068
3038.0,0.0068
3037.0,0.0068
3036.0,0.0067
3035.0,0.0067
3034.0,0.0067
3033.0,0.0066
3032.0,0.0065
3031.0,0.0065
3030.0,0.0064
3029.0,0.0063
3028.0,0.0063
3027.0,0.0062
3026.0,0.0061
3025.0,0.0061
3024.0,0.0061
3023.0,0.0061
3022.0,0.0062
3021.0,0.0063
3020.0,0.0063
3019.0,0.0061
3018.0,0.006
3017.0,0.0059
3016.0,0.0058
3015.0,0.0058
3014.0,0.0058
3013.0,0.0058
3012.0,0.0058
3011.0,0.0058
3010.0,0.0058
3009.0,0.0058
3008.0,0.0058
3007.0,0.0059
3006.0,0.0059
3005.0,0.0059
3004.0,0.0059
3003.0,0.006
3002.0,0.006
3001.0,0.006
3000.0,0.006
2999.0,0.006
2998.0,0.0061
2997.0,0.0061
2996.0,0.0062
2995.0,0.0063
2994.0,0.0064
2993.0,0.0066
2992.0,0.0068
2991.0,0.007
2990.0,0.0073
2989.0,0.0076
2988.0,0.008
2987.0,0.0085
2986.0,0.0091
2985.0,0.0097
2984.0,0.0105
2983.0,0.0113
2982.0,0.0123
2981.0,0.0134
2980.0,0.0147
2979.0,0.0161
2978.0,0.0178
2977.0,0.0198
2976.0,0.022
2975.0,0.0246
2974.0,0.0277
2973.0,0.0312
2972.0,0.0353
2971.0,0.0399
2970.0,0.0449
2969.0,0.0504
2968.0,0.0563
2967.0,0.0626
2966.0,0.0692
2965.0,0.0758
2964.0,0.0821
2963.0,0.0876
2962.0,0.0921
2961.0,0.0953
2960.0,0.0974
2959.0,0.0989
2958.0,0.1001
2957.0,0.1017
2956.0,0.1039
2955.0,0.107
2954.0,0.1109
2953.0,0.1149
2952.0,0.1183
2951.0,0.1204
2950.0,0.1204
2949.0,0.118
2948.0,0.1133
2947.0,0.1067
2946.0,0.0989
2945.0,0.0907
2944.0,0.0829
2943.0,0.0761
2942.0,0.0706
2941.0,0.0664
2940.0,0.0637
2939.0,0.0622
2938.0,0.0619
2937.0,0.0628
2936.0,0.0646
2935.0,0.0673
2934.0,0.0708
2933.0,0.0751
2932.0,0.0801
2931.0,0.0856
2930.0,0.0916
2929.0,0.0976
2928.0,0.1035
2927.0,0.1092
2926.0,0.1146
2925.0,0.1199
2924.0,0.125
2923.0,0.1301
2922.0,0.1351
2921.0,0.1397
2920.0,0.1434
2919.0,0.1459
2918.0,0.1466
2917.0,0.1453
2916.0,0.1424
2915.0,0.1383
2914.0,0.1338
2913.0,0.1294
2912.0,0.1254
2911.0,0.1219
2910.0,0.1189
2909.0,0.1161
2908.0,0.1134
2907.0,0.1107
2906.0,0.1078
2905.0,0.1047
2904.0,0.1015
2903.0,0.0981
2902.0,0.0948
2901.0,0.0914
2900.0,0.0882
2899.0,0.0851
2898.0,0.0821
2897.0,0.0795
2896.0,0.0772
2895.0,0.0752
2894.0,0.0735
2893.0,0.0721
2892.0,0.071
2891.0,0.0704
2890.0,0.0701
2889.0,0.0701
2888.0,0.0701
2887.0,0.0704
2886.0,0.0708
2885.0,0.0714
2884.0,0.0722
2883.0,0.0733
2882.0,0.0746
2881.0,0.0758
2880.0,0.077
2879.0,0.0778
2878.0,0.0782
2877.0,0.0782
2876.0,0.0778
2875.0,0.0773
2874.0,0.0771
2873.0,0.0774
2872.0,0.0781
2871.0,0.0792
2870.0,0.0805
2869.0,0.0816
2868.0,0.0822
2867.0,0.0818
2866.0,0.08
2865.0,0.0767
2864.0,0.0723
2863.0,0.0671
2862.0,0.0619
2861.0,0.0571
2860.0,0.053
2859.0,0.0498
2858.0,0.0472
2857.0,0.0454
2856.0,0.0441
2855.0,0.0433
2854.0,0.0429
2853.0,0.0431
2852.0,0.0437
2851.0,0.0447
2850.0,0.0461
2849.0,0.0479
2848.0,0.0503
2847.0,0.0533
2846.0,0.0569
2845.0,0.061
2844.0,0.0654
2843.0,0.0699
2842.0,0.0743
2841.0,0.0781
2840.0,0.0811
2839.0,0.0828
2838.0,0.083
2837.0,0.0815
2836.0,0.0783
2835.0,0.0739
2834.0,0.0686
2833.0,0.0633
2832.0,0.0582
2831.0,0.0537
2830.0,0.0499
2829.0,0.0467
2828.0,0.044
2827.0,0.0418
2826.0,0.04
2825.0,0.0385
2824.0,0.0372
2823.0,0.0361
2822.0,0.0352
2821.0,0.0343
2820.0,0.0335
2819.0,0.0328
2818.0,0.0321
2817.0,0.0316
2816.0,0.0311
2815.0,0.0306
2814.0,0.0301
2813.0,0.0297
2812.0,0.0293
2811.0,0.0289
2810.0,0.0286
2809.0,0.0283
2808.0,0.0279
2807.0,0.0275
2806.0,0.0271
2805.0,0.0267
2804.0,0.0262
2803.0,0.0258
2802.0,0.0254
2801.0,0.0251
2800.0,0.0248
2799.0,0.0246
2798.0,0.0243
2797.0,0.0241
2796.0,0.0239
2795.0,0.0238
2794.0,0.0237
2793.0,0.0234
2792.0,0.0232
2791.0,0.0229
2790.0,0.0226
2789.0,0.0224
2788.0,0.0222
2787.0,0.0219
2786.0,0.0217
2785.0,0.0215
2784.0,0.0213
2783.0,0.0212
2782.0,0.0211
2781.0,0.0209
2780.0,0.0207
2779.0,0.0205
2778.0,0.0204
2777.0,0.0202
2776.0,0.0201
2775.0,0.0199
2774.0,0.0198
2773.0,0.0198
2772.0,0.0198
2771.0,0.0197
2770.0,0.0197
2769.0,0.0195
2768.0,0.0193
2767.0,0.0192
2766.0,0.019
2765.0,0.0189
2764.0,0.0188
2763.0,0.0188
2762.0,0.0188
2761.0,0.0189
2760.0,0.0189
2759.0,0.0188
2758.0,0.0188
2757.0,0.0187
2756.0,0.0186
2755.0,0.0186
2754.0,0.0185
2753.0,0.0184
2752.0,0.0184
2751.0,0.0183
2750.0,0.0183
2749.0,0.0183
2748.0,0.0182
2747.0,0.0182
2746.0,0.0182
2745.0,0.0182
2744.0,0.0183
2743.0,0.0183
2742.0,0.0183
2741.0,0.0183
2740.0,0.0184
2739.0,0.0184
2738.0,0.0185
2737.0,0.0186
2736.0,0.0186
2735.0,0.0187
2734.0,0.0188
2733.0,0.0188
2732.0,0.0189
2731.0,0.019
2730.0,0.0191
2729.0,0.0193
2728.0,0.0195
2727.0,0.0197
2726.0,0.0198
2725.0,0.0199
2724.0,0.02
2723.0,0.0201
2722.0,0.02
2721.0,0.0199
2720.0,0.0197
2719.0,0.0195
2718.0,0.0193
2717.0,0.0191
2716.0,0.0189
2715.0,0.0188
2714.0,0.0186
2713.0,0.0186
2712.0,0.0185
2711.0,0.0184
2710.0,0.0182
2709.0,0.0181
2708.0,0.018
2707.0,0.0179
2706.0,0.0179
2705.0,0.0178
2704.0,0.0176
2703.0,0.0175
2702.0,0.0174
2701.0,0.0173
2700.0,0.0171
2699.0,0.0171
2698.0,0.017
2697.0,0.017
2696.0,0.017
2695.0,0.017
2694.0,0.017
2693.0,0.0171
2692.0,0.017
2691.0,0.017
2690.0,0.0169
2689.0,0.0169
2688.0,0.0169
2687.0,0.0169
2686.0,0.0169
2685.0,0.0169
2684.0,0.0169
2683.0,0.0169
2682.0,0.0169
2681.0,0.0169
2680.0,0.0168
2679.0,0.0168
2678.0,0.0168
2677.0,0.0168
2676.0,0.0168
2675.0,0.0168
2674.0,0.0168
2673.0,0.0168
2672.0,0.0169
2671.0,0.0169
2670.0,0.0169
2669.0,0.017
2668.0,0.0169
2667.0,0.0168
2666.0,0.0167
2665.0,0.0166
2664.0,0.0166
2663.0,0.0167
2662.0,0.0167
2661.0,0.0167
2660.0,0.0167
2659.0,0.0167
2658.0,0.0167
2657.0,0.0167
2656.0,0.0166
2655.0,0.0165
2654.0,0.0164
2653.0,0.0164
2652.0,0.0163
2651.0,0.0162
2650.0,0.0161
2649.0,0.0161
2648.0,0.016
2647.0,0.016
2646.0,0.016
2645.0,0.016
2644.0,0.016
2643.0,0.0159
2642.0,0.0159
2641.0,0.0159
2640.0,0.0159
2639.0,0.0159
2638.0,0.0159
2637.0,0.0159
2636.0,0.0158
2635.0,0.0157
2634.0,0.0157
2633.0,0.0157
2632.0,0.0158
2631.0,0.0158
2630.0,0.0158
2629.0,0.0158
2628.0,0.0158
2627.0,0.0159
2626.0,0.0159
2625.0,0.0159
2624.0,0.0159
2623.0,0.0159
2622.0,0.0159
2621.0,0.0159
2620.0,0.0159
2619.0,0.0159
2618.0,0.0159
2617.0,0.0159
2616.0,0.016
2615.0,0.016
2614.0,0.016
2613.0,0.0159
2612.0,0.0159
2611.0,0.0158
2610.0,0.0158
2609.0,0.0157
2608.0,0.0156
2607.0,0.0155
2606.0,0.0155
2605.0,0.0155
2604.0,0.0155
2603.0,0.0154
2602.0,0.0154
2601.0,0.0154
2600.0,0.0155
2599.0,0.0155
2598.0,0.0155
2597.0,0.0155
2596.0,0.0155
2595.0,0.0155
2594.0,0.0155
2593.0,0.0155
2592.0,0.0155
2591.0,0.0155
2590.0,0.0155
2589.0,0.0156
2588.0,0.0157
2587.0,0.0158
2586.0,0.0159
2585.0,0.016
2584.0,0.016
2583.0,0.016
2582.0,0.016
2581.0,0.016
2580.0,0.016
2579.0,0.016
2578.0,0.0159
2577.0,0.0158
2576.0,0.0157
2575.0,0.0156
2574.0,0.0156
2573.0,0.0156
2572.0,0.0155
2571.0,0.0155
2570.0,0.0155
2569.0,0.0154
2568.0,0.0154
2567.0,0.0153
2566.0,0.0152
2565.0,0.0152
2564.0,0.0151
2563.0,0.0151
2562.0,0.0151
2561.0,0.0151
2560.0,0.0152
2559.0,0.0152
2558.0,0.0151
2557.0,0.0151
2556.0,0.0151
2555.0,0.015
2554.0,0.015
2553.0,0.015
2552.0,0.015
2551.0,0.015
2550.0,0.0149
2549.0,0.0148
2548.0,0.0148
2547.0,0.0147
2546.0,0.0147
2545.0,0.0147
2544.0,0.0147
2543.0,0.0147
2542.0,0.0147
2541.0,0.0147
2540.0,0.0148
2539.0,0.0148
2538.0,0.0148
2537.0,0.0147
2536.0,0.0147
2535.0,0.0146
2534.0,0.0145
2533.0,0.0146
2532.0,0.0146
2531.0,0.0146
2530.0,0.0146
2529.0,0.0146
2528.0,0.0146
2527.0,0.0146
2526.0,0.0146
2525.0,0.0145
2524.0,0.0144
2523.0,0.0143
2522.0,0.0143
2521.0,0.0143
2520.0,0.0144
2519.0,0.0144
2518.0,0.0143
2517.0,0.0142
2516.0,0.0141
2515.0,0.0141
2514.0,0.0142
2513.0,0.0142
2512.0,0.0142
2511.0,0.0143
2510.0,0.0143
2509.0,0.0143
2508.0,0.0143
2507.0,0.0144
2506.0,0.0144
2505.0,0.0143
2504.0,0.0143
2503.0,0.0143
2502.0,0.0142
2501.0,0.0141
2500.0,0.0141
2499.0,0.014
2498.0,0.014
2497.0,0.014
2496.0,0.014
2495.0,0.014
2494.0,0.014
2493.0,0.0141
2492.0,0.0141
2491.0,0.0141
2490.0,0.0141
2489.0,0.0141
2488.0,0.0141
2487.0,0.0142
2486.0,0.0142
2485.0,0.0143
2484.0,0.0143
2483.0,0.0143
2482.0,0.0143
2481.0,0.0143
2480.0,0.0143
2479.0,0.0142
2478.0,0.0142
2477.0,0.0142
2476.0,0.0142
2475.0,0.0142
2474.0,0.0141
2473.0,0.0141
2472.0,0.0141
2471.0,0.0141
2470.0,0.0141
2469.0,0.0141
2468.0,0.0141
2467.0,0.0141
2466.0,0.014
2465.0,0.014
2464.0,0.014
2463.0,0.0141
2462.0,0.0141
2461.0,0.014
2460.0,0.014
2459.0,0.0139
2458.0,0.0138
2457.0,0.0138
2456.0,0.0138
2455.0,0.0139
2454.0,0.0139
2453.0,0.014
2452.0,0.0141
2451.0,0.0142
2450.0,0.0142
2449.0,0.0141
2448.0,0.0141
2447.0,0.014
2446.0,0.0141
2445.0,0.0141
2444.0,0.0142
2443.0,0.0142
2442.0,0.0142
2441.0,0.0142
2440.0,0.0142
2439.0,0.0142
2438.0,0.0141
2437.0,0.0141
2436.0,0.0141
2435.0,0.0141
2434.0,0.0141
2433.0,0.0141
2432.0,0.0141
2431.0,0.0141
2430.0,0.0141
2429.0,0.0141
2428.0,0.0142
2427.0,0.0142
2426.0,0.0143
2425.0,0.0143
2424.0,0.0144
2423.0,0.0143
2422.0,0.0142
2421.0,0.0142
2420.0,0.0141
2419.0,0.0142
2418.0,0.0142
2417.0,0.0142
2416.0,0.0142
2415.0,0.0142
2414.0,0.0141
2413.0,0.014
2412.0,0.014
2411.0,0.0141
2410.0,0.0141
2409.0,0.0142
2408.0,0.0142
2407.0,0.0142
2406.0,0.0142
2405.0,0.0142
2404.0,0.0142
2403.0,0.0142
2402.0,0.0142
2401.0,0.0141
2400.0,0.0141
2399.0,0.014
2398.0,0.014
2397.0,0.014
2396.0,0.0141
2395.0,0.0141
2394.0,0.0142
2393.0,0.0143
2392.0,0.0143
2391.0,0.0142
2390.0,0.0142
2389.0,0.0142
2388.0,0.0142
2387.0,0.0143
2386.0,0.0144
2385.0,0.0145
2384.0,0.0145
2383.0,0.0143
2382.0,0.0141
2381.0,0.0137
2380.0,0.0133
2379.0,0.0129
2378.0,0.0126
2377.0,0.0125
2376.0,0.0126
2375.0,0.0129
2374.0,0.0132
2373.0,0.0135
2372.0,0.0135
2371.0,0.0134
2370.0,0.0133
2369.0,0.0134
2368.0,0.0139
2367.0,0.0143
2366.0,0.0144
2365.0,0.014
2364.0,0.0135
2363.0,0.013
2362.0,0.0129
2361.0,0.0131
2360.0,0.0133
2359.0,0.0135
2358.0,0.0134
2357.0,0.0131
2356.0,0.0126
2355.0,0.0121
2354.0,0.0119
2353.0,0.0118
2352.0,0.012
2351.0,0.0124
2350.0,0.0129
2349.0,0.013
2348.0,0.0129
2347.0,0.0126
2346.0,0.0127
2345.0,0.0131
2344.0,0.0134
2343.0,0.0134
2342.0,0.013
2341.0,0.0127
2340.0,0.0124
2339.0,0.0124
2338.0,0.0124
2337.0,0.0124
2336.0,0.0122
2335.0,0.0119
2334.0,0.0118
2333.0,0.0119
2332.0,0.0121
2331.0,0.0123
2330.0,0.0125
2329.0,0.0128
2328.0,0.0131
2327.0,0.0132
2326.0,0.0132
2325.0,0.0132
2324.0,0.0131
2323.0,0.0129
2322.0,0.0129
2321.0,0.0131
2320.0,0.0135
2319.0,0.014
2318.0,0.0143
2317.0,0.0144
2316.0,0.0142
2315.0,0.0139
2314.0,0.0137
2313.0,0.0136
2312.0,0.0138
2311.0,0.0139
2310.0,0.0139
2309.0,0.0138
2308.0,0.0138
2307.0,0.0138
2306.0,0.0139
2305.0,0.014
2304.0,0.0142
2303.0,0.0143
2302.0,0.0144
2301.0,0.0144
2300.0,0.0144
2299.0,0.0145
2298.0,0.0145
2297.0,0.0145
2296.0,0.0145
2295.0,0.0145
2294.0,0.0144
2293.0,0.0144
2292.0,0.0143
2291.0,0.0143
2290.0,0.0143
2289.0,0.0144
2288.0,0.0143
2287.0,0.0142
2286.0,0.0141
2285.0,0.0141
2284.0,0.0141
2283.0,0.0141
2282.0,0.0141
2281.0,0.014
2280.0,0.014
2279.0,0.014
2278.0,0.014
2277.0,0.014
2276.0,0.014
2275.0,0.014
2274.0,0.014
2273.0,0.014
2272.0,0.014
2271.0,0.0141
2270.0,0.0141
2269.0,0.0142
2268.0,0.0142
2267.0,0.0142
2266.0,0.0142
2265.0,0.0143
2264.0,0.0143
2263.0,0.0143
2262.0,0.0144
2261.0,0.0143
2260.0,0.0143
2259.0,0.0142
2258.0,0.0142
2257.0,0.0143
2256.0,0.0144
2255.0,0.0144
2254.0,0.0144
2253.0,0.0145
2252.0,0.0145
2251.0,0.0145
2250.0,0.0145
2249.0,0.0144
2248.0,0.0143
2247.0,0.0143
2246.0,0.0142
2245.0,0.0142
2244.0,0.0143
2243.0,0.0143
2242.0,0.0143
2241.0,0.0143
2240.0,0.0144
2239.0,0.0144
2238.0,0.0144
2237.0,0.0143
2236.0,0.0143
2235.0,0.0143
2234.0,0.0143
2233.0,0.0143
2232.0,0.0143
2231.0,0.0143
2230.0,0.0143
2229.0,0.0143
2228.0,0.0144
2227.0,0.0144
2226.0,0.0144
2225.0,0.0144
2224.0,0.0143
2223.0,0.0142
2222.0,0.0142
2221.0,0.0141
2220.0,0.0141
2219.0,0.0141
2218.0,0.0142
2217.0,0.0142
2216.0,0.0143
2215.0,0.0142
2214.0,0.0142
2213.0,0.0142
2212.0,0.0142
2211.0,0.0143
2210.0,0.0143
2209.0,0.0143
2208.0,0.0143
2207.0,0.0143
2206.0,0.0144
2205.0,0.0144
2204.0,0.0144
2203.0,0.0143
2202.0,0.0143
2201.0,0.0142
2200.0,0.0142
2199.0,0.0143
2198.0,0.0143
2197.0,0.0143
2196.0,0.0144
2195.0,0.0145
2194.0,0.0145
2193.0,0.0146
2192.0,0.0146
2191.0,0.0145
2190.0,0.0145
2189.0,0.0144
2188.0,0.0144
2187.0,0.0143
2186.0,0.0143
2185.0,0.0144
2184.0,0.0144
2183.0,0.0145
2182.0,0.0145
2181.0,0.0145
2180.0,0.0145
2179.0,0.0145
2178.0,0.0146
2177.0,0.0146
2176.0,0.0146
2175.0,0.0145
2174.0,0.0145
2173.0,0.0144
2172.0,0.0144
2171.0,0.0145
2170.0,0.0145
2169.0,0.0145
2168.0,0.0145
2167.0,0.0145
2166.0,0.0145
2165.0,0.0145
2164.0,0.0145
2163.0,0.0145
2162.0,0.0145
2161.0,0.0145
2160.0,0.0145
2159.0,0.0144
2158.0,0.0144
2157.0,0.0145
2156.0,0.0145
2155.0,0.0145
2154.0,0.0146
2153.0,0.0145
2152.0,0.0145
2151.0,0.0145
2150.0,0.0145
2149.0,0.0145
2148.0,0.0144
2147.0,0.0144
2146.0,0.0145
2145.0,0.0146
2144.0,0.0146
2143.0,0.0147
2142.0,0.0147
2141.0,0.0147
2140.0,0.0146
2139.0,0.0146
2138.0,0.0146
2137.0,0.0146
2136.0,0.0145
2135.0,0.0145
2134.0,0.0144
2133.0,0.0144
2132.0,0.0144
2131.0,0.0145
2130.0,0.0145
2129.0,0.0146
2128.0,0.0147
2127.0,0.0147
2126.0,0.0147
2125.0,0.0146
2124.0,0.0146
2123.0,0.0146
2122.0,0.0145
2121.0,0.0145
2120.0,0.0145
2119.0,0.0145
2118.0,0.0144
2117.0,0.0145
2116.0,0.0145
2115.0,0.0145
2114.0,0.0145
2113.0,0.0145
2112.0,0.0145
2111.0,0.0146
2110.0,0.0146
2109.0,0.0146
2108.0,0.0145
2107.0,0.0145
2106.0,0.0145
2105.0,0.0145
2104.0,0.0146
2103.0,0.0146
2102.0,0.0145
2101.0,0.0144
2100.0,0.0144
2099.0,0.0143
2098.0,0.0144
2097.0,0.0144
2096.0,0.0145
2095.0,0.0146
2094.0,0.0147
2093.0,0.0147
2092.0,0.0147
2091.0,0.0147
2090.0,0.0146
2089.0,0.0146
2088.0,0.0145
2087.0,0.0145
2086.0,0.0145
2085.0,0.0145
2084.0,0.0145
2083.0,0.0146
2082.0,0.0146
2081.0,0.0146
2080.0,0.0147
2079.0,0.0146
2078.0,0.0146
2077.0,0.0146
2076.0,0.0145
2075.0,0.0144
2074.0,0.0144
2073.0,0.0144
2072.0,0.0145
2071.0,0.0145
2070.0,0.0145
2069.0,0.0145
2068.0,0.0146
2067.0,0.0146
2066.0,0.0146
2065.0,0.0146
2064.0,0.0147
2063.0,0.0146
2062.0,0.0146
2061.0,0.0146
2060.0,0.0146
2059.0,0.0146
2058.0,0.0146
2057.0,0.0146
2056.0,0.0146
2055.0,0.0146
2054.0,0.0146
2053.0,0.0146
2052.0,0.0146
2051.0,0.0146
2050.0,0.0146
2049.0,0.0146
2048.0,0.0146
2047.0,0.0146
2046.0,0.0146
2045.0,0.0146
2044.0,0.0146
2043.0,0.0146
2042.0,0.0147
2041.0,0.0147
2040.0,0.0147
2039.0,0.0147
2038.0,0.0147
2037.0,0.0147
2036.0,0.0147
2035.0,0.0146
2034.0,0.0146
2033.0,0.0146
2032.0,0.0146
2031.0,0.0147
2030.0,0.0147
2029.0,0.0148
2028.0,0.0148
2027.0,0.0149
2026.0,0.0149
2025.0,0.0149
2024.0,0.0149
2023.0,0.0148
2022.0,0.0148
2021.0,0.0148
2020.0,0.0148
2019.0,0.0148
2018.0,0.0148
2017.0,0.0148
2016.0,0.0148
2015.0,0.0148
2014.0,0.0148
2013.0,0.0147
2012.0,0.0147
2011.0,0.0147
2010.0,0.0147
2009.0,0.0147
2008.0,0.0148
2007.0,0.0148
2006.0,0.0149
2005.0,0.0149
2004.0,0.0149
2003.0,0.0149
2002.0,0.0149
2001.0,0.0148
2000.0,0.0148
1999.0,0.0148
1998.0,0.0148
1997.0,0.0148
1996.0,0.0148
1995.0,0.0148
1994.0,0.0149
1993.0,0.0149
1992.0,0.0149
1991.0,0.0149
1990.0,0.0149
1989.0,0.0149
1988.0,0.015
1987.0,0.015
1986.0,0.015
1985.0,0.015
1984.0,0.015
1983.0,0.015
1982.0,0.0149
1981.0,0.0149
1980.0,0.0149
1979.0,0.0149
1978.0,0.0149
1977.0,0.015
1976.0,0.015
1975.0,0.015
1974.0,0.015
1973.0,0.0151
1972.0,0.0151
1971.0,0.0151
1970.0,0.0151
1969.0,0.015
1968.0,0.015
1967.0,0.0149
1966.0,0.015
1965.0,0.0151
1964.0,0.0151
1963.0,0.0152
1962.0,0.0152
1961.0,0.0152
1960.0,0.0151
1959.0,0.0151
1958.0,0.0151
1957.0,0.0151
1956.0,0.0151
1955.0,0.0152
1954.0,0.0152
1953.0,0.0152
1952.0,0.0152
1951.0,0.0151
1950.0,0.0151
1949.0,0.015
1948.0,0.015
1947.0,0.0151
1946.0,0.0151
1945.0,0.0152
1944.0,0.0152
1943.0,0.0152
1942.0,0.0152
1941.0,0.0152
1940.0,0.0152
1939.0,0.0153
1938.0,0.0153
1937.0,0.0153
1936.0,0.0153
1935.0,0.0153
1934.0,0.0154
1933.0,0.0154
1932.0,0.0155
1931.0,0.0155
1930.0,0.0154
1929.0,0.0154
1928.0,0.0153
1927.0,0.0153
1926.0,0.0153
1925.0,0.0154
1924.0,0.0154
1923.0,0.0155
1922.0,0.0155
1921.0,0.0155
1920.0,0.0155
1919.0,0.0156
1918.0,0.0155
1917.0,0.0155
1916.0,0.0155
1915.0,0.0155
1914.0,0.0156
1913.0,0.0156
1912.0,0.0156
1911.0,0.0155
1910.0,0.0155
1909.0,0.0155
1908.0,0.0155
1907.0,0.0155
1906.0,0.0155
1905.0,0.0155
1904.0,0.0155
1903.0,0.0155
1902.0,0.0155
1901.0,0.0155
1900.0,0.0155
1899.0,0.0155
1898.0,0.0155
1897.0,0.0156
1896.0,0.0156
1895.0,0.0156
1894.0,0.0156
1893.0,0.0157
1892.0,0.0157
1891.0,0.0157
1890.0,0.0157
1889.0,0.0157
1888.0,0.0157
1887.0,0.0156
1886.0,0.0156
1885.0,0.0156
1884.0,0.0156
1883.0,0.0156
1882.0,0.0156
1881.0,0.0157
1880.0,0.0157
1879.0,0.0158
1878.0,0.0158
1877.0,0.0158
1876.0,0.0159
1875.0,0.0159
1874.0,0.0159
1873.0,0.0159
1872.0,0.016
1871.0,0.0159
1870.0,0.0159
1869.0,0.0158
1868.0,0.0157
1867.0,0.0157
1866.0,0.0158
1865.0,0.0159
1864.0,0.0159
1863.0,0.016
1862.0,0.016
1861.0,0.016
1860.0,0.016
1859.0,0.016
1858.0,0.016
1857.0,0.016
1856.0,0.0159
1855.0,0.0158
1854.0,0.0158
1853.0,0.0158
1852.0,0.0158
1851.0,0.0158
1850.0,0.0159
1849.0,0.0159
1848.0,0.0159
1847.0,0.0159
1846.0,0.0159
1845.0,0.0159
1844.0,0.0159
1843.0,0.0159
1842.0,0.016
1841.0,0.016
1840.0,0.016
1839.0,0.0161
1838.0,0.0162
1837.0,0.0162
1836.0,0.0161
1835.0,0.0161
1834.0,0.016
1833.0,0.016
1832.0,0.016
1831.0,0.016
1830.0,0.016
1829.0,0.016
1828.0,0.016
1827.0,0.0161
1826.0,0.0162
1825.0,0.0162
1824.0,0.0162
1823.0,0.0161
1822.0,0.0161
1821.0,0.0161
1820.0,0.0161
1819.0,0.0161
1818.0,0.016
1817.0,0.0161
1816.0,0.0161
1815.0,0.0161
1814.0,0.0161
1813.0,0.0162
1812.0,0.0161
1811.0,0.0161
1810.0,0.0161
1809.0,0.0161
1808.0,0.0162
1807.0,0.0162
1806.0,0.0162
1805.0,0.0162
1804.0,0.0162
1803.0,0.0163
1802.0,0.0163
1801.0,0.0163
1800.0,0.0162
1799.0,0.0161
1798.0,0.0161
1797.0,0.0162
1796.0,0.0163
1795.0,0.0163
1794.0,0.0163
1793.0,0.0162
1792.0,0.0162
1791.0,0.0162
1790.0,0.0163
1789.0,0.0163
1788.0,0.0164
1787.0,0.0164
1786.0,0.0165
1785.0,0.0165
1784.0,0.0165
1783.0,0.0164
1782.0,0.0164
1781.0,0.0164
1780.0,0.0164
1779.0,0.0164
1778.0,0.0164
1777.0,0.0164
1776.0,0.0165
1775.0,0.0165
1774.0,0.0165
1773.0,0.0165
1772.0,0.0166
1771.0,0.0165
1770.0,0.0166
1769.0,0.0166
1768.0,0.0167
1767.0,0.0167
1766.0,0.0167
1765.0,0.0167
1764.0,0.0166
1763.0,0.0166
1762.0,0.0166
1761.0,0.0166
1760.0,0.0167
1759.0,0.0167
1758.0,0.0167
1757.0,0.0168
1756.0,0.0169
1755.0,0.017
1754.0,0.0171
1753.0,0.0172
1752.0,0.0172
1751.0,0.0173
1750.0,0.0173
1749.0,0.0174
1748.0,0.0174
1747.0,0.0174
1746.0,0.0174
1745.0,0.0174
1744.0,0.0174
1743.0,0.0174
1742.0,0.0174
1741.0,0.0174
1740.0,0.0174
1739.0,0.0174
1738.0,0.0174
1737.0,0.0174
1736.0,0.0173
1735.0,0.0172
1734.0,0.0173
1733.0,0.0173
1732.0,0.0173
1731.0,0.0173
1730.0,0.0173
1729.0,0.0173
1728.0,0.0173
1727.0,0.0173
1726.0,0.0173
1725.0,0.0173
1724.0,0.0173
1723.0,0.0174
1722.0,0.0173
1721.0,0.0173
1720.0,0.0172
1719.0,0.0172
1718.0,0.0173
1717.0,0.0175
1716.0,0.0176
1715.0,0.0176
1714.0,0.0177
1713.0,0.0177
1712.0,0.0177
1711.0,0.0177
1710.0,0.0177
1709.0,0.0177
1708.0,0.0178
1707.0,0.0178
1706.0,0.0178
1705.0,0.0179
1704.0,0.018
1703.0,0.018
1702.0,0.018
1701.0,0.0181
1700.0,0.0182
1699.0,0.0184
1698.0,0.0185
1697.0,0.0186
1696.0,0.0186
1695.0,0.0186
1694.0,0.0185
1693.0,0.0184
1692.0,0.0184
1691.0,0.0183
1690.0,0.0183
1689.0,0.0184
1688.0,0.0185
1687.0,0.0184
1686.0,0.0183
1685.0,0.0182
1684.0,0.0185
1683.0,0.0187
1682.0,0.0188
1681.0,0.019
1680.0,0.0191
1679.0,0.0191
1678.0,0.0192
1677.0,0.0192
1676.0,0.0193
1675.0,0.0194
1674.0,0.0194
1673.0,0.0193
1672.0,0.0192
1671.0,0.0191
1670.0,0.0191
1669.0,0.0192
1668.0,0.0193
1667.0,0.0194
1666.0,0.0195
1665.0,0.0195
1664.0,0.0195
1663.0,0.0195
1662.0,0.0196
1661.0,0.0196
1660.0,0.0196
1659.0,0.0196
1658.0,0.0197
1657.0,0.0197
1656.0,0.0198
1655.0,0.0198
1654.0,0.0199
1653.0,0.0199
1652.0,0.0198
1651.0,0.0198
1650.0,0.0198
1649.0,0.0198
1648.0,0.0199
1647.0,0.0201
1646.0,0.0202
1645.0,0.0202
1644.0,0.0203
1643.0,0.0204
1642.0,0.0204
1641.0,0.0204
1640.0,0.0204
1639.0,0.0203
1638.0,0.0201
1637.0,0.02
1636.0,0.02
1635.0,0.0199
1634.0,0.0198
1633.0,0.0198
1632.0,0.0197
1631.0,0.0197
1630.0,0.0196
1629.0,0.0196
1628.0,0.0196
1627.0,0.0197
1626.0,0.0197
1625.0,0.0197
1624.0,0.0198
1623.0,0.0197
1622.0,0.0196
1621.0,0.0195
1620.0,0.0195
1619.0,0.0194
1618.0,0.0193
1617.0,0.0192
1616.0,0.0191
1615.0,0.0191
1614.0,0.0191
1613.0,0.0191
1612.0,0.0192
1611.0,0.0192
1610.0,0.0192
1609.0,0.0192
1608.0,0.0192
1607.0,0.0192
1606.0,0.0192
1605.0,0.0192
1604.0,0.0191
1603.0,0.019
1602.0,0.019
1601.0,0.019
1600.0,0.0189
1599.0,0.0189
1598.0,0.0189
1597.0,0.0189
1596.0,0.019
1595.0,0.019
1594.0,0.019
1593.0,0.019
1592.0,0.0189
1591.0,0.0188
1590.0,0.0189
1589.0,0.0189
1588.0,0.0189
1587.0,0.0188
1586.0,0.0188
1585.0,0.0188
1584.0,0.0188
1583.0,0.0189
1582.0,0.0189
1581.0,0.019
1580.0,0.019
1579.0,0.0189
1578.0,0.0188
1577.0,0.0187
1576.0,0.0187
1575.0,0.0187
1574.0,0.0188
1573.0,0.0188
1572.0,0.0187
1571.0,0.0187
1570.0,0.0187
1569.0,0.0188
1568.0,0.0189
1567.0,0.0189
1566.0,0.0189
1565.0,0.0188
1564.0,0.0188
1563.0,0.0188
1562.0,0.0188
1561.0,0.0187
1560.0,0.0187
1559.0,0.0191
1558.0,0.0191
1557.0,0.019
1556.0,0.0191
1555.0,0.019
1554.0,0.0189
1553.0,0.0188
1552.0,0.0187
1551.0,0.0186
1550.0,0.0187
1549.0,0.0187
1548.0,0.0188
1547.0,0.0187
1546.0,0.0186
1545.0,0.0186
1544.0,0.0187
1543.0,0.0188
1542.0,0.0188
1541.0,0.0189
1540.0,0.0188
1539.0,0.0186
1538.0,0.0185
1537.0,0.0185
1536.0,0.0185
1535.0,0.0185
1534.0,0.0185
1533.0,0.0185
1532.0,0.0185
1531.0,0.0185
1530.0,0.0184
1529.0,0.0183
1528.0,0.0183
1527.0,0.0182
1526.0,0.0182
1525.0,0.0181
1524.0,0.0181
1523.0,0.0182
1522.0,0.0183
1521.0,0.0184
1520.0,0.0184
1519.0,0.0183
1518.0,0.0182
1517.0,0.0182
1516.0,0.0182
1515.0,0.0181
1514.0,0.0181
1513.0,0.0182
1512.0,0.0183
1511.0,0.0182
1510.0,0.0181
1509.0,0.018
1508.0,0.0182
1507.0,0.0183
1506.0,0.018
1505.0,0.018
1504.0,0.0181
1503.0,0.0181
1502.0,0.0181
1501.0,0.0181
1500.0,0.0182
1499.0,0.0181
1498.0,0.0182
1497.0,0.0183
1496.0,0.0185
1495.0,0.0185
1494.0,0.0185
1493.0,0.0185
1492.0,0.0185
1491.0,0.0185
1490.0,0.0186
1489.0,0.0188
1488.0,0.019
1487.0,0.0191
1486.0,0.0192
1485.0,0.0194
1484.0,0.0196
1483.0,0.0199
1482.0,0.0202
1481.0,0.0207
1480.0,0.0212
1479.0,0.0217
1478.0,0.0223
1477.0,0.0232
1476.0,0.0244
1475.0,0.0256
1474.0,0.0276
1473.0,0.0311
1472.0,0.0354
1471.0,0.039
1470.0,0.0421
1469.0,0.0454
1468.0,0.049
1467.0,0.0532
1466.0,0.0586
1465.0,0.065
1464.0,0.0706
1463.0,0.074
1462.0,0.0759
1461.0,0.0773
1460.0,0.0784
1459.0,0.0795
1458.0,0.0818
1457.0,0.0848
1456.0,0.0862
1455.0,0.0861
1454.0,0.0858
1453.0,0.0852
1452.0,0.0844
1451.0,0.0829
1450.0,0.0807
1449.0,0.0773
1448.0,0.0727
1447.0,0.0675
1446.0,0.0628
1445.0,0.0586
1444.0,0.0548
1443.0,0.0516
1442.0,0.0491
1441.0,0.0474
1440.0,0.0462
1439.0,0.0456
1438.0,0.0456
1437.0,0.0459
1436.0,0.0457
1435.0,0.0443
1434.0,0.0423
1433.0,0.0398
1432.0,0.0371
1431.0,0.0347
1430.0,0.0328
1429.0,0.0314
1428.0,0.0303
1427.0,0.0296
1426.0,0.029
1425.0,0.0284
1424.0,0.0279
1423.0,0.0275
1422.0,0.0272
1421.0,0.0269
1420.0,0.0265
1419.0,0.0263
1418.0,0.0262
1417.0,0.0259
1416.0,0.0257
1415.0,0.0255
1414.0,0.0253
1413.0,0.025
1412.0,0.0248
1411.0,0.0246
1410.0,0.0245
1409.0,0.0243
1408.0,0.024
1407.0,0.0239
1406.0,0.0238
1405.0,0.0237
1404.0,0.0236
1403.0,0.0235
1402.0,0.0234
1401.0,0.0232
1400.0,0.023
1399.0,0.023
1398.0,0.0231
1397.0,0.023
1396.0,0.0229
1395.0,0.0229
1394.0,0.023
1393.0,0.023
1392.0,0.0231
1391.0,0.0232
1390.0,0.0236
1389.0,0.0241
1388.0,0.025
1387.0,0.0268
1386.0,0.0292
1385.0,0.0325
1384.0,0.0371
1383.0,0.0439
1382.0,0.0529
1381.0,0.0643
1380.0,0.0784
1379.0,0.0944
1378.0,0.1095
1377.0,0.1203
1376.0,0.1242
1375.0,0.1194
1374.0,0.1077
1373.0,0.094
1372.0,0.0819
1371.0,0.0717
1370.0,0.0629
1369.0,0.0558
1368.0,0.0507
1367.0,0.0474
1366.0,0.0454
1365.0,0.0444
1364.0,0.0443
1363.0,0.045
1362.0,0.0463
1361.0,0.0476
1360.0,0.0485
1359.0,0.0487
1358.0,0.0481
1357.0,0.0467
1356.0,0.0447
1355.0,0.0425
1354.0,0.0403
1353.0,0.0384
1352.0,0.0369
1351.0,0.0356
1350.0,0.0345
1349.0,0.0336
1348.0,0.0328
1347.0,0.0321
1346.0,0.0315
1345.0,0.031
1344.0,0.0306
1343.0,0.0302
1342.0,0.0299
1341.0,0.0297
1340.0,0.0295
1339.0,0.0294
1338.0,0.0293
1337.0,0.0291
1336.0,0.0291
1335.0,0.0291
1334.0,0.0292
1333.0,0.0294
1332.0,0.0297
1331.0,0.0299
1330.0,0.03
1329.0,0.03
1328.0,0.0298
1327.0,0.0296
1326.0,0.0293
1325.0,0.0289
1324.0,0.0286
1323.0,0.0283
1322.0,0.028
1321.0,0.0277
1320.0,0.0276
1319.0,0.0274
1318.0,0.0272
1317.0,0.0271
1316.0,0.0269
1315.0,0.0268
1314.0,0.0267
1313.0,0.0266
1312.0,0.0266
1311.0,0.0267
1310.0,0.0269
1309.0,0.0272
1308.0,0.0278
1307.0,0.0285
1306.0,0.0293
1305.0,0.0299
1304.0,0.0301
1303.0,0.0299
1302.0,0.0295
1301.0,0.0291
1300.0,0.0289
1299.0,0.0289
1298.0,0.0289
1297.0,0.0289
1296.0,0.0289
1295.0,0.0288
1294.0,0.0286
1293.0,0.0284
1292.0,0.0281
1291.0,0.0278
1290.0,0.0275
1289.0,0.0273
1288.0,0.0271
1287.0,0.0269
1286.0,0.0268
1285.0,0.0267
1284.0,0.0266
1283.0,0.0265
1282.0,0.0264
1281.0,0.0263
1280.0,0.0263
1279.0,0.0262
1278.0,0.0261
1277.0,0.026
1276.0,0.026
1275.0,0.026
1274.0,0.0259
1273.0,0.0259
1272.0,0.0259
1271.0,0.0259
1270.0,0.026
1269.0,0.026
1268.0,0.026
1267.0,0.026
1266.0,0.0261
1265.0,0.0262
1264.0,0.0264
1263.0,0.0266
1262.0,0.0268
1261.0,0.0271
1260.0,0.0275
1259.0,0.028
1258.0,0.0286
1257.0,0.0291
1256.0,0.0295
1255.0,0.0294
1254.0,0.0291
1253.0,0.0286
1252.0,0.0281
1251.0,0.0276
1250.0,0.0273
1249.0,0.027
1248.0,0.0268
1247.0,0.0266
1246.0,0.0265
1245.0,0.0263
1244.0,0.0263
1243.0,0.0262
1242.0,0.0262
1241.0,0.0261
1240.0,0.0261
1239.0,0.0261
1238.0,0.0261
1237.0,0.026
1236.0,0.0259
1235.0,0.0259
1234.0,0.026
1233.0,0.026
1232.0,0.026
1231.0,0.0261
1230.0,0.0261
1229.0,0.0262
1228.0,0.0263
1227.0,0.0264
1226.0,0.0265
1225.0,0.0267
1224.0,0.0268
1223.0,0.0271
1222.0,0.0273
1221.0,0.0275
1220.0,0.0276
1219.0,0.0276
1218.0,0.0276
1217.0,0.0275
1216.0,0.0274
1215.0,0.0272
1214.0,0.027
1213.0,0.0269
1212.0,0.0268
1211.0,0.0266
1210.0,0.0265
1209.0,0.0264
1208.0,0.0263
1207.0,0.0262
1206.0,0.0261
1205.0,0.0261
1204.0,0.0261
1203.0,0.0262
1202.0,0.0262
1201.0,0.0262
1200.0,0.0261
1199.0,0.0261
1198.0,0.026
1197.0,0.0259
1196.0,0.0259
1195.0,0.0258
1194.0,0.0259
1193.0,0.0259
1192.0,0.0259
1191.0,0.0258
1190.0,0.0258
1189.0,0.0258
1188.0,0.0259
1187.0,0.0259
1186.0,0.0259
1185.0,0.0259
1184.0,0.026
1183.0,0.0261
1182.0,0.0263
1181.0,0.0264
1180.0,0.0266
1179.0,0.0268
1178.0,0.0272
1177.0,0.0277
1176.0,0.0285
1175.0,0.0296
1174.0,0.031
1173.0,0.033
1172.0,0.0352
1171.0,0.0376
1170.0,0.0399
1169.0,0.0416
1168.0,0.0427
1167.0,0.0429
1166.0,0.0424
1165.0,0.0413
1164.0,0.0401
1163.0,0.0391
1162.0,0.0382
1161.0,0.0374
1160.0,0.0368
1159.0,0.0363
1158.0,0.036
1157.0,0.0357
1156.0,0.0356
1155.0,0.0355
1154.0,0.0354
1153.0,0.0353
1152.0,0.0351
1151.0,0.0347
1150.0,0.0342
1149.0,0.0335
1148.0,0.0329
1147.0,0.0324
1146.0,0.0319
1145.0,0.0314
1144.0,0.031
1143.0,0.0305
1142.0,0.03
1141.0,0.0295
1140.0,0.029
1139.0,0.0287
1138.0,0.0285
1137.0,0.0284
1136.0,0.0282
1135.0,0.028
1134.0,0.0278
1133.0,0.0276
1132.0,0.0276
1131.0,0.0275
1130.0,0.0275
1129.0,0.0275
1128.0,0.0274
1127.0,0.0274
1126.0,0.0273
1125.0,0.0272
1124.0,0.0271
1123.0,0.0271
1122.0,0.0271
1121.0,0.0271
1120.0,0.0272
1119.0,0.0272
1118.0,0.0273
1117.0,0.0273
1116.0,0.0273
1115.0,0.0273
1114.0,0.0273
1113.0,0.0272
1112.0,0.0273
1111.0,0.0274
1110.0,0.0276
1109.0,0.0279
1108.0,0.0282
1107.0,0.0286
1106.0,0.029
1105.0,0.0293
1104.0,0.0296
1103.0,0.0298
1102.0,0.0298
1101.0,0.0297
1100.0,0.0294
1099.0,0.0291
1098.0,0.0287
1097.0,0.0283
1096.0,0.0281
1095.0,0.0279
1094.0,0.0277
1093.0,0.0275
1092.0,0.0273
1091.0,0.0271
1090.0,0.027
1089.0,0.027
1088.0,0.027
1087.0,0.0269
1086.0,0.0268
1085.0,0.0266
1084.0,0.0264
1083.0,0.0263
1082.0,0.0263
1081.0,0.0262
1080.0,0.0262
1079.0,0.0262
1078.0,0.0262
1077.0,0.0261
1076.0,0.0261
1075.0,0.026
1074.0,0.026
1073.0,0.0259
1072.0,0.0259
1071.0,0.0259
1070.0,0.026
1069.0,0.026
1068.0,0.0259
1067.0,0.0258
1066.0,0.0258
1065.0,0.0258
1064.0,0.0259
1063.0,0.0259
1062.0,0.0259
1061.0,0.0258
1060.0,0.0258
1059.0,0.0258
1058.0,0.0259
1057.0,0.026
1056.0,0.026
1055.0,0.0261
1054.0,0.0261
1053.0,0.0261
1052.0,0.0262
1051.0,0.0264
1050.0,0.0265
1049.0,0.0267
1048.0,0.027
1047.0,0.0272
1046.0,0.0274
1045.0,0.0276
1044.0,0.0276
1043.0,0.0274
1042.0,0.0273
1041.0,0.0271
1040.0,0.0271
1039.0,0.027
1038.0,0.0269
1037.0,0.0268
1036.0,0.0267
1035.0,0.0267
1034.0,0.0268
1033.0,0.0268
1032.0,0.0268
1031.0,0.0268
1030.0,0.0268
1029.0,0.0268
1028.0,0.0268
1027.0,0.0268
1026.0,0.0268
1025.0,0.0268
1024.0,0.0268
1023.0,0.0268
1022.0,0.0268
1021.0,0.0269
1020.0,0.027
1019.0,0.0272
1018.0,0.0273
1017.0,0.0273
1016.0,0.0273
1015.0,0.0274
1014.0,0.0275
1013.0,0.0276
1012.0,0.0278
1011.0,0.0279
1010.0,0.0281
1009.0,0.0284
1008.0,0.0288
1007.0,0.0292
1006.0,0.0299
1005.0,0.0308
1004.0,0.032
1003.0,0.0337
1002.0,0.036
1001.0,0.0389
1000.0,0.042
999.0,0.0447
998.0,0.0462
997.0,0.0461
996.0,0.0445
995.0,0.0422
994.0,0.0396
993.0,0.0373
992.0,0.0354
991.0,0.0341
990.0,0.0331
989.0,0.0323
988.0,0.0318
987.0,0.0315
986.0,0.0313
985.0,0.0312
984.0,0.0314
983.0,0.0317
982.0,0.0324
981.0,0.0333
980.0,0.0348
979.0,0.0368
978.0,0.0395
977.0,0.0426
976.0,0.046
975.0,0.0493
974.0,0.0518
973.0,0.053
972.0,0.0524
971.0,0.0502
970.0,0.047
969.0,0.0438
968.0,0.041
967.0,0.0389
966.0,0.0373
965.0,0.0361
964.0,0.0351
963.0,0.0344
962.0,0.0339
961.0,0.0335
960.0,0.0331
959.0,0.0329
958.0,0.0326
957.0,0.0324
956.0,0.0322
955.0,0.032
954.0,0.0319
953.0,0.0318
952.0,0.0317
951.0,0.0317
950.0,0.0317
949.0,0.0318
948.0,0.0318
947.0,0.0318
946.0,0.0319
945.0,0.032
944.0,0.0322
943.0,0.0325
942.0,0.0327
941.0,0.0329
940.0,0.033
939.0,0.0329
938.0,0.0327
937.0,0.0325
936.0,0.0323
935.0,0.0321
934.0,0.032
933.0,0.0319
932.0,0.0317
931.0,0.0315
930.0,0.0314
929.0,0.0313
928.0,0.0313
927.0,0.0313
926.0,0.0314
925.0,0.0315
924.0,0.0316
923.0,0.0317
922.0,0.0318
921.0,0.0317
920.0,0.0316
919.0,0.0315
918.0,0.0316
917.0,0.0317
916.0,0.0319
915.0,0.032
914.0,0.0321
913.0,0.0322
912.0,0.0322
911.0,0.0323
910.0,0.0323
909.0,0.0325
908.0,0.0327
907.0,0.0331
906.0,0.0337
905.0,0.0344
904.0,0.0353
903.0,0.0364
902.0,0.0375
901.0,0.0386
900.0,0.0395
899.0,0.0399
898.0,0.0397
897.0,0.0391
896.0,0.0383
895.0,0.0374
894.0,0.0366
893.0,0.036
892.0,0.0355
891.0,0.0352
890.0,0.0351
889.0,0.0351
888.0,0.0353
887.0,0.0353
886.0,0.0352
885.0,0.035
884.0,0.0347
883.0,0.0345
882.0,0.0345
881.0,0.0346
880.0,0.0348
879.0,0.0349
878.0,0.0349
877.0,0.0348
876.0,0.0347
875.0,0.0348
874.0,0.0348
873.0,0.0349
872.0,0.035
871.0,0.035
870.0,0.0351
869.0,0.0353
868.0,0.0354
867.0,0.0354
866.0,0.0353
865.0,0.0352
864.0,0.0352
863.0,0.0353
862.0,0.0355
861.0,0.0357
860.0,0.0359
859.0,0.0361
858.0,0.0364
857.0,0.0365
856.0,0.0364
855.0,0.0362
854.0,0.036
853.0,0.036
852.0,0.0363
851.0,0.0367
850.0,0.0371
849.0,0.0375
848.0,0.0381
847.0,0.0389
846.0,0.0402
845.0,0.0422
844.0,0.0452
843.0,0.0487
842.0,0.0518
841.0,0.053
840.0,0.052
839.0,0.0494
838.0,0.0463
837.0,0.0438
836.0,0.0422
835.0,0.0413
834.0,0.0407
833.0,0.0403
832.0,0.0399
831.0,0.0397
830.0,0.0395
829.0,0.0393
828.0,0.0391
827.0,0.039
826.0,0.0389
825.0,0.0388
824.0,0.0389
823.0,0.0389
822.0,0.0388
821.0,0.0387
820.0,0.0387
819.0,0.0388
818.0,0.0391
817.0,0.0396
816.0,0.0403
815.0,0.041
814.0,0.0418
813.0,0.0427
812.0,0.0438
811.0,0.0449
810.0,0.0457
809.0,0.0461
808.0,0.0461
807.0,0.0456
806.0,0.0449
805.0,0.0442
804.0,0.0436
803.0,0.043
802.0,0.0426
801.0,0.0421
800.0,0.0417
799.0,0.0413
798.0,0.041
797.0,0.0407
796.0,0.0404
795.0,0.0401
794.0,0.0398
793.0,0.0396
792.0,0.0395
791.0,0.0395
790.0,0.0396
789.0,0.0396
788.0,0.0395
787.0,0.0393
786.0,0.0391
785.0,0.0391
784.0,0.0392
783.0,0.0394
782.0,0.0394
781.0,0.0393
780.0,0.0391
779.0,0.0388
778.0,0.0387
777.0,0.0386
776.0,0.0385
775.0,0.0385
774.0,0.0385
773.0,0.0385
772.0,0.0387
771.0,0.0387
770.0,0.0387
769.0,0.0386
768.0,0.0385
767.0,0.0384
766.0,0.0384
765.0,0.0384
764.0,0.0384
763.0,0.0384
762.0,0.0384
761.0,0.0384
760.0,0.0384
759.0,0.0385
758.0,0.0387
757.0,0.0389
756.0,0.0391
755.0,0.0392
754.0,0.0393
753.0,0.0394
752.0,0.0395
751.0,0.0395
750.0,0.0394
749.0,0.0394
748.0,0.0393
747.0,0.0392
746.0,0.0392
745.0,0.0394
744.0,0.0396
743.0,0.0398
742.0,0.0399
741.0,0.0398
740.0,0.0398
739.0,0.0397
738.0,0.0397
737.0,0.0399
736.0,0.0402
735.0,0.0405
734.0,0.0407
733.0,0.0407
732.0,0.0408
731.0,0.0407
730.0,0.0406
729.0,0.0405
728.0,0.0406
727.0,0.0408
726.0,0.041
725.0,0.0411
724.0,0.0412
723.0,0.0411
722.0,0.0409
721.0,0.0407
720.0,0.0406
719.0,0.0405
718.0,0.0406
717.0,0.0408
716.0,0.0411
715.0,0.0413
714.0,0.0414
713.0,0.0414
712.0,0.0413
711.0,0.0414
710.0,0.0415
709.0,0.0416
708.0,0.0416
707.0,0.0416
706.0,0.0415
705.0,0.0413
704.0,0.0412
703.0,0.0412
702.0,0.0414
701.0,0.0415
700.0,0.0415
699.0,0.0415
698.0,0.0416
697.0,0.0417
696.0,0.0419
695.0,0.0421
694.0,0.0422
693.0,0.0422
692.0,0.0417
691.0,0.041
690.0,0.0407
689.0,0.0408
688.0,0.0413
687.0,0.0417
686.0,0.0419
685.0,0.0417
684.0,0.0413
683.0,0.0408
682.0,0.0408
681.0,0.0413
680.0,0.0419
679.0,0.0418
678.0,0.0409
677.0,0.0397
676.0,0.0391
675.0,0.0393
674.0,0.0399
673.0,0.0405
672.0,0.0406
671.0,0.0397
670.0,0.0375
669.0,0.0343
668.0,0.033
667.0,0.0356
666.0,0.0385
665.0,0.0401
664.0,0.0411
663.0,0.0418
662.0,0.0422
661.0,0.0418
660.0,0.0409
659.0,0.0402
658.0,0.0399
657.0,0.04
656.0,0.0401
655.0,0.0398
654.0,0.0395
653.0,0.0395
652.0,0.0395
651.0,0.0394
650.0,0.039
649.0,0.0388
648.0,0.0393
647.0,0.0403
646.0,0.0412
645.0,0.0417
644.0,0.0417
643.0,0.0416
642.0,0.0417
641.0,0.0418
640.0,0.0417
639.0,0.0414
638.0,0.0412
637.0,0.0416
636.0,0.0427
635.0,0.0442
634.0,0.0454
633.0,0.0455
632.0,0.0446
631.0,0.0432
630.0,0.0423
629.0,0.0422
628.0,0.0425
627.0,0.043
626.0,0.0435
625.0,0.0441
624.0,0.0446
623.0,0.0446
622.0,0.0443
621.0,0.0437
620.0,0.0429
619.0,0.0421
618.0,0.0417
617.0,0.042
616.0,0.0428
615.0,0.0434
614.0,0.0436
613.0,0.0438
612.0,0.0441
611.0,0.0447
610.0,0.0453
609.0,0.0459
608.0,0.0463
607.0,0.0464
606.0,0.0462
605.0,0.046
604.0,0.046
603.0,0.0459
602.0,0.0459
601.0,0.0463
600.0,0.0471
