cm-1,A
4000.0,0.0063
3999.0,0.0064
3998.0,0.0064
3997.0,0.0064
3996.0,0.0063
3995.0,0.0062
3994.0,0.0061
3993.0,0.006
3992.0,0.006
3991.0,0.0061
3990.0,0.0062
3989.0,0.0063
3988.0,0.0064
3987.0,0.0064
3986.0,0.0065
3985.0,0.0065
3984.0,0.0065
3983.0,0.0066
3982.0,0.0066
3981.0,0.0066
3980.0,0.0066
3979.0,0.0065
3978.0,0.0065
3977.0,0.0064
3976.0,0.0064
3975.0,0.0063
3974.0,0.0063
3973.0,0.0064
3972.0,0.0064
3971.0,0.0065
3970.0,0.0065
3969.0,0.0065
3968.0,0.0065
3967.0,0.0065
3966.0,0.0064
3965.0,0.0064
3964.0,0.0064
3963.0,0.0064
3962.0,0.0064
3961.0,0.0064
3960.0,0.0064
3959.0,0.0065
3958.0,0.0065
3957.0,0.0066
3956.0,0.0066
3955.0,0.0065
3954.0,0.0065
3953.0,0.0065
3952.0,0.0065
3951.0,0.0064
3950.0,0.0064
3949.0,0.0064
3948.0,0.0064
3947.0,0.0064
3946.0,0.0064
3945.0,0.0065
3944.0,0.0065
3943.0,0.0066
3942.0,0.0066
3941.0,0.0066
3940.0,0.0066
3939.0,0.0066
3938.0,0.0066
3937.0,0.0065
3936.0,0.0066
3935.0,0.0066
3934.0,0.0066
3933.0,0.0066
3932.0,0.0066
3931.0,0.0066
3930.0,0.0065
3929.0,0.0065
3928.0,0.0065
3927.0,0.0066
3926.0,0.0066
3925.0,0.0067
3924.0,0.0068
3923.0,0.0068
3922.0,0.0067
3921.0,0.0066
3920.0,0.0065
3919.0,0.0064
3918.0,0.0064
3917.0,0.0065
3916.0,0.0065
3915.0,0.0066
3914.0,0.0067
3913.0,0.0067
3912.0,0.0067
3911.0,0.0067
3910.0,0.0067
3909.0,0.0067
3908.0,0.0067
3907.0,0.0067
3906.0,0.0065
3905.0,0.0064
3904.0,0.0063
3903.0,0.0063
3902.0,0.0063
3901.0,0.0064
3900.0,0.0065
3899.0,0.0066
3898.0,0.0067
3897.0,0.0068
3896.0,0.0068
3895.0,0.0069
3894.0,0.0069
3893.0,0.007
3892.0,0.0069
3891.0,0.0068
3890.0,0.0067
3889.0,0.0068
3888.0,0.0068
3887.0,0.0067
3886.0,0.0066
3885.0,0.0067
3884.0,0.0069
3883.0,0.0071
3882.0,0.0072
3881.0,0.0071
3880.0,0.0071
3879.0,0.007
3878.0,0.007
3877.0,0.007
3876.0,0.0069
3875.0,0.0068
3874.0,0.0068
3873.0,0.0069
3872.0,0.007
3871.0,0.007
3870.0,0.0069
3869.0,0.007
3868.0,0.0071
3867.0,0.0072
3866.0,0.0071
3865.0,0.007
3864.0,0.007
3863.0,0.007
3862.0,0.007
3861.0,0.0069
3860.0,0.0069
3859.0,0.0068
3858.0,0.0068
3857.0,0.0069
3856.0,0.007
3855.0,0.007
3854.0,0.007
3853.0,0.007
3852.0,0.0071
3851.0,0.0071
3850.0,0.0071
3849.0,0.0071
3848.0,0.007
3847.0,0.007
3846.0,0.007
3845.0,0.007
3844.0,0.0071
3843.0,0.0073
3842.0,0.0074
3841.0,0.0075
3840.0,0.0076
3839.0,0.0076
3838.0,0.0075
3837.0,0.0074
3836.0,0.0073
3835.0,0.0072
3834.0,0.0072
3833.0,0.0072
3832.0,0.0071
3831.0,0.007
3830.0,0.007
3829.0,0.007
3828.0,0.007
3827.0,0.007
3826.0,0.007
3825.0,0.0072
3824.0,0.0075
3823.0,0.0075
3822.0,0.0074
3821.0,0.0073
3820.0,0.0073
3819.0,0.0073
3818.0,0.0073
3817.0,0.0072
3816.0,0.0071
3815.0,0.0071
3814.0,0.0071
3813.0,0.0071
3812.0,0.007
3811.0,0.007
3810.0,0.007
3809.0,0.0071
3808.0,0.0071
3807.0,0.007
3806.0,0.0071
3805.0,0.0073
3804.0,0.0075
3803.0,0.0074
3802.0,0.0074
3801.0,0.0074
3800.0,0.0075
3799.0,0.0076
3798.0,0.0075
3797.0,0.0074
3796.0,0.0074
3795.0,0.0074
3794.0,0.0073
3793.0,0.0072
3792.0,0.0072
3791.0,0.0071
3790.0,0.0071
3789.0,0.0072
3788.0,0.0072
3787.0,0.0073
3786.0,0.0074
3785.0,0.0074
3784.0,0.0074
3783.0,0.0074
3782.0,0.0074
3781.0,0.0074
3780.0,0.0073
3779.0,0.0073
3778.0,0.0073
3777.0,0.0073
3776.0,0.0073
3775.0,0.0072
3774.0,0.0073
3773.0,0.0073
3772.0,0.0074
3771.0,0.0074
3770.0,0.0074
3769.0,0.0074
3768.0,0.0075
3767.0,0.0075
3766.0,0.0075
3765.0,0.0074
3764.0,0.0074
3763.0,0.0075
3762.0,0.0075
3761.0,0.0075
3760.0,0.0075
3759.0,0.0076
3758.0,0.0076
3757.0,0.0076
3756.0,0.0075
3755.0,0.0075
3754.0,0.0074
3753.0,0.0073
3752.0,0.0072
3751.0,0.0073
3750.0,0.0073
3749.0,0.0074
3748.0,0.0075
3747.0,0.0076
3746.0,0.0076
3745.0,0.0074
3744.0,0.0074
3743.0,0.0076
3742.0,0.0077
3741.0,0.0078
3740.0,0.0078
3739.0,0.0078
3738.0,0.0079
3737.0,0.0078
3736.0,0.0078
3735.0,0.0078
3734.0,0.0078
3733.0,0.0076
3732.0,0.0074
3731.0,0.0074
3730.0,0.0076
3729.0,0.0077
3728.0,0.0078
3727.0,0.0079
3726.0,0.0079
3725.0,0.008
3724.0,0.008
3723.0,0.008
3722.0,0.008
3721.0,0.008
3720.0,0.0081
3719.0,0.0081
3718.0,0.008
3717.0,0.0079
3716.0,0.0078
3715.0,0.0077
3714.0,0.0077
3713.0,0.0077
3712.0,0.0079
3711.0,0.0081
3710.0,0.0081
3709.0,0.008
3708.0,0.008
3707.0,0.0079
3706.0,0.008
3705.0,0.0081
3704.0,0.0082
3703.0,0.0082
3702.0,0.0082
3701.0,0.0082
3700.0,0.0082
3699.0,0.0083
3698.0,0.0083
3697.0,0.0082
3696.0,0.0082
3695.0,0.0082
3694.0,0.0082
3693.0,0.0083
3692.0,0.0084
3691.0,0.0084
3690.0,0.0084
3689.0,0.0082
3688.0,0.008
3687.0,0.0079
3686.0,0.008
3685.0,0.0081
3684.0,0.0081
3683.0,0.0082
3682.0,0.0083
3681.0,0.0083
3680.0,0.0083
3679.0,0.0084
3678.0,0.0085
3677.0,0.0085
3676.0,0.0084
3675.0,0.0083
3674.0,0.0083
3673.0,0.0083
3672.0,0.0083
3671.0,0.0082
3670.0,0.0082
3669.0,0.0082
3668.0,0.0082
3667.0,0.008
3666.0,0.008
3665.0,0.0079
3664.0,0.008
3663.0,0.008
3662.0,0.008
3661.0,0.0079
3660.0,0.0079
3659.0,0.008
3658.0,0.0081
3657.0,0.0081
3656.0,0.0082
3655.0,0.0083
3654.0,0.0084
3653.0,0.0084
3652.0,0.0083
3651.0,0.0081
3650.0,0.0081
3649.0,0.0084
3648.0,0.0085
3647.0,0.0084
3646.0,0.0084
3645.0,0.0084
3644.0,0.0084
3643.0,0.0084
3642.0,0.0085
3641.0,0.0086
3640.0,0.0086
3639.0,0.0086
3638.0,0.0085
3637.0,0.0085
3636.0,0.0085
3635.0,0.0085
3634.0,0.0085
3633.0,0.0085
3632.0,0.0085
3631.0,0.0084
3630.0,0.0083
3629.0,0.0084
3628.0,0.0086
3627.0,0.0088
3626.0,0.0089
3625.0,0.0089
3624.0,0.0089
3623.0,0.0089
3622.0,0.0088
3621.0,0.0087
3620.0,0.0087
3619.0,0.0087
3618.0,0.0087
3617.0,0.0087
3616.0,0.0087
3615.0,0.0086
3614.0,0.0086
3613.0,0.0087
3612.0,0.0088
3611.0,0.0089
3610.0,0.0089
3609.0,0.009
3608.0,0.009
3607.0,0.009
3606.0,0.0091
3605.0,0.0091
3604.0,0.0091
3603.0,0.0091
3602.0,0.0091
3601.0,0.0091
3600.0,0.0091
3599.0,0.0091
3598.0,0.0091
3597.0,0.0091
3596.0,0.0092
3595.0,0.0092
3594.0,0.0091
3593.0,0.0091
3592.0,0.0091
3591.0,0.0091
3590.0,0.0091
3589.0,0.0091
3588.0,0.0092
3587.0,0.0093
3586.0,0.0093
3585.0,0.0093
3584.0,0.0093
3583.0,0.0093
3582.0,0.0093
3581.0,0.0093
3580.0,0.0094
3579.0,0.0095
3578.0,0.0096
3577.0,0.0096
3576.0,0.0097
3575.0,0.0097
3574.0,0.0096
3573.0,0.0095
3572.0,0.0094
3571.0,0.0092
3570.0,0.0092
3569.0,0.0092
3568.0,0.0093
3567.0,0.0095
3566.0,0.0096
3565.0,0.0097
3564.0,0.0098
3563.0,0.0098
3562.0,0.0097
3561.0,0.0097
3560.0,0.0096
3559.0,0.0096
3558.0,0.0097
3557.0,0.0098
3556.0,0.0099
3555.0,0.01
3554.0,0.01
3553.0,0.0099
3552.0,0.0099
3551.0,0.0099
3550.0,0.0099
3549.0,0.0099
3548.0,0.0098
3547.0,0.0098
3546.0,0.0099
3545.0,0.0099
3544.0,0.0099
3543.0,0.01
3542.0,0.01
3541.0,0.0099
3540.0,0.0099
3539.0,0.0098
3538.0,0.0098
3537.0,0.0098
3536.0,0.0099
3535.0,0.0099
3534.0,0.01
3533.0,0.01
3532.0,0.01
3531.0,0.01
3530.0,0.0101
3529.0,0.0101
3528.0,0.0102
3527.0,0.0103
3526.0,0.0103
3525.0,0.0104
3524.0,0.0104
3523.0,0.0104
3522.0,0.0104
3521.0,0.0105
3520.0,0.0105
3519.0,0.0104
3518.0,0.0103
3517.0,0.0103
3516.0,0.0102
3515.0,0.0102
3514.0,0.0102
3513.0,0.0103
3512.0,0.0103
3511.0,0.0103
3510.0,0.0104
3509.0,0.0104
3508.0,0.0104
3507.0,0.0104
3506.0,0.0103
3505.0,0.0103
3504.0,0.0103
3503.0,0.0103
3502.0,0.0103
3501.0,0.0103
3500.0,0.0103
3499.0,0.0103
3498.0,0.0104
3497.0,0.0105
3496.0,0.0105
3495.0,0.0105
3494.0,0.0105
3493.0,0.0105
3492.0,0.0105
3491.0,0.0105
3490.0,0.0105
3489.0,0.0105
3488.0,0.0105
3487.0,0.0105
3486.0,0.0106
3485.0,0.0106
3484.0,0.0106
3483.0,0.0105
3482.0,0.0106
3481.0,0.0106
3480.0,0.0107
3479.0,0.0108
3478.0,0.0108
3477.0,0.0108
3476.0,0.0108
3475.0,0.0108
3474.0,0.0108
3473.0,0.0108
3472.0,0.0108
3471.0,0.0109
3470.0,0.0108
3469.0,0.0108
3468.0,0.0108
3467.0,0.0109
3466.0,0.0109
3465.0,0.011
3464.0,0.011
3463.0,0.011
3462.0,0.0111
3461.0,0.0111
3460.0,0.0111
3459.0,0.0111
3458.0,0.011
3457.0,0.0109
3456.0,0.0109
3455.0,0.011
3454.0,0.011
3453.0,0.0111
3452.0,0.0111
3451.0,0.011
3450.0,0.011
3449.0,0.0109
3448.0,0.0109
3447.0,0.0111
3446.0,0.0112
3445.0,0.0113
3444.0,0.0113
3443.0,0.0112
3442.0,0.0111
3441.0,0.0111
3440.0,0.0111
3439.0,0.0112
3438.0,0.0113
3437.0,0.0113
3436.0,0.0113
3435.0,0.0112
3434.0,0.0112
3433.0,0.0111
3432.0,0.0112
3431.0,0.0112
3430.0,0.0112
3429.0,0.0112
3428.0,0.0112
3427.0,0.0113
3426.0,0.0113
3425.0,0.0113
3424.0,0.0112
3423.0,0.0112
3422.0,0.0112
3421.0,0.0112
3420.0,0.0112
3419.0,0.0112
3418.0,0.0112
3417.0,0.0112
3416.0,0.0111
3415.0,0.011
3414.0,0.011
3413.0,0.011
3412.0,0.011
3411.0,0.0111
3410.0,0.0111
3409.0,0.0111
3408.0,0.0112
3407.0,0.0112
3406.0,0.0113
3405.0,0.0114
3404.0,0.0114
3403.0,0.0114
3402.0,0.0113
3401.0,0.0113
3400.0,0.0113
3399.0,0.0113
3398.0,0.0113
3397.0,0.0112
3396.0,0.0112
3395.0,0.0113
3394.0,0.0113
3393.0,0.0114
3392.0,0.0114
3391.0,0.0114
3390.0,0.0113
3389.0,0.0113
3388.0,0.0113
3387.0,0.0112
3386.0,0.0112
3385.0,0.0112
3384.0,0.0113
3383.0,0.0115
3382.0,0.0115
3381.0,0.0115
3380.0,0.0115
3379.0,0.0116
3378.0,0.0116
3377.0,0.0116
3376.0,0.0116
3375.0,0.0116
3374.0,0.0115
3373.0,0.0115
3372.0,0.0115
3371.0,0.0114
3370.0,0.0114
3369.0,0.0113
3368.0,0.0112
3367.0,0.0111
3366.0,0.0111
3365.0,0.0112
3364.0,0.0113
3363.0,0.0114
3362.0,0.0115
3361.0,0.0115
3360.0,0.0114
3359.0,0.0114
3358.0,0.0114
3357.0,0.0114
3356.0,0.0113
3355.0,0.0113
3354.0,0.0112
3353.0,0.0112
3352.0,0.0111
3351.0,0.0111
3350.0,0.0111
3349.0,0.0112
3348.0,0.0112
3347.0,0.0112
3346.0,0.0112
3345.0,0.0112
3344.0,0.0112
3343.0,0.0112
3342.0,0.0112
3341.0,0.0113
3340.0,0.0113
3339.0,0.0113
3338.0,0.0113
3337.0,0.0112
3336.0,0.0111
3335.0,0.011
3334.0,0.011
3333.0,0.011
3332.0,0.0111
3331.0,0.0112
3330.0,0.0113
3329.0,0.0113
3328.0,0.0113
3327.0,0.0111
3326.0,0.011
3325.0,0.011
3324.0,0.0109
3323.0,0.0109
3322.0,0.0109
3321.0,0.011
3320.0,0.011
3319.0,0.011
3318.0,0.011
3317.0,0.0109
3316.0,0.0109
3315.0,0.0107
3314.0,0.0106
3313.0,0.0106
3312.0,0.0106
3311.0,0.0107
3310.0,0.0108
3309.0,0.0108
3308.0,0.0108
3307.0,0.0108
3306.0,0.0109
3305.0,0.0109
3304.0,0.011
3303.0,0.011
3302.0,0.011
3301.0,0.011
3300.0,0.011
3299.0,0.011
3298.0,0.011
3297.0,0.0109
3296.0,0.0109
3295.0,0.0109
3294.0,0.0109
3293.0,0.0109
3292.0,0.0109
3291.0,0.0109
3290.0,0.011
3289.0,0.011
3288.0,0.011
3287.0,0.0109
3286.0,0.0109
3285.0,0.0108
3284.0,0.0107
3283.0,0.0106
3282.0,0.0106
3281.0,0.0107
3280.0,0.0107
3279.0,0.0107
3278.0,0.0106
3277.0,0.0106
3276.0,0.0106
3275.0,0.0106
3274.0,0.0106
3273.0,0.0106
3272.0,0.0105
3271.0,0.0104
3270.0,0.0104
3269.0,0.0103
3268.0,0.0103
3267.0,0.0103
3266.0,0.0103
3265.0,0.0102
3264.0,0.0102
3263.0,0.0102
3262.0,0.0102
3261.0,0.0102
3260.0,0.0102
3259.0,0.0103
3258.0,0.0103
3257.0,0.0102
3256.0,0.0101
3255.0,0.01
3254.0,0.0099
3253.0,0.0099
3252.0,0.01
3251.0,0.01
3250.0,0.01
3249.0,0.01
3248.0,0.01
3247.0,0.01
3246.0,0.01
3245.0,0.0101
3244.0,0.0101
3243.0,0.0101
3242.0,0.0101
3241.0,0.01
3240.0,0.0099
3239.0,0.0099
3238.0,0.0099
3237.0,0.0099
3236.0,0.0099
3235.0,0.01
3234.0,0.0101
3233.0,0.0101
3232.0,0.0101
3231.0,0.01
3230.0,0.0099
3229.0,0.0098
3228.0,0.0098
3227.0,0.0098
3226.0,0.0098
3225.0,0.0099
3224.0,0.0099
3223.0,0.0099
3222.0,0.0099
3221.0,0.0098
3220.0,0.0098
3219.0,0.0098
3218.0,0.0098
3217.0,0.0099
3216.0,0.0099
3215.0,0.0099
3214.0,0.0099
3213.0,0.0098
3212.0,0.0098
3211.0,0.0098
3210.0,0.0098
3209.0,0.0098
3208.0,0.0099
3207.0,0.0099
3206.0,0.0099
3205.0,0.01
3204.0,0.01
3203.0,0.01
3202.0,0.0101
3201.0,0.01
3200.0,0.01
3199.0,0.0099
3198.0,0.0098
3197.0,0.0098
3196.0,0.0098
3195.0,0.0099
3194.0,0.0099
3193.0,0.0099
3192.0,0.0099
3191.0,0.0098
3190.0,0.0098
3189.0,0.0098
3188.0,0.0098
3187.0,0.0098
3186.0,0.0098
3185.0,0.0098
3184.0,0.0097
3183.0,0.0096
3182.0,0.0096
3181.0,0.0095
3180.0,0.0095
3179.0,0.0095
3178.0,0.0094
3177.0,0.0094
3176.0,0.0094
3175.0,0.0094
3174.0,0.0093
3173.0,0.0093
3172.0,0.0092
3171.0,0.0091
3170.0,0.0091
3169.0,0.0091
3168.0,0.0092
3167.0,0.0091
3166.0,0.0091
3165.0,0.009
3164.0,0.0089
3163.0,0.0089
3162.0,0.0089
3161.0,0.0089
3160.0,0.0089
3159.0,0.0089
3158.0,0.009
3157.0,0.009
3156.0,0.0091
3155.0,0.009
3154.0,0.009
3153.0,0.0089
3152.0,0.0088
3151.0,0.0087
3150.0,0.0086
3149.0,0.0086
3148.0,0.0086
3147.0,0.0086
3146.0,0.0087
3145.0,0.0087
3144.0,0.0088
3143.0,0.0088
3142.0,0.0087
3141.0,0.0086
3140.0,0.0085
3139.0,0.0085
3138.0,0.0086
3137.0,0.0086
3136.0,0.0085
3135.0,0.0084
3134.0,0.0083
3133.0,0.0082
3132.0,0.0081
3131.0,0.008
3130.0,0.008
3129.0,0.0079
3128.0,0.0078
3127.0,0.0079
3126.0,0.0079
3125.0,0.008
3124.0,0.008
3123.0,0.008
3122.0,0.0079
3121.0,0.0078
3120.0,0.0077
3119.0,0.0077
3118.0,0.0076
3117.0,0.0075
3116.0,0.0075
3115.0,0.0075
3114.0,0.0075
3113.0,0.0075
3112.0,0.0075
3111.0,0.0075
3110.0,0.0074
3109.0,0.0074
3108.0,0.0073
3107.0,0.0072
3106.0,0.0072
3105.0,0.0072
3104.0,0.0073
3103.0,0.0074
3102.0,0.0073
3101.0,0.0073
3100.0,0.0072
3099.0,0.007
3098.0,0.0069
3097.0,0.0069
3096.0,0.0068
3095.0,0.0068
3094.0,0.0068
3093.0,0.0067
3092.0,0.0067
3091.0,0.0067
3090.0,0.0067
3089.0,0.0067
3088.0,0.0067
3087.0,0.0067
3086.0,0.0067
3085.0,0.0067
3084.0,0.0067
3083.0,0.0066
3082.0,0.0065
3081.0,0.0064
3080.0,0.0064
3079.0,0.0063
3078.0,0.0062
3077.0,0.0061
3076.0,0.0061
3075.0,0.0061
3074.0,0.0061
3073.0,0.0061
3072.0,0.0061
3071.0,0.0061
3070.0,0.006
3069.0,0.006
3068.0,0.0059
3067.0,0.0059
3066.0,0.0059
3065.0,0.0058
3064.0,0.0058
3063.0,0.0057
3062.0,0.0057
3061.0,0.0056
3060.0,0.0056
3059.0,0.0055
3058.0,0.0055
3057.0,0.0055
3056.0,0.0054
3055.0,0.0053
3054.0,0.0052
3053.0,0.0052
3052.0,0.0051
3051.0,0.005
3050.0,0.0049
3049.0,0.0049
3048.0,0.0049
3047.0,0.005
3046.0,0.005
3045.0,0.005
3044.0,0.0049
3043.0,0.0048
3042.0,0.0047
3041.0,0.0046
3040.0,0.0045
3039.0,0.0045
3038.0,0.0044
3037.0,0.0043
3036.0,0.0043
3035.0,0.0043
3034.0,0.0042
3033.0,0.0041
3032.0,0.0041
3031.0,0.0041
3030.0,0.004
3029.0,0.004
3028.0,0.004
3027.0,0.0039
3026.0,0.0039
3025.0,0.0039
3024.0,0.0038
3023.0,0.0037
3022.0,0.0036
3021.0,0.0036
3020.0,0.0035
3019.0,0.0034
3018.0,0.0033
3017.0,0.0033
3016.0,0.0034
3015.0,0.0034
3014.0,0.0035
3013.0,0.0035
3012.0,0.0035
3011.0,0.0035
3010.0,0.0035
3009.0,0.0035
3008.0,0.0035
3007.0,0.0035
3006.0,0.0035
3005.0,0.0035
3004.0,0.0035
3003.0,0.0035
3002.0,0.0036
3001.0,0.0036
3000.0,0.0036
2999.0,0.0037
2998.0,0.0038
2997.0,0.0039
2996.0,0.0039
2995.0,0.004
2994.0,0.004
2993.0,0.0042
2992.0,0.0045
2991.0,0.0049
2990.0,0.0053
2989.0,0.0057
2988.0,0.0062
2987.0,0.0067
2986.0,0.0072
2985.0,0.0078
2984.0,0.0086
2983.0,0.0095
2982.0,0.0105
2981.0,0.0118
2980.0,0.0132
2979.0,0.0147
2978.0,0.0165
2977.0,0.0185
2976.0,0.0208
2975.0,0.0235
2974.0,0.0266
2973.0,0.0301
2972.0,0.034
2971.0,0.0383
2970.0,0.043
2969.0,0.0482
2968.0,0.0537
2967.0,0.0594
2966.0,0.0653
2965.0,0.0711
2964.0,0.0767
2963.0,0.0817
2962.0,0.086
2961.0,0.0895
2960.0,0.0924
2959.0,0.0951
2958.0,0.0979
2957.0,0.1013
2956.0,0.1056
2955.0,0.1109
2954.0,0.117
2953.0,0.1235
2952.0,0.1296
2951.0,0.1344
2950.0,0.1369
2949.0,0.1366
2948.0,0.1334
2947.0,0.1275
2946.0,0.1196
2945.0,0.1106
2944.0,0.1016
2943.0,0.0935
2942.0,0.0867
2941.0,0.0815
2940.0,0.0779
2939.0,0.0759
2938.0,0.0753
2937.0,0.0761
2936.0,0.0782
2935.0,0.0814
2934.0,0.0857
2933.0,0.0909
2932.0,0.0969
2931.0,0.1036
2930.0,0.1107
2929.0,0.118
2928.0,0.1253
2927.0,0.1323
2926.0,0.1391
2925.0,0.1456
2924.0,0.152
2923.0,0.1583
2922.0,0.1648
2921.0,0.1712
2920.0,0.1771
2919.0,0.1817
2918.0,0.1844
2917.0,0.1847
2916.0,0.1825
2915.0,0.1783
2914.0,0.1728
2913.0,0.1669
2912.0,0.161
2911.0,0.1555
2910.0,0.1505
2909.0,0.146
2908.0,0.1418
2907.0,0.1377
2906.0,0.1336
2905.0,0.1296
2904.0,0.1255
2903.0,0.1215
2902.0,0.1174
2901.0,0.1133
2900.0,0.1093
2899.0,0.1056
2898.0,0.102
2897.0,0.0988
2896.0,0.096
2895.0,0.0934
2894.0,0.0913
2893.0,0.0896
2892.0,0.0884
2891.0,0.0876
2890.0,0.0871
2889.0,0.0868
2888.0,0.0869
2887.0,0.0872
2886.0,0.0878
2885.0,0.0887
2884.0,0.0898
2883.0,0.0913
2882.0,0.0931
2881.0,0.0952
2880.0,0.0973
2879.0,0.0991
2878.0,0.1004
2877.0,0.101
2876.0,0.101
2875.0,0.1006
2874.0,0.1002
2873.0,0.1002
2872.0,0.1008
2871.0,0.1021
2870.0,0.1038
2869.0,0.1055
2868.0,0.1069
2867.0,0.1072
2866.0,0.1059
2865.0,0.1027
2864.0,0.0979
2863.0,0.0919
2862.0,0.0856
2861.0,0.0795
2860.0,0.0742
2859.0,0.0697
2858.0,0.0663
2857.0,0.0636
2856.0,0.0618
2855.0,0.0605
2854.0,0.0597
2853.0,0.0594
2852.0,0.0594
2851.0,0.0599
2850.0,0.0608
2849.0,0.0622
2848.0,0.0642
2847.0,0.0669
2846.0,0.0702
2845.0,0.0742
2844.0,0.0787
2843.0,0.0837
2842.0,0.0887
2841.0,0.0935
2840.0,0.0976
2839.0,0.1004
2838.0,0.1015
2837.0,0.1006
2836.0,0.0977
2835.0,0.093
2834.0,0.0871
2833.0,0.0806
2832.0,0.0743
2831.0,0.0687
2830.0,0.0638
2829.0,0.0596
2828.0,0.0562
2827.0,0.0533
2826.0,0.0509
2825.0,0.049
2824.0,0.0473
2823.0,0.0458
2822.0,0.0445
2821.0,0.0433
2820.0,0.0423
2819.0,0.0414
2818.0,0.0406
2817.0,0.0399
2816.0,0.0392
2815.0,0.0386
2814.0,0.038
2813.0,0.0374
2812.0,0.0369
2811.0,0.0364
2810.0,0.036
2809.0,0.0355
2808.0,0.035
2807.0,0.0344
2806.0,0.0338
2805.0,0.0331
2804.0,0.0325
2803.0,0.0319
2802.0,0.0314
2801.0,0.0309
2800.0,0.0306
2799.0,0.0302
2798.0,0.0299
2797.0,0.0296
2796.0,0.0293
2795.0,0.0291
2794.0,0.0288
2793.0,0.0284
2792.0,0.0281
2791.0,0.0278
2790.0,0.0275
2789.0,0.0272
2788.0,0.027
2787.0,0.0267
2786.0,0.0265
2785.0,0.0262
2784.0,0.0259
2783.0,0.0257
2782.0,0.0255
2781.0,0.0252
2780.0,0.025
2779.0,0.0247
2778.0,0.0245
2777.0,0.0243
2776.0,0.0241
2775.0,0.0239
2774.0,0.0238
2773.0,0.0237
2772.0,0.0237
2771.0,0.0237
2770.0,0.0236
2769.0,0.0235
2768.0,0.0233
2767.0,0.0232
2766.0,0.0231
2765.0,0.023
2764.0,0.0229
2763.0,0.0228
2762.0,0.0227
2761.0,0.0225
2760.0,0.0223
2759.0,0.0222
2758.0,0.0221
2757.0,0.022
2756.0,0.0219
2755.0,0.0218
2754.0,0.0218
2753.0,0.0218
2752.0,0.0218
2751.0,0.0216
2750.0,0.0215
2749.0,0.0214
2748.0,0.0213
2747.0,0.0213
2746.0,0.0213
2745.0,0.0214
2744.0,0.0214
2743.0,0.0214
2742.0,0.0214
2741.0,0.0215
2740.0,0.0216
2739.0,0.0218
2738.0,0.0218
2737.0,0.0219
2736.0,0.022
2735.0,0.022
2734.0,0.0221
2733.0,0.0222
2732.0,0.0223
2731.0,0.0225
2730.0,0.0227
2729.0,0.0229
2728.0,0.0231
2727.0,0.0234
2726.0,0.0236
2725.0,0.0239
2724.0,0.024
2723.0,0.024
2722.0,0.024
2721.0,0.0237
2720.0,0.0234
2719.0,0.0232
2718.0,0.0229
2717.0,0.0228
2716.0,0.0226
2715.0,0.0225
2714.0,0.0222
2713.0,0.022
2712.0,0.0217
2711.0,0.0215
2710.0,0.0213
2709.0,0.0211
2708.0,0.021
2707.0,0.0209
2706.0,0.0208
2705.0,0.0207
2704.0,0.0206
2703.0,0.0205
2702.0,0.0203
2701.0,0.0202
2700.0,0.0201
2699.0,0.02
2698.0,0.0199
2697.0,0.0199
2696.0,0.0199
2695.0,0.0198
2694.0,0.0197
2693.0,0.0197
2692.0,0.0196
2691.0,0.0196
2690.0,0.0196
2689.0,0.0196
2688.0,0.0196
2687.0,0.0196
2686.0,0.0196
2685.0,0.0196
2684.0,0.0196
2683.0,0.0195
2682.0,0.0195
2681.0,0.0195
2680.0,0.0195
2679.0,0.0194
2678.0,0.0194
2677.0,0.0194
2676.0,0.0193
2675.0,0.0193
2674.0,0.0192
2673.0,0.0192
2672.0,0.0191
2671.0,0.0191
2670.0,0.0192
2669.0,0.0192
2668.0,0.0192
2667.0,0.0192
2666.0,0.0192
2665.0,0.0192
2664.0,0.0192
2663.0,0.0192
2662.0,0.0192
2661.0,0.0191
2660.0,0.019
2659.0,0.019
2658.0,0.0189
2657.0,0.0189
2656.0,0.0189
2655.0,0.0188
2654.0,0.0188
2653.0,0.0187
2652.0,0.0187
2651.0,0.0187
2650.0,0.0186
2649.0,0.0185
2648.0,0.0184
2647.0,0.0183
2646.0,0.0182
2645.0,0.0181
2644.0,0.0181
2643.0,0.018
2642.0,0.018
2641.0,0.018
2640.0,0.018
2639.0,0.018
2638.0,0.018
2637.0,0.018
2636.0,0.0179
2635.0,0.0179
2634.0,0.0179
2633.0,0.0179
2632.0,0.0179
2631.0,0.0179
2630.0,0.0179
2629.0,0.0179
2628.0,0.018
2627.0,0.018
2626.0,0.0179
2625.0,0.0179
2624.0,0.0179
2623.0,0.018
2622.0,0.018
2621.0,0.018
2620.0,0.018
2619.0,0.018
2618.0,0.018
2617.0,0.0179
2616.0,0.0179
2615.0,0.0179
2614.0,0.0179
2613.0,0.0179
2612.0,0.0179
2611.0,0.0178
2610.0,0.0177
2609.0,0.0176
2608.0,0.0175
2607.0,0.0174
2606.0,0.0174
2605.0,0.0174
2604.0,0.0174
2603.0,0.0174
2602.0,0.0173
2601.0,0.0172
2600.0,0.0171
2599.0,0.0171
2598.0,0.0171
2597.0,0.0172
2596.0,0.0173
2595.0,0.0173
2594.0,0.0173
2593.0,0.0173
2592.0,0.0173
2591.0,0.0173
2590.0,0.0174
2589.0,0.0175
2588.0,0.0176
2587.0,0.0177
2586.0,0.0178
2585.0,0.0179
2584.0,0.018
2583.0,0.018
2582.0,0.018
2581.0,0.018
2580.0,0.0179
2579.0,0.0178
2578.0,0.0177
2577.0,0.0176
2576.0,0.0175
2575.0,0.0174
2574.0,0.0173
2573.0,0.0173
2572.0,0.0173
2571.0,0.0172
2570.0,0.0171
2569.0,0.017
2568.0,0.0169
2567.0,0.0169
2566.0,0.0168
2565.0,0.0168
2564.0,0.0168
2563.0,0.0168
2562.0,0.0167
2561.0,0.0167
2560.0,0.0167
2559.0,0.0167
2558.0,0.0167
2557.0,0.0166
2556.0,0.0166
2555.0,0.0165
2554.0,0.0165
2553.0,0.0165
2552.0,0.0165
2551.0,0.0164
2550.0,0.0164
2549.0,0.0163
2548.0,0.0162
2547.0,0.0162
2546.0,0.0161
2545.0,0.0161
2544.0,0.016
2543.0,0.016
2542.0,0.0159
2541.0,0.0159
2540.0,0.0159
2539.0,0.0159
2538.0,0.0159
2537.0,0.0159
2536.0,0.0159
2535.0,0.0158
2534.0,0.0158
2533.0,0.0158
2532.0,0.0158
2531.0,0.0158
2530.0,0.0158
2529.0,0.0157
2528.0,0.0156
2527.0,0.0155
2526.0,0.0155
2525.0,0.0154
2524.0,0.0154
2523.0,0.0154
2522.0,0.0154
2521.0,0.0154
2520.0,0.0154
2519.0,0.0153
2518.0,0.0153
2517.0,0.0153
2516.0,0.0153
2515.0,0.0153
2514.0,0.0153
2513.0,0.0152
2512.0,0.0151
2511.0,0.0151
2510.0,0.0151
2509.0,0.0151
2508.0,0.0152
2507.0,0.0152
2506.0,0.0152
2505.0,0.0151
2504.0,0.0151
2503.0,0.015
2502.0,0.015
2501.0,0.0149
2500.0,0.0149
2499.0,0.0149
2498.0,0.015
2497.0,0.015
2496.0,0.0151
2495.0,0.0151
2494.0,0.015
2493.0,0.015
2492.0,0.015
2491.0,0.015
2490.0,0.015
2489.0,0.015
2488.0,0.015
2487.0,0.015
2486.0,0.0149
2485.0,0.0149
2484.0,0.0149
2483.0,0.0149
2482.0,0.0149
2481.0,0.0149
2480.0,0.0149
2479.0,0.0149
2478.0,0.0149
2477.0,0.0149
2476.0,0.0149
2475.0,0.0149
2474.0,0.0148
2473.0,0.0148
2472.0,0.0148
2471.0,0.0148
2470.0,0.0148
2469.0,0.0147
2468.0,0.0147
2467.0,0.0147
2466.0,0.0147
2465.0,0.0147
2464.0,0.0147
2463.0,0.0148
2462.0,0.0148
2461.0,0.0148
2460.0,0.0148
2459.0,0.0148
2458.0,0.0148
2457.0,0.0148
2456.0,0.0148
2455.0,0.0147
2454.0,0.0147
2453.0,0.0147
2452.0,0.0147
2451.0,0.0146
2450.0,0.0146
2449.0,0.0146
2448.0,0.0145
2447.0,0.0145
2446.0,0.0146
2445.0,0.0146
2444.0,0.0146
2443.0,0.0146
2442.0,0.0145
2441.0,0.0145
2440.0,0.0145
2439.0,0.0146
2438.0,0.0147
2437.0,0.0147
2436.0,0.0147
2435.0,0.0147
2434.0,0.0147
2433.0,0.0147
2432.0,0.0147
2431.0,0.0147
2430.0,0.0147
2429.0,0.0147
2428.0,0.0146
2427.0,0.0146
2426.0,0.0146
2425.0,0.0146
2424.0,0.0146
2423.0,0.0146
2422.0,0.0146
2421.0,0.0146
2420.0,0.0146
2419.0,0.0146
2418.0,0.0146
2417.0,0.0146
2416.0,0.0146
2415.0,0.0146
2414.0,0.0146
2413.0,0.0146
2412.0,0.0145
2411.0,0.0146
2410.0,0.0146
2409.0,0.0146
2408.0,0.0146
2407.0,0.0145
2406.0,0.0145
2405.0,0.0145
2404.0,0.0144
2403.0,0.0144
2402.0,0.0144
2401.0,0.0144
2400.0,0.0143
2399.0,0.0142
2398.0,0.0142
2397.0,0.0143
2396.0,0.0143
2395.0,0.0143
2394.0,0.0144
2393.0,0.0144
2392.0,0.0144
2391.0,0.0144
2390.0,0.0144
2389.0,0.0144
2388.0,0.0143
2387.0,0.0143
2386.0,0.0142
2385.0,0.0142
2384.0,0.0142
2383.0,0.0142
2382.0,0.0143
2381.0,0.0145
2380.0,0.0146
2379.0,0.0146
2378.0,0.0147
2377.0,0.0148
2376.0,0.015
2375.0,0.0151
2374.0,0.0151
2373.0,0.015
2372.0,0.0149
2371.0,0.0145
2370.0,0.0137
2369.0,0.0127
2368.0,0.012
2367.0,0.0117
2366.0,0.0122
2365.0,0.0132
2364.0,0.0144
2363.0,0.0152
2362.0,0.0161
2361.0,0.0172
2360.0,0.0176
2359.0,0.0164
2358.0,0.0147
2357.0,0.0142
2356.0,0.0146
2355.0,0.015
2354.0,0.0153
2353.0,0.0159
2352.0,0.0167
2351.0,0.0173
2350.0,0.0172
2349.0,0.0165
2348.0,0.0156
2347.0,0.0149
2346.0,0.0148
2345.0,0.0154
2344.0,0.0164
2343.0,0.0175
2342.0,0.018
2341.0,0.0177
2340.0,0.017
2339.0,0.0166
2338.0,0.0167
2337.0,0.0171
2336.0,0.017
2335.0,0.0162
2334.0,0.0153
2333.0,0.0148
2332.0,0.0147
2331.0,0.0146
2330.0,0.0143
2329.0,0.014
2328.0,0.0141
2327.0,0.0147
2326.0,0.0153
2325.0,0.0158
2324.0,0.0159
2323.0,0.0155
2322.0,0.0151
2321.0,0.0147
2320.0,0.0146
2319.0,0.0147
2318.0,0.0148
2317.0,0.0148
2316.0,0.0148
2315.0,0.0147
2314.0,0.0145
2313.0,0.0143
2312.0,0.0142
2311.0,0.0143
2310.0,0.0144
2309.0,0.0145
2308.0,0.0145
2307.0,0.0144
2306.0,0.0143
2305.0,0.0142
2304.0,0.0141
2303.0,0.014
2302.0,0.014
2301.0,0.014
2300.0,0.014
2299.0,0.014
2298.0,0.014
2297.0,0.0139
2296.0,0.0139
2295.0,0.0138
2294.0,0.0138
2293.0,0.0138
2292.0,0.0138
2291.0,0.0138
2290.0,0.0138
2289.0,0.0138
2288.0,0.0138
2287.0,0.0137
2286.0,0.0136
2285.0,0.0136
2284.0,0.0135
2283.0,0.0135
2282.0,0.0135
2281.0,0.0135
2280.0,0.0136
2279.0,0.0136
2278.0,0.0136
2277.0,0.0136
2276.0,0.0136
2275.0,0.0136
2274.0,0.0136
2273.0,0.0137
2272.0,0.0137
2271.0,0.0137
2270.0,0.0137
2269.0,0.0136
2268.0,0.0136
2267.0,0.0136
2266.0,0.0136
2265.0,0.0136
2264.0,0.0136
2263.0,0.0136
2262.0,0.0136
2261.0,0.0136
2260.0,0.0136
2259.0,0.0136
2258.0,0.0136
2257.0,0.0136
2256.0,0.0135
2255.0,0.0135
2254.0,0.0135
2253.0,0.0135
2252.0,0.0135
2251.0,0.0134
2250.0,0.0134
2249.0,0.0134
2248.0,0.0133
2247.0,0.0133
2246.0,0.0133
2245.0,0.0133
2244.0,0.0133
2243.0,0.0133
2242.0,0.0133
2241.0,0.0133
2240.0,0.0133
2239.0,0.0133
2238.0,0.0133
2237.0,0.0133
2236.0,0.0133
2235.0,0.0134
2234.0,0.0134
2233.0,0.0134
2232.0,0.0134
2231.0,0.0134
2230.0,0.0134
2229.0,0.0134
2228.0,0.0134
2227.0,0.0134
2226.0,0.0134
2225.0,0.0134
2224.0,0.0134
2223.0,0.0133
2222.0,0.0133
2221.0,0.0133
2220.0,0.0134
2219.0,0.0134
2218.0,0.0134
2217.0,0.0134
2216.0,0.0134
2215.0,0.0134
2214.0,0.0133
2213.0,0.0133
2212.0,0.0133
2211.0,0.0133
2210.0,0.0133
2209.0,0.0133
2208.0,0.0133
2207.0,0.0133
2206.0,0.0133
2205.0,0.0133
2204.0,0.0133
2203.0,0.0133
2202.0,0.0133
2201.0,0.0134
2200.0,0.0134
2199.0,0.0135
2198.0,0.0135
2197.0,0.0135
2196.0,0.0134
2195.0,0.0134
2194.0,0.0134
2193.0,0.0134
2192.0,0.0134
2191.0,0.0134
2190.0,0.0134
2189.0,0.0134
2188.0,0.0134
2187.0,0.0134
2186.0,0.0135
2185.0,0.0135
2184.0,0.0135
2183.0,0.0134
2182.0,0.0134
2181.0,0.0134
2180.0,0.0134
2179.0,0.0134
2178.0,0.0134
2177.0,0.0134
2176.0,0.0134
2175.0,0.0133
2174.0,0.0133
2173.0,0.0133
2172.0,0.0133
2171.0,0.0133
2170.0,0.0133
2169.0,0.0133
2168.0,0.0134
2167.0,0.0134
2166.0,0.0134
2165.0,0.0134
2164.0,0.0134
2163.0,0.0134
2162.0,0.0133
2161.0,0.0132
2160.0,0.0132
2159.0,0.0132
2158.0,0.0132
2157.0,0.0132
2156.0,0.0133
2155.0,0.0133
2154.0,0.0133
2153.0,0.0133
2152.0,0.0132
2151.0,0.0132
2150.0,0.0132
2149.0,0.0132
2148.0,0.0132
2147.0,0.0132
2146.0,0.0132
2145.0,0.0132
2144.0,0.0132
2143.0,0.0132
2142.0,0.0132
2141.0,0.0132
2140.0,0.0132
2139.0,0.0131
2138.0,0.0131
2137.0,0.0132
2136.0,0.0132
2135.0,0.0133
2134.0,0.0133
2133.0,0.0133
2132.0,0.0133
2131.0,0.0132
2130.0,0.0131
2129.0,0.0131
2128.0,0.0131
2127.0,0.0132
2126.0,0.0132
2125.0,0.0132
2124.0,0.0132
2123.0,0.0131
2122.0,0.0131
2121.0,0.0131
2120.0,0.013
2119.0,0.013
2118.0,0.0129
2117.0,0.0129
2116.0,0.0129
2115.0,0.0129
2114.0,0.013
2113.0,0.013
2112.0,0.013
2111.0,0.013
2110.0,0.0129
2109.0,0.0129
2108.0,0.0128
2107.0,0.0128
2106.0,0.0128
2105.0,0.0128
2104.0,0.0128
2103.0,0.0128
2102.0,0.0128
2101.0,0.0128
2100.0,0.0128
2099.0,0.0128
2098.0,0.0128
2097.0,0.0128
2096.0,0.0129
2095.0,0.0129
2094.0,0.0129
2093.0,0.0129
2092.0,0.013
2091.0,0.013
2090.0,0.013
2089.0,0.0129
2088.0,0.0129
2087.0,0.0129
2086.0,0.0129
2085.0,0.0129
2084.0,0.0129
2083.0,0.0129
2082.0,0.0129
2081.0,0.0128
2080.0,0.0128
2079.0,0.0128
2078.0,0.0128
2077.0,0.0128
2076.0,0.0128
2075.0,0.0128
2074.0,0.0128
2073.0,0.0128
2072.0,0.0128
2071.0,0.0128
2070.0,0.0129
2069.0,0.0129
2068.0,0.0129
2067.0,0.0128
2066.0,0.0128
2065.0,0.0128
2064.0,0.0128
2063.0,0.0129
2062.0,0.0129
2061.0,0.0129
2060.0,0.0128
2059.0,0.0128
2058.0,0.0128
2057.0,0.0128
2056.0,0.0128
2055.0,0.0128
2054.0,0.0128
2053.0,0.0128
2052.0,0.0128
2051.0,0.0128
2050.0,0.0128
2049.0,0.0129
2048.0,0.0129
2047.0,0.0129
2046.0,0.0129
2045.0,0.0128
2044.0,0.0128
2043.0,0.0127
2042.0,0.0127
2041.0,0.0127
2040.0,0.0128
2039.0,0.0128
2038.0,0.0128
2037.0,0.0128
2036.0,0.0129
2035.0,0.0129
2034.0,0.0129
2033.0,0.0129
2032.0,0.0129
2031.0,0.0129
2030.0,0.0129
2029.0,0.0129
2028.0,0.0129
2027.0,0.0129
2026.0,0.0129
2025.0,0.0129
2024.0,0.0128
2023.0,0.0128
2022.0,0.0128
2021.0,0.0128
2020.0,0.0127
2019.0,0.0127
2018.0,0.0127
2017.0,0.0127
2016.0,0.0128
2015.0,0.0128
2014.0,0.0128
2013.0,0.0128
2012.0,0.0128
2011.0,0.0128
2010.0,0.0128
2009.0,0.0128
2008.0,0.0128
2007.0,0.0129
2006.0,0.0129
2005.0,0.0129
2004.0,0.0129
2003.0,0.0129
2002.0,0.0129
2001.0,0.0128
2000.0,0.0128
1999.0,0.0128
1998.0,0.0128
1997.0,0.0128
1996.0,0.0128
1995.0,0.0128
1994.0,0.0128
1993.0,0.0128
1992.0,0.0128
1991.0,0.0128
1990.0,0.0129
1989.0,0.0129
1988.0,0.0129
1987.0,0.0128
1986.0,0.0128
1985.0,0.0128
1984.0,0.0128
1983.0,0.0128
1982.0,0.0128
1981.0,0.0128
1980.0,0.0128
1979.0,0.0128
1978.0,0.0128
1977.0,0.0128
1976.0,0.0128
1975.0,0.0128
1974.0,0.0128
1973.0,0.0128
1972.0,0.0127
1971.0,0.0127
1970.0,0.0128
1969.0,0.0128
1968.0,0.0129
1967.0,0.013
1966.0,0.013
1965.0,0.013
1964.0,0.0129
1963.0,0.0129
1962.0,0.0129
1961.0,0.0129
1960.0,0.0129
1959.0,0.0129
1958.0,0.0129
1957.0,0.0129
1956.0,0.0129
1955.0,0.013
1954.0,0.0129
1953.0,0.0129
1952.0,0.0128
1951.0,0.0128
1950.0,0.0128
1949.0,0.0128
1948.0,0.0128
1947.0,0.0128
1946.0,0.0128
1945.0,0.0128
1944.0,0.0129
1943.0,0.0129
1942.0,0.0129
1941.0,0.0128
1940.0,0.0128
1939.0,0.0128
1938.0,0.0128
1937.0,0.0128
1936.0,0.0128
1935.0,0.0128
1934.0,0.0128
1933.0,0.0128
1932.0,0.0128
1931.0,0.0129
1930.0,0.0129
1929.0,0.0129
1928.0,0.0129
1927.0,0.0128
1926.0,0.0128
1925.0,0.0129
1924.0,0.013
1923.0,0.013
1922.0,0.0131
1921.0,0.013
1920.0,0.0129
1919.0,0.0129
1918.0,0.0129
1917.0,0.0129
1916.0,0.013
1915.0,0.013
1914.0,0.013
1913.0,0.013
1912.0,0.013
1911.0,0.0129
1910.0,0.0129
1909.0,0.0129
1908.0,0.013
1907.0,0.013
1906.0,0.013
1905.0,0.0131
1904.0,0.0131
1903.0,0.013
1902.0,0.013
1901.0,0.013
1900.0,0.013
1899.0,0.0131
1898.0,0.0131
1897.0,0.0131
1896.0,0.0131
1895.0,0.0131
1894.0,0.0131
1893.0,0.0131
1892.0,0.0131
1891.0,0.0131
1890.0,0.0131
1889.0,0.0131
1888.0,0.0131
1887.0,0.013
1886.0,0.013
1885.0,0.013
1884.0,0.013
1883.0,0.013
1882.0,0.013
1881.0,0.013
1880.0,0.013
1879.0,0.013
1878.0,0.0129
1877.0,0.0129
1876.0,0.0129
1875.0,0.0129
1874.0,0.0129
1873.0,0.013
1872.0,0.013
1871.0,0.013
1870.0,0.013
1869.0,0.0131
1868.0,0.0131
1867.0,0.013
1866.0,0.013
1865.0,0.013
1864.0,0.013
1863.0,0.013
1862.0,0.0129
1861.0,0.0129
1860.0,0.0129
1859.0,0.013
1858.0,0.013
1857.0,0.013
1856.0,0.013
1855.0,0.013
1854.0,0.013
1853.0,0.013
1852.0,0.013
1851.0,0.013
1850.0,0.013
1849.0,0.013
1848.0,0.0131
1847.0,0.0131
1846.0,0.0131
1845.0,0.0131
1844.0,0.0131
1843.0,0.0131
1842.0,0.0131
1841.0,0.0131
1840.0,0.0132
1839.0,0.0132
1838.0,0.0132
1837.0,0.0131
1836.0,0.0131
1835.0,0.0131
1834.0,0.0131
1833.0,0.0131
1832.0,0.0131
1831.0,0.0131
1830.0,0.0131
1829.0,0.0132
1828.0,0.0132
1827.0,0.0132
1826.0,0.0132
1825.0,0.0131
1824.0,0.0131
1823.0,0.0131
1822.0,0.013
1821.0,0.013
1820.0,0.013
1819.0,0.013
1818.0,0.013
1817.0,0.013
1816.0,0.0131
1815.0,0.0131
1814.0,0.013
1813.0,0.0131
1812.0,0.0131
1811.0,0.0132
1810.0,0.0131
1809.0,0.0131
1808.0,0.013
1807.0,0.0129
1806.0,0.0129
1805.0,0.0129
1804.0,0.0129
1803.0,0.0129
1802.0,0.0129
1801.0,0.013
1800.0,0.0131
1799.0,0.0131
1798.0,0.0131
1797.0,0.0131
1796.0,0.0131
1795.0,0.013
1794.0,0.013
1793.0,0.0129
1792.0,0.013
1791.0,0.0131
1790.0,0.0132
1789.0,0.0132
1788.0,0.0133
1787.0,0.0133
1786.0,0.0133
1785.0,0.0133
1784.0,0.0133
1783.0,0.0133
1782.0,0.0133
1781.0,0.0133
1780.0,0.0134
1779.0,0.0134
1778.0,0.0133
1777.0,0.0134
1776.0,0.0134
1775.0,0.0135
1774.0,0.0135
1773.0,0.0135
1772.0,0.0136
1771.0,0.0136
1770.0,0.0136
1769.0,0.0136
1768.0,0.0136
1767.0,0.0136
1766.0,0.0136
1765.0,0.0136
1764.0,0.0137
1763.0,0.0139
1762.0,0.014
1761.0,0.0141
1760.0,0.0142
1759.0,0.0143
1758.0,0.0144
1757.0,0.0146
1756.0,0.0149
1755.0,0.0151
1754.0,0.0152
1753.0,0.0154
1752.0,0.0156
1751.0,0.0158
1750.0,0.0161
1749.0,0.0164
1748.0,0.0167
1747.0,0.0169
1746.0,0.0169
1745.0,0.017
1744.0,0.0171
1743.0,0.0171
1742.0,0.0171
1741.0,0.0169
1740.0,0.0168
1739.0,0.0167
1738.0,0.0165
1737.0,0.0163
1736.0,0.0161
1735.0,0.0158
1734.0,0.0156
1733.0,0.0155
1732.0,0.0156
1731.0,0.0156
1730.0,0.0156
1729.0,0.0156
1728.0,0.0155
1727.0,0.0155
1726.0,0.0154
1725.0,0.0154
1724.0,0.0154
1723.0,0.0153
1722.0,0.0153
1721.0,0.0152
1720.0,0.0152
1719.0,0.0151
1718.0,0.015
1717.0,0.0151
1716.0,0.0152
1715.0,0.0152
1714.0,0.0153
1713.0,0.0153
1712.0,0.0152
1711.0,0.0152
1710.0,0.0152
1709.0,0.0153
1708.0,0.0153
1707.0,0.0154
1706.0,0.0155
1705.0,0.0156
1704.0,0.0157
1703.0,0.0157
1702.0,0.0157
1701.0,0.0156
1700.0,0.0156
1699.0,0.0156
1698.0,0.0157
1697.0,0.0158
1696.0,0.016
1695.0,0.016
1694.0,0.016
1693.0,0.0161
1692.0,0.0162
1691.0,0.0162
1690.0,0.0163
1689.0,0.0163
1688.0,0.0164
1687.0,0.0165
1686.0,0.0165
1685.0,0.0166
1684.0,0.0168
1683.0,0.0169
1682.0,0.0169
1681.0,0.017
1680.0,0.0171
1679.0,0.0172
1678.0,0.0173
1677.0,0.0173
1676.0,0.0174
1675.0,0.0174
1674.0,0.0174
1673.0,0.0175
1672.0,0.0175
1671.0,0.0176
1670.0,0.0177
1669.0,0.0178
1668.0,0.0179
1667.0,0.0179
1666.0,0.0179
1665.0,0.0179
1664.0,0.0179
1663.0,0.0179
1662.0,0.018
1661.0,0.018
1660.0,0.018
1659.0,0.018
1658.0,0.018
1657.0,0.0181
1656.0,0.0182
1655.0,0.0181
1654.0,0.0181
1653.0,0.0182
1652.0,0.018
1651.0,0.0179
1650.0,0.0181
1649.0,0.0182
1648.0,0.0183
1647.0,0.0184
1646.0,0.0184
1645.0,0.0182
1644.0,0.018
1643.0,0.018
1642.0,0.0179
1641.0,0.0179
1640.0,0.0178
1639.0,0.0178
1638.0,0.0177
1637.0,0.0177
1636.0,0.0178
1635.0,0.0178
1634.0,0.0176
1633.0,0.0176
1632.0,0.0175
1631.0,0.0175
1630.0,0.0175
1629.0,0.0175
1628.0,0.0175
1627.0,0.0174
1626.0,0.0174
1625.0,0.0174
1624.0,0.0174
1623.0,0.0173
1622.0,0.0173
1621.0,0.0172
1620.0,0.0172
1619.0,0.0171
1618.0,0.0171
1617.0,0.0171
1616.0,0.017
1615.0,0.017
1614.0,0.017
1613.0,0.017
1612.0,0.0169
1611.0,0.0169
1610.0,0.0169
1609.0,0.017
1608.0,0.017
1607.0,0.0171
1606.0,0.017
1605.0,0.017
1604.0,0.0169
1603.0,0.0169
1602.0,0.0169
1601.0,0.0169
1600.0,0.0169
1599.0,0.0168
1598.0,0.0168
1597.0,0.0167
1596.0,0.0167
1595.0,0.0167
1594.0,0.0167
1593.0,0.0167
1592.0,0.0167
1591.0,0.0167
1590.0,0.0167
1589.0,0.0167
1588.0,0.0167
1587.0,0.0167
1586.0,0.0167
1585.0,0.0167
1584.0,0.0167
1583.0,0.0167
1582.0,0.0167
1581.0,0.0166
1580.0,0.0166
1579.0,0.0166
1578.0,0.0165
1577.0,0.0165
1576.0,0.0164
1575.0,0.0163
1574.0,0.0162
1573.0,0.0162
1572.0,0.0161
1571.0,0.0161
1570.0,0.016
1569.0,0.016
1568.0,0.016
1567.0,0.0159
1566.0,0.0159
1565.0,0.0158
1564.0,0.0158
1563.0,0.0157
1562.0,0.0158
1561.0,0.0157
1560.0,0.0156
1559.0,0.0159
1558.0,0.0159
1557.0,0.0157
1556.0,0.0157
1555.0,0.0157
1554.0,0.0157
1553.0,0.0157
1552.0,0.0157
1551.0,0.0158
1550.0,0.0159
1549.0,0.0159
1548.0,0.0158
1547.0,0.0157
1546.0,0.0156
1545.0,0.0156
1544.0,0.0157
1543.0,0.0157
1542.0,0.0157
1541.0,0.0157
1540.0,0.0157
1539.0,0.0155
1538.0,0.0152
1537.0,0.0151
1536.0,0.0151
1535.0,0.015
1534.0,0.0149
1533.0,0.0148
1532.0,0.0147
1531.0,0.0146
1530.0,0.0145
1529.0,0.0145
1528.0,0.0145
1527.0,0.0144
1526.0,0.0143
1525.0,0.0143
1524.0,0.0143
1523.0,0.0142
1522.0,0.0141
1521.0,0.0142
1520.0,0.0142
1519.0,0.0141
1518.0,0.014
1517.0,0.014
1516.0,0.014
1515.0,0.0139
1514.0,0.0138
1513.0,0.0137
1512.0,0.0137
1511.0,0.0137
1510.0,0.0136
1509.0,0.0137
1508.0,0.0139
1507.0,0.014
1506.0,0.0137
1505.0,0.0134
1504.0,0.0133
1503.0,0.0133
1502.0,0.0133
1501.0,0.0133
1500.0,0.0134
1499.0,0.0134
1498.0,0.0134
1497.0,0.0135
1496.0,0.0136
1495.0,0.0135
1494.0,0.0135
1493.0,0.0136
1492.0,0.0137
1491.0,0.0137
1490.0,0.0137
1489.0,0.014
1488.0,0.0142
1487.0,0.0143
1486.0,0.0144
1485.0,0.0146
1484.0,0.0149
1483.0,0.0151
1482.0,0.0155
1481.0,0.0161
1480.0,0.0167
1479.0,0.0174
1478.0,0.0182
1477.0,0.0194
1476.0,0.0209
1475.0,0.0226
1474.0,0.0251
1473.0,0.0296
1472.0,0.0351
1471.0,0.0399
1470.0,0.0443
1469.0,0.0489
1468.0,0.0541
1467.0,0.0599
1466.0,0.0671
1465.0,0.0755
1464.0,0.0827
1463.0,0.0873
1462.0,0.0901
1461.0,0.0922
1460.0,0.0938
1459.0,0.0948
1458.0,0.0963
1457.0,0.0984
1456.0,0.0994
1455.0,0.0993
1454.0,0.099
1453.0,0.0983
1452.0,0.0969
1451.0,0.0949
1450.0,0.0919
1449.0,0.0874
1448.0,0.0814
1447.0,0.075
1446.0,0.0693
1445.0,0.0643
1444.0,0.0599
1443.0,0.0561
1442.0,0.0532
1441.0,0.0512
1440.0,0.0499
1439.0,0.0493
1438.0,0.0496
1437.0,0.0503
1436.0,0.0502
1435.0,0.0488
1434.0,0.0462
1433.0,0.043
1432.0,0.0394
1431.0,0.0361
1430.0,0.0335
1429.0,0.0315
1428.0,0.03
1427.0,0.029
1426.0,0.0283
1425.0,0.0276
1424.0,0.0269
1423.0,0.0265
1422.0,0.0262
1421.0,0.0258
1420.0,0.0253
1419.0,0.0251
1418.0,0.0249
1417.0,0.0245
1416.0,0.0241
1415.0,0.0238
1414.0,0.0235
1413.0,0.0232
1412.0,0.0229
1411.0,0.0227
1410.0,0.0226
1409.0,0.0223
1408.0,0.022
1407.0,0.0218
1406.0,0.0216
1405.0,0.0213
1404.0,0.0211
1403.0,0.0209
1402.0,0.0208
1401.0,0.0205
1400.0,0.0203
1399.0,0.0202
1398.0,0.0201
1397.0,0.0199
1396.0,0.0196
1395.0,0.0196
1394.0,0.0196
1393.0,0.0195
1392.0,0.0194
1391.0,0.0196
1390.0,0.0199
1389.0,0.0204
1388.0,0.0214
1387.0,0.0233
1386.0,0.0263
1385.0,0.0303
1384.0,0.0362
1383.0,0.0447
1382.0,0.0564
1381.0,0.0714
1380.0,0.0901
1379.0,0.1116
1378.0,0.1324
1377.0,0.1481
1376.0,0.1552
1375.0,0.151
1374.0,0.1368
1373.0,0.119
1372.0,0.1027
1371.0,0.0886
1370.0,0.0764
1369.0,0.0664
1368.0,0.0591
1367.0,0.0544
1366.0,0.0516
1365.0,0.0502
1364.0,0.0499
1363.0,0.0507
1362.0,0.0524
1361.0,0.0544
1360.0,0.0558
1359.0,0.0564
1358.0,0.0558
1357.0,0.054
1356.0,0.0513
1355.0,0.0481
1354.0,0.0449
1353.0,0.0421
1352.0,0.0398
1351.0,0.0379
1350.0,0.0362
1349.0,0.0348
1348.0,0.0337
1347.0,0.0326
1346.0,0.0317
1345.0,0.0309
1344.0,0.0303
1343.0,0.0297
1342.0,0.0291
1341.0,0.0287
1340.0,0.0283
1339.0,0.0281
1338.0,0.0279
1337.0,0.0279
1336.0,0.0279
1335.0,0.0279
1334.0,0.0281
1333.0,0.0283
1332.0,0.0287
1331.0,0.029
1330.0,0.0291
1329.0,0.029
1328.0,0.0287
1327.0,0.0283
1326.0,0.0278
1325.0,0.0273
1324.0,0.0269
1323.0,0.0264
1322.0,0.026
1321.0,0.0257
1320.0,0.0254
1319.0,0.0252
1318.0,0.025
1317.0,0.0248
1316.0,0.0246
1315.0,0.0245
1314.0,0.0243
1313.0,0.0243
1312.0,0.0242
1311.0,0.0242
1310.0,0.0243
1309.0,0.0246
1308.0,0.025
1307.0,0.0256
1306.0,0.0263
1305.0,0.0268
1304.0,0.027
1303.0,0.0269
1302.0,0.0267
1301.0,0.0266
1300.0,0.0266
1299.0,0.0267
1298.0,0.0268
1297.0,0.027
1296.0,0.0271
1295.0,0.027
1294.0,0.0268
1293.0,0.0265
1292.0,0.0261
1291.0,0.0257
1290.0,0.0253
1289.0,0.025
1288.0,0.0247
1287.0,0.0245
1286.0,0.0243
1285.0,0.0241
1284.0,0.0239
1283.0,0.0238
1282.0,0.0237
1281.0,0.0236
1280.0,0.0235
1279.0,0.0235
1278.0,0.0234
1277.0,0.0234
1276.0,0.0233
1275.0,0.0233
1274.0,0.0233
1273.0,0.0233
1272.0,0.0233
1271.0,0.0233
1270.0,0.0233
1269.0,0.0233
1268.0,0.0234
1267.0,0.0235
1266.0,0.0236
1265.0,0.0237
1264.0,0.0238
1263.0,0.0239
1262.0,0.0241
1261.0,0.0244
1260.0,0.0248
1259.0,0.0252
1258.0,0.0257
1257.0,0.0262
1256.0,0.0264
1255.0,0.0263
1254.0,0.0261
1253.0,0.0257
1252.0,0.0252
1251.0,0.0248
1250.0,0.0245
1249.0,0.0242
1248.0,0.024
1247.0,0.0238
1246.0,0.0237
1245.0,0.0235
1244.0,0.0234
1243.0,0.0233
1242.0,0.0231
1241.0,0.0231
1240.0,0.023
1239.0,0.023
1238.0,0.0229
1237.0,0.0229
1236.0,0.0228
1235.0,0.0228
1234.0,0.0228
1233.0,0.0227
1232.0,0.0227
1231.0,0.0228
1230.0,0.0228
1229.0,0.0228
1228.0,0.0229
1227.0,0.023
1226.0,0.0231
1225.0,0.0233
1224.0,0.0236
1223.0,0.0239
1222.0,0.0241
1221.0,0.0244
1220.0,0.0245
1219.0,0.0246
1218.0,0.0245
1217.0,0.0244
1216.0,0.0242
1215.0,0.024
1214.0,0.0238
1213.0,0.0236
1212.0,0.0235
1211.0,0.0234
1210.0,0.0233
1209.0,0.0232
1208.0,0.0231
1207.0,0.0231
1206.0,0.0231
1205.0,0.0231
1204.0,0.0231
1203.0,0.0231
1202.0,0.0231
1201.0,0.0231
1200.0,0.0231
1199.0,0.0231
1198.0,0.0231
1197.0,0.0232
1196.0,0.0232
1195.0,0.0232
1194.0,0.0232
1193.0,0.0232
1192.0,0.0233
1191.0,0.0233
1190.0,0.0234
1189.0,0.0234
1188.0,0.0235
1187.0,0.0235
1186.0,0.0236
1185.0,0.0236
1184.0,0.0237
1183.0,0.0238
1182.0,0.024
1181.0,0.0242
1180.0,0.0244
1179.0,0.0248
1178.0,0.0252
1177.0,0.0258
1176.0,0.0265
1175.0,0.0275
1174.0,0.0288
1173.0,0.0304
1172.0,0.0323
1171.0,0.0344
1170.0,0.0365
1169.0,0.0381
1168.0,0.0391
1167.0,0.0395
1166.0,0.0392
1165.0,0.0386
1164.0,0.0379
1163.0,0.0372
1162.0,0.0366
1161.0,0.0362
1160.0,0.0358
1159.0,0.0356
1158.0,0.0354
1157.0,0.0353
1156.0,0.0353
1155.0,0.0353
1154.0,0.0354
1153.0,0.0354
1152.0,0.0352
1151.0,0.0348
1150.0,0.0342
1149.0,0.0334
1148.0,0.0327
1147.0,0.0319
1146.0,0.0313
1145.0,0.0306
1144.0,0.03
1143.0,0.0294
1142.0,0.0289
1141.0,0.0284
1140.0,0.0279
1139.0,0.0275
1138.0,0.0272
1137.0,0.0269
1136.0,0.0267
1135.0,0.0265
1134.0,0.0264
1133.0,0.0262
1132.0,0.0261
1131.0,0.026
1130.0,0.026
1129.0,0.0259
1128.0,0.026
1127.0,0.026
1126.0,0.026
1125.0,0.026
1124.0,0.0261
1123.0,0.0261
1122.0,0.0262
1121.0,0.0262
1120.0,0.0262
1119.0,0.0262
1118.0,0.0263
1117.0,0.0264
1116.0,0.0264
1115.0,0.0265
1114.0,0.0266
1113.0,0.0267
1112.0,0.0268
1111.0,0.027
1110.0,0.0272
1109.0,0.0275
1108.0,0.0279
1107.0,0.0284
1106.0,0.0289
1105.0,0.0296
1104.0,0.0302
1103.0,0.0307
1102.0,0.0308
1101.0,0.0307
1100.0,0.0303
1099.0,0.0297
1098.0,0.0292
1097.0,0.0287
1096.0,0.0282
1095.0,0.0278
1094.0,0.0275
1093.0,0.0272
1092.0,0.027
1091.0,0.0267
1090.0,0.0266
1089.0,0.0266
1088.0,0.0265
1087.0,0.0265
1086.0,0.0265
1085.0,0.0264
1084.0,0.0263
1083.0,0.0262
1082.0,0.026
1081.0,0.0259
1080.0,0.0258
1079.0,0.0257
1078.0,0.0256
1077.0,0.0255
1076.0,0.0255
1075.0,0.0255
1074.0,0.0255
1073.0,0.0255
1072.0,0.0254
1071.0,0.0254
1070.0,0.0254
1069.0,0.0253
1068.0,0.0253
1067.0,0.0253
1066.0,0.0253
1065.0,0.0253
1064.0,0.0253
1063.0,0.0253
1062.0,0.0253
1061.0,0.0254
1060.0,0.0254
1059.0,0.0254
1058.0,0.0255
1057.0,0.0254
1056.0,0.0253
1055.0,0.0253
1054.0,0.0252
1053.0,0.0252
1052.0,0.0253
1051.0,0.0253
1050.0,0.0254
1049.0,0.0256
1048.0,0.0257
1047.0,0.0259
1046.0,0.026
1045.0,0.026
1044.0,0.0259
1043.0,0.0257
1042.0,0.0255
1041.0,0.0252
1040.0,0.025
1039.0,0.0248
1038.0,0.0247
1037.0,0.0246
1036.0,0.0245
1035.0,0.0244
1034.0,0.0242
1033.0,0.0241
1032.0,0.0239
1031.0,0.0238
1030.0,0.0236
1029.0,0.0235
1028.0,0.0234
1027.0,0.0232
1026.0,0.0231
1025.0,0.023
1024.0,0.023
1023.0,0.023
1022.0,0.023
1021.0,0.023
1020.0,0.0229
1019.0,0.0228
1018.0,0.0227
1017.0,0.0227
1016.0,0.0227
1015.0,0.0228
1014.0,0.0229
1013.0,0.0229
1012.0,0.023
1011.0,0.0231
1010.0,0.0232
1009.0,0.0235
1008.0,0.0238
1007.0,0.0242
1006.0,0.0248
1005.0,0.0256
1004.0,0.0266
1003.0,0.0281
1002.0,0.0301
1001.0,0.0325
1000.0,0.0351
999.0,0.0373
998.0,0.0385
997.0,0.0384
996.0,0.0369
995.0,0.0347
994.0,0.0324
993.0,0.0302
992.0,0.0284
991.0,0.027
990.0,0.0259
989.0,0.0251
988.0,0.0246
987.0,0.0244
986.0,0.0243
985.0,0.0243
984.0,0.0245
983.0,0.0249
982.0,0.0255
981.0,0.0266
980.0,0.0282
979.0,0.0305
978.0,0.0334
977.0,0.0368
976.0,0.0404
975.0,0.0435
974.0,0.0457
973.0,0.0463
972.0,0.0453
971.0,0.0428
970.0,0.0396
969.0,0.0365
968.0,0.0337
967.0,0.0316
966.0,0.03
965.0,0.0288
964.0,0.0279
963.0,0.0271
962.0,0.0265
961.0,0.026
960.0,0.0255
959.0,0.0252
958.0,0.0249
957.0,0.0246
956.0,0.0243
955.0,0.0241
954.0,0.0238
953.0,0.0236
952.0,0.0234
951.0,0.0233
950.0,0.0233
949.0,0.0232
948.0,0.0232
947.0,0.0232
946.0,0.0233
945.0,0.0235
944.0,0.0238
943.0,0.0242
942.0,0.0246
941.0,0.0248
940.0,0.0249
939.0,0.0247
938.0,0.0242
937.0,0.0237
936.0,0.0232
935.0,0.0228
934.0,0.0225
933.0,0.0222
932.0,0.0221
931.0,0.022
930.0,0.022
929.0,0.022
928.0,0.0219
927.0,0.0218
926.0,0.0217
925.0,0.0217
924.0,0.0217
923.0,0.0216
922.0,0.0215
921.0,0.0215
920.0,0.0214
919.0,0.0214
918.0,0.0214
917.0,0.0215
916.0,0.0215
915.0,0.0215
914.0,0.0215
913.0,0.0215
912.0,0.0215
911.0,0.0216
910.0,0.0217
909.0,0.0219
908.0,0.0222
907.0,0.0225
906.0,0.0232
905.0,0.0241
904.0,0.0254
903.0,0.0271
902.0,0.029
901.0,0.0309
900.0,0.0324
899.0,0.0331
898.0,0.0328
897.0,0.0317
896.0,0.0302
895.0,0.0285
894.0,0.0272
893.0,0.0261
892.0,0.0254
891.0,0.0248
890.0,0.0245
889.0,0.0242
888.0,0.024
887.0,0.0238
886.0,0.0236
885.0,0.0234
884.0,0.0232
883.0,0.0231
882.0,0.0229
881.0,0.0228
880.0,0.0228
879.0,0.0228
878.0,0.0229
877.0,0.0229
876.0,0.023
875.0,0.023
874.0,0.0231
873.0,0.0231
872.0,0.0231
871.0,0.0231
870.0,0.0232
869.0,0.0233
868.0,0.0234
867.0,0.0234
866.0,0.0234
865.0,0.0234
864.0,0.0233
863.0,0.0233
862.0,0.0234
861.0,0.0234
860.0,0.0234
859.0,0.0235
858.0,0.0237
857.0,0.0239
856.0,0.024
855.0,0.0241
854.0,0.0241
853.0,0.0242
852.0,0.0244
851.0,0.0246
850.0,0.0249
849.0,0.0251
848.0,0.0256
847.0,0.0263
846.0,0.0275
845.0,0.0296
844.0,0.0324
843.0,0.0356
842.0,0.0381
841.0,0.0389
840.0,0.0375
839.0,0.0348
838.0,0.0319
837.0,0.0297
836.0,0.0281
835.0,0.0272
834.0,0.0266
833.0,0.0262
832.0,0.0259
831.0,0.0257
830.0,0.0255
829.0,0.0252
828.0,0.025
827.0,0.0248
826.0,0.0246
825.0,0.0245
824.0,0.0245
823.0,0.0245
822.0,0.0244
821.0,0.0244
820.0,0.0245
819.0,0.0247
818.0,0.0251
817.0,0.0256
816.0,0.0262
815.0,0.0272
814.0,0.0285
813.0,0.0303
812.0,0.0323
811.0,0.0341
810.0,0.0356
809.0,0.0364
808.0,0.0364
807.0,0.0357
806.0,0.0345
805.0,0.033
804.0,0.0316
803.0,0.0304
802.0,0.0295
801.0,0.0288
800.0,0.0282
799.0,0.0278
798.0,0.0274
797.0,0.027
796.0,0.0266
795.0,0.0262
794.0,0.0257
793.0,0.0254
792.0,0.0252
791.0,0.0251
790.0,0.0251
789.0,0.025
788.0,0.0247
787.0,0.0244
786.0,0.0242
785.0,0.0241
784.0,0.024
783.0,0.0238
782.0,0.0236
781.0,0.0233
780.0,0.0231
779.0,0.023
778.0,0.023
777.0,0.023
776.0,0.0229
775.0,0.0229
774.0,0.0228
773.0,0.0228
772.0,0.0228
771.0,0.0228
770.0,0.0227
769.0,0.0227
768.0,0.0226
767.0,0.0226
766.0,0.0226
765.0,0.0227
764.0,0.0227
763.0,0.0228
762.0,0.0228
761.0,0.0228
760.0,0.0229
759.0,0.0229
758.0,0.0229
757.0,0.0227
756.0,0.0225
755.0,0.0224
754.0,0.0225
753.0,0.0227
752.0,0.0229
751.0,0.023
750.0,0.0229
749.0,0.0229
748.0,0.0229
747.0,0.023
746.0,0.023
745.0,0.023
744.0,0.0229
743.0,0.0228
742.0,0.0229
741.0,0.0229
740.0,0.023
739.0,0.023
738.0,0.0228
737.0,0.0226
736.0,0.0225
735.0,0.0224
734.0,0.0224
733.0,0.0225
732.0,0.0226
731.0,0.0228
730.0,0.0231
729.0,0.0234
728.0,0.0237
727.0,0.0238
726.0,0.0236
725.0,0.0233
724.0,0.023
723.0,0.0227
722.0,0.0226
721.0,0.0226
720.0,0.0227
719.0,0.0226
718.0,0.0224
717.0,0.0224
716.0,0.0224
715.0,0.0225
714.0,0.0226
713.0,0.0226
712.0,0.0226
711.0,0.0226
710.0,0.0227
709.0,0.0228
708.0,0.0229
707.0,0.0231
706.0,0.0233
705.0,0.0235
704.0,0.0237
703.0,0.0236
702.0,0.0233
701.0,0.0231
700.0,0.0232
699.0,0.0234
698.0,0.0236
697.0,0.0237
696.0,0.0238
695.0,0.0239
694.0,0.0239
693.0,0.0235
692.0,0.0231
691.0,0.023
690.0,0.0231
689.0,0.0233
688.0,0.0238
687.0,0.0244
686.0,0.0251
685.0,0.0255
684.0,0.0257
683.0,0.0255
682.0,0.0252
681.0,0.0247
680.0,0.0242
679.0,0.0237
678.0,0.0233
677.0,0.0232
676.0,0.0232
675.0,0.0233
674.0,0.0237
673.0,0.0241
672.0,0.0246
671.0,0.0249
670.0,0.0255
669.0,0.0263
668.0,0.0264
667.0,0.0254
666.0,0.0244
665.0,0.0239
664.0,0.0237
663.0,0.0237
662.0,0.0239
661.0,0.0239
660.0,0.0238
659.0,0.0236
658.0,0.0232
657.0,0.0228
656.0,0.0227
655.0,0.0229
654.0,0.0232
653.0,0.0238
652.0,0.0242
651.0,0.0243
650.0,0.0239
649.0,0.0236
648.0,0.0235
647.0,0.0235
646.0,0.0234
645.0,0.0233
644.0,0.0233
643.0,0.0236
642.0,0.0239
641.0,0.0241
640.0,0.0243
639.0,0.0247
638.0,0.0256
637.0,0.027
636.0,0.0285
635.0,0.0292
634.0,0.0288
633.0,0.0276
632.0,0.0263
631.0,0.0253
630.0,0.0245
629.0,0.0239
628.0,0.0238
627.0,0.0241
626.0,0.0246
625.0,0.0252
624.0,0.0258
623.0,0.0263
622.0,0.0266
621.0,0.0266
620.0,0.0263
619.0,0.0257
618.0,0.025
617.0,0.0244
616.0,0.0243
615.0,0.0247
614.0,0.0254
613.0,0.026
612.0,0.0264
611.0,0.0264
610.0,0.0263
609.0,0.0262
608.0,0.0266
607.0,0.0271
606.0,0.0272
605.0,0.027
604.0,0.0266
603.0,0.0264
602.0,0.0265
601.0,0.0265
600.0,0.0263
