cm-1,A
4000.0,-0.006
3999.0,-0.006
3998.0,-0.0059
3997.0,-0.0059
3996.0,-0.0059
3995.0,-0.0059
3994.0,-0.006
3993.0,-0.0059
3992.0,-0.0059
3991.0,-0.0058
3990.0,-0.0057
3989.0,-0.0057
3988.0,-0.0056
3987.0,-0.0057
3986.0,-0.0058
3985.0,-0.0059
3984.0,-0.006
3983.0,-0.0061
3982.0,-0.0061
3981.0,-0.006
3980.0,-0.0059
3979.0,-0.0059
3978.0,-0.0059
3977.0,-0.006
3976.0,-0.006
3975.0,-0.0061
3974.0,-0.0061
3973.0,-0.0062
3972.0,-0.0062
3971.0,-0.0062
3970.0,-0.0061
3969.0,-0.0061
3968.0,-0.0062
3967.0,-0.0062
3966.0,-0.0062
3965.0,-0.0061
3964.0,-0.0061
3963.0,-0.0062
3962.0,-0.0062
3961.0,-0.0062
3960.0,-0.0062
3959.0,-0.0062
3958.0,-0.0061
3957.0,-0.0061
3956.0,-0.0061
3955.0,-0.0061
3954.0,-0.006
3953.0,-0.006
3952.0,-0.006
3951.0,-0.0061
3950.0,-0.0062
3949.0,-0.0062
3948.0,-0.0062
3947.0,-0.0062
3946.0,-0.0061
3945.0,-0.0061
3944.0,-0.0061
3943.0,-0.0061
3942.0,-0.0062
3941.0,-0.0063
3940.0,-0.0064
3939.0,-0.0064
3938.0,-0.0064
3937.0,-0.0063
3936.0,-0.0062
3935.0,-0.0061
3934.0,-0.0061
3933.0,-0.0061
3932.0,-0.0061
3931.0,-0.0062
3930.0,-0.0062
3929.0,-0.0061
3928.0,-0.0061
3927.0,-0.0062
3926.0,-0.0063
3925.0,-0.0064
3924.0,-0.0065
3923.0,-0.0065
3922.0,-0.0065
3921.0,-0.0065
3920.0,-0.0064
3919.0,-0.0064
3918.0,-0.0064
3917.0,-0.0064
3916.0,-0.0064
3915.0,-0.0064
3914.0,-0.0064
3913.0,-0.0065
3912.0,-0.0066
3911.0,-0.0066
3910.0,-0.0066
3909.0,-0.0065
3908.0,-0.0064
3907.0,-0.0064
3906.0,-0.0063
3905.0,-0.0064
3904.0,-0.0065
3903.0,-0.0068
3902.0,-0.007
3901.0,-0.0071
3900.0,-0.0071
3899.0,-0.007
3898.0,-0.007
3897.0,-0.0069
3896.0,-0.0068
3895.0,-0.0067
3894.0,-0.0066
3893.0,-0.0065
3892.0,-0.0065
3891.0,-0.0066
3890.0,-0.0066
3889.0,-0.0068
3888.0,-0.0069
3887.0,-0.007
3886.0,-0.0071
3885.0,-0.0071
3884.0,-0.0071
3883.0,-0.0071
3882.0,-0.0071
3881.0,-0.007
3880.0,-0.0068
3879.0,-0.0068
3878.0,-0.0068
3877.0,-0.0069
3876.0,-0.0069
3875.0,-0.0068
3874.0,-0.0068
3873.0,-0.0068
3872.0,-0.0069
3871.0,-0.007
3870.0,-0.0069
3869.0,-0.0068
3868.0,-0.0069
3867.0,-0.007
3866.0,-0.0071
3865.0,-0.0071
3864.0,-0.0071
3863.0,-0.007
3862.0,-0.0069
3861.0,-0.0068
3860.0,-0.0068
3859.0,-0.0069
3858.0,-0.007
3857.0,-0.0072
3856.0,-0.0073
3855.0,-0.0074
3854.0,-0.0074
3853.0,-0.0074
3852.0,-0.0075
3851.0,-0.0075
3850.0,-0.0075
3849.0,-0.0074
3848.0,-0.0073
3847.0,-0.0073
3846.0,-0.0073
3845.0,-0.0074
3844.0,-0.0074
3843.0,-0.0073
3842.0,-0.0073
3841.0,-0.0072
3840.0,-0.0072
3839.0,-0.0072
3838.0,-0.0073
3837.0,-0.0074
3836.0,-0.0075
3835.0,-0.0075
3834.0,-0.0075
3833.0,-0.0075
3832.0,-0.0075
3831.0,-0.0074
3830.0,-0.0073
3829.0,-0.0073
3828.0,-0.0074
3827.0,-0.0074
3826.0,-0.0075
3825.0,-0.0075
3824.0,-0.0076
3823.0,-0.0077
3822.0,-0.0077
3821.0,-0.0076
3820.0,-0.0075
3819.0,-0.0076
3818.0,-0.0077
3817.0,-0.0077
3816.0,-0.0078
3815.0,-0.0077
3814.0,-0.0076
3813.0,-0.0075
3812.0,-0.0074
3811.0,-0.0073
3810.0,-0.0073
3809.0,-0.0073
3808.0,-0.0074
3807.0,-0.0075
3806.0,-0.0076
3805.0,-0.0077
3804.0,-0.0078
3803.0,-0.0079
3802.0,-0.0078
3801.0,-0.0078
3800.0,-0.0079
3799.0,-0.008
3798.0,-0.008
3797.0,-0.0079
3796.0,-0.0078
3795.0,-0.0079
3794.0,-0.0079
3793.0,-0.008
3792.0,-0.008
3791.0,-0.0079
3790.0,-0.0078
3789.0,-0.0078
3788.0,-0.0078
3787.0,-0.0078
3786.0,-0.0078
3785.0,-0.0078
3784.0,-0.0078
3783.0,-0.0078
3782.0,-0.0079
3781.0,-0.0079
3780.0,-0.0079
3779.0,-0.008
3778.0,-0.0079
3777.0,-0.0079
3776.0,-0.0079
3775.0,-0.0079
3774.0,-0.0079
3773.0,-0.008
3772.0,-0.0082
3771.0,-0.0083
3770.0,-0.0082
3769.0,-0.0081
3768.0,-0.0081
3767.0,-0.008
3766.0,-0.008
3765.0,-0.008
3764.0,-0.0081
3763.0,-0.0081
3762.0,-0.0082
3761.0,-0.0082
3760.0,-0.0082
3759.0,-0.0082
3758.0,-0.0082
3757.0,-0.0083
3756.0,-0.0084
3755.0,-0.0085
3754.0,-0.0086
3753.0,-0.0086
3752.0,-0.0086
3751.0,-0.0086
3750.0,-0.0087
3749.0,-0.0088
3748.0,-0.0089
3747.0,-0.0088
3746.0,-0.0087
3745.0,-0.0086
3744.0,-0.0084
3743.0,-0.0085
3742.0,-0.0086
3741.0,-0.0086
3740.0,-0.0086
3739.0,-0.0086
3738.0,-0.0086
3737.0,-0.0086
3736.0,-0.0085
3735.0,-0.0085
3734.0,-0.0084
3733.0,-0.0084
3732.0,-0.0084
3731.0,-0.0085
3730.0,-0.0085
3729.0,-0.0086
3728.0,-0.0087
3727.0,-0.0087
3726.0,-0.0087
3725.0,-0.0087
3724.0,-0.0087
3723.0,-0.0086
3722.0,-0.0086
3721.0,-0.0086
3720.0,-0.0086
3719.0,-0.0087
3718.0,-0.0086
3717.0,-0.0085
3716.0,-0.0084
3715.0,-0.0084
3714.0,-0.0084
3713.0,-0.0084
3712.0,-0.0084
3711.0,-0.0084
3710.0,-0.0084
3709.0,-0.0084
3708.0,-0.0085
3707.0,-0.0085
3706.0,-0.0085
3705.0,-0.0084
3704.0,-0.0084
3703.0,-0.0085
3702.0,-0.0085
3701.0,-0.0084
3700.0,-0.0084
3699.0,-0.0084
3698.0,-0.0084
3697.0,-0.0083
3696.0,-0.0082
3695.0,-0.0082
3694.0,-0.0081
3693.0,-0.0081
3692.0,-0.008
3691.0,-0.0079
3690.0,-0.0079
3689.0,-0.0079
3688.0,-0.0079
3687.0,-0.0079
3686.0,-0.0079
3685.0,-0.0079
3684.0,-0.0078
3683.0,-0.0078
3682.0,-0.0078
3681.0,-0.0076
3680.0,-0.0074
3679.0,-0.0072
3678.0,-0.007
3677.0,-0.0069
3676.0,-0.007
3675.0,-0.0072
3674.0,-0.0073
3673.0,-0.0073
3672.0,-0.0072
3671.0,-0.007
3670.0,-0.0069
3669.0,-0.0068
3668.0,-0.0067
3667.0,-0.0067
3666.0,-0.0066
3665.0,-0.0064
3664.0,-0.0063
3663.0,-0.0061
3662.0,-0.006
3661.0,-0.0058
3660.0,-0.0056
3659.0,-0.0055
3658.0,-0.0054
3657.0,-0.0052
3656.0,-0.0051
3655.0,-0.005
3654.0,-0.0049
3653.0,-0.0049
3652.0,-0.0049
3651.0,-0.0049
3650.0,-0.0046
3649.0,-0.0041
3648.0,-0.0037
3647.0,-0.0035
3646.0,-0.0033
3645.0,-0.0032
3644.0,-0.003
3643.0,-0.0027
3642.0,-0.0023
3641.0,-0.002
3640.0,-0.0018
3639.0,-0.0016
3638.0,-0.0014
3637.0,-0.0012
3636.0,-0.001
3635.0,-0.0008
3634.0,-0.0006
3633.0,-0.0003
3632.0,-0.0002
3631.0,-0.0002
3630.0,-0.0002
3629.0,-0.0001
3628.0,0.0001
3627.0,0.0005
3626.0,0.001
3625.0,0.0014
3624.0,0.0018
3623.0,0.0021
3622.0,0.0023
3621.0,0.0024
3620.0,0.0025
3619.0,0.0027
3618.0,0.003
3617.0,0.0033
3616.0,0.0037
3615.0,0.0041
3614.0,0.0045
3613.0,0.005
3612.0,0.0053
3611.0,0.0056
3610.0,0.0058
3609.0,0.006
3608.0,0.0061
3607.0,0.0063
3606.0,0.0065
3605.0,0.0068
3604.0,0.0071
3603.0,0.0075
3602.0,0.0077
3601.0,0.008
3600.0,0.0082
3599.0,0.0085
3598.0,0.0088
3597.0,0.0092
3596.0,0.0095
3595.0,0.0098
3594.0,0.0101
3593.0,0.0103
3592.0,0.0106
3591.0,0.0109
3590.0,0.0112
3589.0,0.0115
3588.0,0.0117
3587.0,0.0118
3586.0,0.0119
3585.0,0.0121
3584.0,0.0125
3583.0,0.0128
3582.0,0.0132
3581.0,0.0135
3580.0,0.0137
3579.0,0.0139
3578.0,0.0141
3577.0,0.0144
3576.0,0.0146
3575.0,0.0149
3574.0,0.0153
3573.0,0.0156
3572.0,0.016
3571.0,0.0163
3570.0,0.0167
3569.0,0.017
3568.0,0.0173
3567.0,0.0176
3566.0,0.0179
3565.0,0.0182
3564.0,0.0186
3563.0,0.0189
3562.0,0.0192
3561.0,0.0195
3560.0,0.0197
3559.0,0.0199
3558.0,0.0202
3557.0,0.0206
3556.0,0.021
3555.0,0.0214
3554.0,0.0217
3553.0,0.0219
3552.0,0.0221
3551.0,0.0224
3550.0,0.0228
3549.0,0.0233
3548.0,0.0237
3547.0,0.024
3546.0,0.0241
3545.0,0.0242
3544.0,0.0244
3543.0,0.0246
3542.0,0.025
3541.0,0.0254
3540.0,0.0257
3539.0,0.026
3538.0,0.0263
3537.0,0.0265
3536.0,0.0268
3535.0,0.0271
3534.0,0.0275
3533.0,0.0278
3532.0,0.0282
3531.0,0.0285
3530.0,0.0289
3529.0,0.0292
3528.0,0.0295
3527.0,0.0299
3526.0,0.0303
3525.0,0.0307
3524.0,0.0311
3523.0,0.0313
3522.0,0.0315
3521.0,0.0317
3520.0,0.0319
3519.0,0.0322
3518.0,0.0325
3517.0,0.0329
3516.0,0.0333
3515.0,0.0338
3514.0,0.0342
3513.0,0.0346
3512.0,0.035
3511.0,0.0353
3510.0,0.0355
3509.0,0.0359
3508.0,0.0363
3507.0,0.0368
3506.0,0.0372
3505.0,0.0375
3504.0,0.0377
3503.0,0.0379
3502.0,0.0382
3501.0,0.0387
3500.0,0.0392
3499.0,0.0397
3498.0,0.0401
3497.0,0.0405
3496.0,0.041
3495.0,0.0414
3494.0,0.0419
3493.0,0.0424
3492.0,0.0428
3491.0,0.0433
3490.0,0.0438
3489.0,0.0443
3488.0,0.0448
3487.0,0.0454
3486.0,0.0459
3485.0,0.0464
3484.0,0.0466
3483.0,0.0468
3482.0,0.0471
3481.0,0.0476
3480.0,0.0482
3479.0,0.0488
3478.0,0.0494
3477.0,0.0499
3476.0,0.0504
3475.0,0.0509
3474.0,0.0514
3473.0,0.0519
3472.0,0.0525
3471.0,0.053
3470.0,0.0536
3469.0,0.0541
3468.0,0.0546
3467.0,0.0551
3466.0,0.0557
3465.0,0.0563
3464.0,0.057
3463.0,0.0575
3462.0,0.058
3461.0,0.0584
3460.0,0.0589
3459.0,0.0594
3458.0,0.06
3457.0,0.0606
3456.0,0.0612
3455.0,0.0618
3454.0,0.0623
3453.0,0.0629
3452.0,0.0635
3451.0,0.0641
3450.0,0.0648
3449.0,0.0655
3448.0,0.0661
3447.0,0.0668
3446.0,0.0673
3445.0,0.0679
3444.0,0.0684
3443.0,0.0688
3442.0,0.0693
3441.0,0.0699
3440.0,0.0707
3439.0,0.0715
3438.0,0.0725
3437.0,0.0733
3436.0,0.0742
3435.0,0.0749
3434.0,0.0756
3433.0,0.0764
3432.0,0.0771
3431.0,0.0778
3430.0,0.0786
3429.0,0.0795
3428.0,0.0805
3427.0,0.0814
3426.0,0.0823
3425.0,0.0832
3424.0,0.0839
3423.0,0.0847
3422.0,0.0854
3421.0,0.0861
3420.0,0.0868
3419.0,0.0876
3418.0,0.0883
3417.0,0.0891
3416.0,0.09
3415.0,0.0909
3414.0,0.0919
3413.0,0.0928
3412.0,0.0937
3411.0,0.0945
3410.0,0.0951
3409.0,0.0958
3408.0,0.0965
3407.0,0.0974
3406.0,0.0984
3405.0,0.0993
3404.0,0.1001
3403.0,0.1008
3402.0,0.1013
3401.0,0.1019
3400.0,0.1026
3399.0,0.1034
3398.0,0.1041
3397.0,0.1049
3396.0,0.1056
3395.0,0.1063
3394.0,0.107
3393.0,0.1076
3392.0,0.1082
3391.0,0.1087
3390.0,0.1093
3389.0,0.1099
3388.0,0.1105
3387.0,0.111
3386.0,0.1114
3385.0,0.1118
3384.0,0.1123
3383.0,0.1128
3382.0,0.1132
3381.0,0.1136
3380.0,0.114
3379.0,0.1141
3378.0,0.1142
3377.0,0.1143
3376.0,0.1145
3375.0,0.1147
3374.0,0.1149
3373.0,0.1152
3372.0,0.1154
3371.0,0.1156
3370.0,0.1158
3369.0,0.1158
3368.0,0.1159
3367.0,0.116
3366.0,0.1161
3365.0,0.1162
3364.0,0.1164
3363.0,0.1165
3362.0,0.1166
3361.0,0.1166
3360.0,0.1167
3359.0,0.1169
3358.0,0.1171
3357.0,0.1173
3356.0,0.1175
3355.0,0.1176
3354.0,0.1177
3353.0,0.1177
3352.0,0.1178
3351.0,0.1179
3350.0,0.118
3349.0,0.118
3348.0,0.1181
3347.0,0.1182
3346.0,0.1184
3345.0,0.1186
3344.0,0.1187
3343.0,0.1188
3342.0,0.119
3341.0,0.119
3340.0,0.1191
3339.0,0.1191
3338.0,0.1191
3337.0,0.119
3336.0,0.1189
3335.0,0.1188
3334.0,0.1186
3333.0,0.1184
3332.0,0.1182
3331.0,0.1181
3330.0,0.118
3329.0,0.1179
3328.0,0.1178
3327.0,0.1176
3326.0,0.1173
3325.0,0.117
3324.0,0.1167
3323.0,0.1163
3322.0,0.1159
3321.0,0.1155
3320.0,0.1151
3319.0,0.1148
3318.0,0.1145
3317.0,0.1142
3316.0,0.1141
3315.0,0.1139
3314.0,0.1137
3313.0,0.1134
3312.0,0.1131
3311.0,0.1128
3310.0,0.1124
3309.0,0.1121
3308.0,0.1119
3307.0,0.1118
3306.0,0.1117
3305.0,0.1116
3304.0,0.1116
3303.0,0.1116
3302.0,0.1114
3301.0,0.1112
3300.0,0.1109
3299.0,0.1105
3298.0,0.1102
3297.0,0.11
3296.0,0.1098
3295.0,0.1098
3294.0,0.1098
3293.0,0.1099
3292.0,0.1098
3291.0,0.1097
3290.0,0.1095
3289.0,0.1093
3288.0,0.1092
3287.0,0.1091
3286.0,0.1089
3285.0,0.1087
3284.0,0.1084
3283.0,0.1082
3282.0,0.1081
3281.0,0.108
3280.0,0.1079
3279.0,0.1079
3278.0,0.1078
3277.0,0.1077
3276.0,0.1075
3275.0,0.1073
3274.0,0.107
3273.0,0.1067
3272.0,0.1065
3271.0,0.1063
3270.0,0.1062
3269.0,0.1061
3268.0,0.1061
3267.0,0.106
3266.0,0.1058
3265.0,0.1057
3264.0,0.1055
3263.0,0.1054
3262.0,0.1052
3261.0,0.1051
3260.0,0.105
3259.0,0.105
3258.0,0.1051
3257.0,0.1051
3256.0,0.1052
3255.0,0.1054
3254.0,0.1055
3253.0,0.1055
3252.0,0.1056
3251.0,0.1056
3250.0,0.1057
3249.0,0.1059
3248.0,0.106
3247.0,0.1061
3246.0,0.1061
3245.0,0.1061
3244.0,0.106
3243.0,0.106
3242.0,0.1059
3241.0,0.1058
3240.0,0.1055
3239.0,0.1052
3238.0,0.1048
3237.0,0.1044
3236.0,0.104
3235.0,0.1037
3234.0,0.1034
3233.0,0.1031
3232.0,0.1028
3231.0,0.1024
3230.0,0.102
3229.0,0.1016
3228.0,0.1012
3227.0,0.1008
3226.0,0.1003
3225.0,0.0999
3224.0,0.0994
3223.0,0.099
3222.0,0.0986
3221.0,0.0982
3220.0,0.0978
3219.0,0.0973
3218.0,0.0969
3217.0,0.0966
3216.0,0.0963
3215.0,0.0959
3214.0,0.0956
3213.0,0.0952
3212.0,0.0948
3211.0,0.0943
3210.0,0.0939
3209.0,0.0935
3208.0,0.0933
3207.0,0.093
3206.0,0.0927
3205.0,0.0924
3204.0,0.0919
3203.0,0.0915
3202.0,0.091
3201.0,0.0905
3200.0,0.0901
3199.0,0.0898
3198.0,0.0894
3197.0,0.0891
3196.0,0.0889
3195.0,0.0886
3194.0,0.0883
3193.0,0.0879
3192.0,0.0874
3191.0,0.0869
3190.0,0.0866
3189.0,0.0862
3188.0,0.086
3187.0,0.0856
3186.0,0.0852
3185.0,0.0848
3184.0,0.0844
3183.0,0.0841
3182.0,0.0838
3181.0,0.0835
3180.0,0.0831
3179.0,0.0827
3178.0,0.0822
3177.0,0.0818
3176.0,0.0815
3175.0,0.0813
3174.0,0.081
3173.0,0.0807
3172.0,0.0805
3171.0,0.0801
3170.0,0.0797
3169.0,0.0793
3168.0,0.0788
3167.0,0.0784
3166.0,0.078
3165.0,0.0776
3164.0,0.0773
3163.0,0.0769
3162.0,0.0766
3161.0,0.0763
3160.0,0.076
3159.0,0.0757
3158.0,0.0753
3157.0,0.0749
3156.0,0.0745
3155.0,0.0742
3154.0,0.0738
3153.0,0.0734
3152.0,0.073
3151.0,0.0727
3150.0,0.0724
3149.0,0.0722
3148.0,0.0719
3147.0,0.0715
3146.0,0.0711
3145.0,0.0707
3144.0,0.0703
3143.0,0.0699
3142.0,0.0694
3141.0,0.0691
3140.0,0.0688
3139.0,0.0684
3138.0,0.0681
3137.0,0.0677
3136.0,0.0674
3135.0,0.0671
3134.0,0.0667
3133.0,0.0663
3132.0,0.066
3131.0,0.0657
3130.0,0.0654
3129.0,0.0652
3128.0,0.0648
3127.0,0.0644
3126.0,0.064
3125.0,0.0637
3124.0,0.0633
3123.0,0.0629
3122.0,0.0626
3121.0,0.0622
3120.0,0.0619
3119.0,0.0615
3118.0,0.0612
3117.0,0.0609
3116.0,0.0606
3115.0,0.0603
3114.0,0.06
3113.0,0.0597
3112.0,0.0594
3111.0,0.0591
3110.0,0.0588
3109.0,0.0585
3108.0,0.0582
3107.0,0.0579
3106.0,0.0575
3105.0,0.0572
3104.0,0.057
3103.0,0.0566
3102.0,0.0563
3101.0,0.0559
3100.0,0.0556
3099.0,0.0554
3098.0,0.0552
3097.0,0.0549
3096.0,0.0546
3095.0,0.0543
3094.0,0.0539
3093.0,0.0535
3092.0,0.0532
3091.0,0.0529
3090.0,0.0527
3089.0,0.0525
3088.0,0.0523
3087.0,0.0521
3086.0,0.0518
3085.0,0.0515
3084.0,0.0511
3083.0,0.0509
3082.0,0.0507
3081.0,0.0504
3080.0,0.0501
3079.0,0.0497
3078.0,0.0493
3077.0,0.0491
3076.0,0.0489
3075.0,0.0488
3074.0,0.0485
3073.0,0.0482
3072.0,0.0479
3071.0,0.0475
3070.0,0.0471
3069.0,0.0468
3068.0,0.0466
3067.0,0.0465
3066.0,0.0462
3065.0,0.046
3064.0,0.0458
3063.0,0.0455
3062.0,0.0453
3061.0,0.045
3060.0,0.0448
3059.0,0.0445
3058.0,0.0442
3057.0,0.0439
3056.0,0.0436
3055.0,0.0434
3054.0,0.0432
3053.0,0.043
3052.0,0.0428
3051.0,0.0427
3050.0,0.0425
3049.0,0.0422
3048.0,0.042
3047.0,0.0417
3046.0,0.0414
3045.0,0.0412
3044.0,0.0409
3043.0,0.0407
3042.0,0.0405
3041.0,0.0403
3040.0,0.04
3039.0,0.0398
3038.0,0.0395
3037.0,0.0393
3036.0,0.039
3035.0,0.0388
3034.0,0.0386
3033.0,0.0384
3032.0,0.0382
3031.0,0.0381
3030.0,0.0379
3029.0,0.0376
3028.0,0.0374
3027.0,0.0371
3026.0,0.0369
3025.0,0.0367
3024.0,0.0366
3023.0,0.0365
3022.0,0.0364
3021.0,0.0362
3020.0,0.036
3019.0,0.0359
3018.0,0.0357
3017.0,0.0355
3016.0,0.0352
3015.0,0.035
3014.0,0.0348
3013.0,0.0346
3012.0,0.0343
3011.0,0.0341
3010.0,0.0339
3009.0,0.0337
3008.0,0.0335
3007.0,0.0334
3006.0,0.0332
3005.0,0.033
3004.0,0.0328
3003.0,0.0327
3002.0,0.0326
3001.0,0.0325
3000.0,0.0325
2999.0,0.0324
2998.0,0.0322
2997.0,0.032
2996.0,0.0318
2995.0,0.0315
2994.0,0.0313
2993.0,0.0312
2992.0,0.0311
2991.0,0.031
2990.0,0.031
2989.0,0.0309
2988.0,0.0307
2987.0,0.0306
2986.0,0.0304
2985.0,0.0302
2984.0,0.0301
2983.0,0.0301
2982.0,0.03
2981.0,0.0298
2980.0,0.0297
2979.0,0.0296
2978.0,0.0296
2977.0,0.0295
2976.0,0.0295
2975.0,0.0296
2974.0,0.0296
2973.0,0.0296
2972.0,0.0296
2971.0,0.0296
2970.0,0.0296
2969.0,0.0296
2968.0,0.0297
2967.0,0.0297
2966.0,0.0296
2965.0,0.0295
2964.0,0.0294
2963.0,0.0293
2962.0,0.0293
2961.0,0.0292
2960.0,0.0292
2959.0,0.0291
2958.0,0.0291
2957.0,0.0291
2956.0,0.029
2955.0,0.029
2954.0,0.029
2953.0,0.029
2952.0,0.0291
2951.0,0.0292
2950.0,0.0293
2949.0,0.0293
2948.0,0.0294
2947.0,0.0295
2946.0,0.0295
2945.0,0.0296
2944.0,0.0295
2943.0,0.0295
2942.0,0.0295
2941.0,0.0296
2940.0,0.0296
2939.0,0.0296
2938.0,0.0296
2937.0,0.0296
2936.0,0.0295
2935.0,0.0295
2934.0,0.0295
2933.0,0.0295
2932.0,0.0295
2931.0,0.0295
2930.0,0.0296
2929.0,0.0296
2928.0,0.0296
2927.0,0.0296
2926.0,0.0296
2925.0,0.0297
2924.0,0.0299
2923.0,0.0301
2922.0,0.0303
2921.0,0.0304
2920.0,0.0304
2919.0,0.0304
2918.0,0.0303
2917.0,0.0303
2916.0,0.0302
2915.0,0.0302
2914.0,0.0302
2913.0,0.0302
2912.0,0.0302
2911.0,0.0302
2910.0,0.0303
2909.0,0.0303
2908.0,0.0303
2907.0,0.0303
2906.0,0.0303
2905.0,0.0302
2904.0,0.0303
2903.0,0.0303
2902.0,0.0304
2901.0,0.0304
2900.0,0.0304
2899.0,0.0303
2898.0,0.0302
2897.0,0.03
2896.0,0.0299
2895.0,0.0298
2894.0,0.0296
2893.0,0.0295
2892.0,0.0294
2891.0,0.0293
2890.0,0.0291
2889.0,0.0289
2888.0,0.0287
2887.0,0.0285
2886.0,0.0284
2885.0,0.0283
2884.0,0.0281
2883.0,0.028
2882.0,0.0279
2881.0,0.0278
2880.0,0.0277
2879.0,0.0275
2878.0,0.0273
2877.0,0.0271
2876.0,0.027
2875.0,0.0269
2874.0,0.0268
2873.0,0.0268
2872.0,0.0268
2871.0,0.0268
2870.0,0.0267
2869.0,0.0265
2868.0,0.0263
2867.0,0.0261
2866.0,0.0258
2865.0,0.0257
2864.0,0.0255
2863.0,0.0255
2862.0,0.0254
2861.0,0.0254
2860.0,0.0254
2859.0,0.0254
2858.0,0.0253
2857.0,0.0252
2856.0,0.0251
2855.0,0.0251
2854.0,0.025
2853.0,0.0248
2852.0,0.0247
2851.0,0.0245
2850.0,0.0243
2849.0,0.0241
2848.0,0.0238
2847.0,0.0236
2846.0,0.0233
2845.0,0.023
2844.0,0.0227
2843.0,0.0225
2842.0,0.0223
2841.0,0.0221
2840.0,0.0219
2839.0,0.0216
2838.0,0.0214
2837.0,0.0212
2836.0,0.0211
2835.0,0.021
2834.0,0.0209
2833.0,0.0208
2832.0,0.0206
2831.0,0.0205
2830.0,0.0203
2829.0,0.0201
2828.0,0.02
2827.0,0.0198
2826.0,0.0197
2825.0,0.0195
2824.0,0.0194
2823.0,0.0192
2822.0,0.0192
2821.0,0.0191
2820.0,0.019
2819.0,0.0189
2818.0,0.0188
2817.0,0.0186
2816.0,0.0185
2815.0,0.0184
2814.0,0.0183
2813.0,0.0182
2812.0,0.018
2811.0,0.0179
2810.0,0.0178
2809.0,0.0177
2808.0,0.0176
2807.0,0.0175
2806.0,0.0175
2805.0,0.0174
2804.0,0.0173
2803.0,0.0172
2802.0,0.0171
2801.0,0.0171
2800.0,0.017
2799.0,0.017
2798.0,0.0169
2797.0,0.0169
2796.0,0.0168
2795.0,0.0166
2794.0,0.0165
2793.0,0.0164
2792.0,0.0163
2791.0,0.0163
2790.0,0.0162
2789.0,0.0162
2788.0,0.0162
2787.0,0.0162
2786.0,0.0161
2785.0,0.016
2784.0,0.0159
2783.0,0.0157
2782.0,0.0156
2781.0,0.0155
2780.0,0.0154
2779.0,0.0154
2778.0,0.0153
2777.0,0.0153
2776.0,0.0153
2775.0,0.0153
2774.0,0.0153
2773.0,0.0152
2772.0,0.0151
2771.0,0.0151
2770.0,0.0151
2769.0,0.0151
2768.0,0.0151
2767.0,0.015
2766.0,0.0149
2765.0,0.0149
2764.0,0.0149
2763.0,0.0149
2762.0,0.0149
2761.0,0.0148
2760.0,0.0147
2759.0,0.0146
2758.0,0.0145
2757.0,0.0144
2756.0,0.0143
2755.0,0.0143
2754.0,0.0144
2753.0,0.0144
2752.0,0.0145
2751.0,0.0144
2750.0,0.0142
2749.0,0.0141
2748.0,0.0139
2747.0,0.0139
2746.0,0.0139
2745.0,0.014
2744.0,0.014
2743.0,0.0139
2742.0,0.0139
2741.0,0.0139
2740.0,0.014
2739.0,0.0141
2738.0,0.0141
2737.0,0.014
2736.0,0.0139
2735.0,0.0138
2734.0,0.0137
2733.0,0.0137
2732.0,0.0136
2731.0,0.0136
2730.0,0.0136
2729.0,0.0135
2728.0,0.0135
2727.0,0.0133
2726.0,0.0132
2725.0,0.013
2724.0,0.013
2723.0,0.013
2722.0,0.013
2721.0,0.013
2720.0,0.013
2719.0,0.0129
2718.0,0.013
2717.0,0.013
2716.0,0.013
2715.0,0.0129
2714.0,0.0129
2713.0,0.0129
2712.0,0.0129
2711.0,0.0129
2710.0,0.0129
2709.0,0.0128
2708.0,0.0126
2707.0,0.0125
2706.0,0.0124
2705.0,0.0124
2704.0,0.0124
2703.0,0.0124
2702.0,0.0124
2701.0,0.0123
2700.0,0.0122
2699.0,0.0121
2698.0,0.0121
2697.0,0.012
2696.0,0.012
2695.0,0.012
2694.0,0.0119
2693.0,0.0119
2692.0,0.0119
2691.0,0.0119
2690.0,0.0119
2689.0,0.0119
2688.0,0.0118
2687.0,0.0118
2686.0,0.0118
2685.0,0.0118
2684.0,0.0117
2683.0,0.0117
2682.0,0.0116
2681.0,0.0116
2680.0,0.0116
2679.0,0.0116
2678.0,0.0116
2677.0,0.0116
2676.0,0.0115
2675.0,0.0114
2674.0,0.0114
2673.0,0.0113
2672.0,0.0112
2671.0,0.0111
2670.0,0.0111
2669.0,0.011
2668.0,0.011
2667.0,0.011
2666.0,0.011
2665.0,0.011
2664.0,0.0109
2663.0,0.0108
2662.0,0.0108
2661.0,0.0107
2660.0,0.0107
2659.0,0.0108
2658.0,0.0108
2657.0,0.0108
2656.0,0.0108
2655.0,0.0107
2654.0,0.0107
2653.0,0.0106
2652.0,0.0106
2651.0,0.0106
2650.0,0.0105
2649.0,0.0105
2648.0,0.0104
2647.0,0.0103
2646.0,0.0102
2645.0,0.0102
2644.0,0.0102
2643.0,0.0102
2642.0,0.0102
2641.0,0.0101
2640.0,0.01
2639.0,0.01
2638.0,0.01
2637.0,0.01
2636.0,0.01
2635.0,0.01
2634.0,0.01
2633.0,0.0101
2632.0,0.0101
2631.0,0.0102
2630.0,0.0102
2629.0,0.0102
2628.0,0.0101
2627.0,0.01
2626.0,0.0099
2625.0,0.0097
2624.0,0.0096
2623.0,0.0096
2622.0,0.0097
2621.0,0.0098
2620.0,0.0098
2619.0,0.0097
2618.0,0.0096
2617.0,0.0096
2616.0,0.0096
2615.0,0.0096
2614.0,0.0095
2613.0,0.0095
2612.0,0.0094
2611.0,0.0093
2610.0,0.0092
2609.0,0.0092
2608.0,0.0093
2607.0,0.0094
2606.0,0.0094
2605.0,0.0094
2604.0,0.0094
2603.0,0.0093
2602.0,0.0092
2601.0,0.0091
2600.0,0.0091
2599.0,0.0091
2598.0,0.0091
2597.0,0.009
2596.0,0.009
2595.0,0.009
2594.0,0.0089
2593.0,0.0088
2592.0,0.0088
2591.0,0.0089
2590.0,0.0089
2589.0,0.0089
2588.0,0.0089
2587.0,0.0088
2586.0,0.0088
2585.0,0.0088
2584.0,0.0088
2583.0,0.0088
2582.0,0.0088
2581.0,0.0087
2580.0,0.0087
2579.0,0.0087
2578.0,0.0087
2577.0,0.0086
2576.0,0.0085
2575.0,0.0084
2574.0,0.0083
2573.0,0.0083
2572.0,0.0083
2571.0,0.0084
2570.0,0.0084
2569.0,0.0085
2568.0,0.0085
2567.0,0.0085
2566.0,0.0084
2565.0,0.0084
2564.0,0.0084
2563.0,0.0084
2562.0,0.0084
2561.0,0.0084
2560.0,0.0084
2559.0,0.0084
2558.0,0.0084
2557.0,0.0084
2556.0,0.0084
2555.0,0.0083
2554.0,0.0083
2553.0,0.0083
2552.0,0.0083
2551.0,0.0084
2550.0,0.0083
2549.0,0.0083
2548.0,0.0082
2547.0,0.0082
2546.0,0.0082
2545.0,0.0082
2544.0,0.0083
2543.0,0.0083
2542.0,0.0082
2541.0,0.0081
2540.0,0.008
2539.0,0.008
2538.0,0.0081
2537.0,0.0081
2536.0,0.0081
2535.0,0.008
2534.0,0.008
2533.0,0.0079
2532.0,0.008
2531.0,0.008
2530.0,0.0081
2529.0,0.0081
2528.0,0.0082
2527.0,0.0082
2526.0,0.0082
2525.0,0.0081
2524.0,0.008
2523.0,0.0079
2522.0,0.0079
2521.0,0.0079
2520.0,0.0079
2519.0,0.0079
2518.0,0.0079
2517.0,0.0079
2516.0,0.0079
2515.0,0.0078
2514.0,0.0078
2513.0,0.0078
2512.0,0.0079
2511.0,0.0079
2510.0,0.0079
2509.0,0.0079
2508.0,0.0078
2507.0,0.0078
2506.0,0.0078
2505.0,0.0078
2504.0,0.0078
2503.0,0.0078
2502.0,0.0079
2501.0,0.0079
2500.0,0.0079
2499.0,0.0078
2498.0,0.0077
2497.0,0.0077
2496.0,0.0077
2495.0,0.0078
2494.0,0.0078
2493.0,0.0078
2492.0,0.0078
2491.0,0.0077
2490.0,0.0077
2489.0,0.0077
2488.0,0.0077
2487.0,0.0078
2486.0,0.0078
2485.0,0.0078
2484.0,0.0077
2483.0,0.0077
2482.0,0.0077
2481.0,0.0077
2480.0,0.0077
2479.0,0.0076
2478.0,0.0075
2477.0,0.0075
2476.0,0.0075
2475.0,0.0075
2474.0,0.0076
2473.0,0.0076
2472.0,0.0076
2471.0,0.0076
2470.0,0.0076
2469.0,0.0075
2468.0,0.0075
2467.0,0.0075
2466.0,0.0075
2465.0,0.0075
2464.0,0.0076
2463.0,0.0076
2462.0,0.0076
2461.0,0.0076
2460.0,0.0075
2459.0,0.0075
2458.0,0.0075
2457.0,0.0075
2456.0,0.0075
2455.0,0.0075
2454.0,0.0075
2453.0,0.0075
2452.0,0.0076
2451.0,0.0077
2450.0,0.0076
2449.0,0.0076
2448.0,0.0075
2447.0,0.0075
2446.0,0.0075
2445.0,0.0075
2444.0,0.0076
2443.0,0.0075
2442.0,0.0075
2441.0,0.0075
2440.0,0.0074
2439.0,0.0074
2438.0,0.0073
2437.0,0.0073
2436.0,0.0073
2435.0,0.0074
2434.0,0.0074
2433.0,0.0075
2432.0,0.0075
2431.0,0.0075
2430.0,0.0075
2429.0,0.0074
2428.0,0.0074
2427.0,0.0073
2426.0,0.0073
2425.0,0.0073
2424.0,0.0073
2423.0,0.0073
2422.0,0.0073
2421.0,0.0074
2420.0,0.0074
2419.0,0.0075
2418.0,0.0076
2417.0,0.0076
2416.0,0.0076
2415.0,0.0075
2414.0,0.0075
2413.0,0.0075
2412.0,0.0075
2411.0,0.0075
2410.0,0.0075
2409.0,0.0074
2408.0,0.0073
2407.0,0.0073
2406.0,0.0073
2405.0,0.0074
2404.0,0.0074
2403.0,0.0074
2402.0,0.0075
2401.0,0.0075
2400.0,0.0075
2399.0,0.0075
2398.0,0.0075
2397.0,0.0075
2396.0,0.0075
2395.0,0.0076
2394.0,0.0077
2393.0,0.0077
2392.0,0.0077
2391.0,0.0077
2390.0,0.0076
2389.0,0.0077
2388.0,0.0077
2387.0,0.0078
2386.0,0.0079
2385.0,0.008
2384.0,0.0081
2383.0,0.008
2382.0,0.008
2381.0,0.0078
2380.0,0.0077
2379.0,0.0074
2378.0,0.0072
2377.0,0.0071
2376.0,0.0072
2375.0,0.0074
2374.0,0.0075
2373.0,0.0075
2372.0,0.0075
2371.0,0.0076
2370.0,0.0079
2369.0,0.0081
2368.0,0.008
2367.0,0.0076
2366.0,0.007
2365.0,0.0066
2364.0,0.0066
2363.0,0.007
2362.0,0.0075
2361.0,0.0079
2360.0,0.0078
2359.0,0.0074
2358.0,0.0067
2357.0,0.0059
2356.0,0.0053
2355.0,0.005
2354.0,0.0051
2353.0,0.0051
2352.0,0.0053
2351.0,0.0058
2350.0,0.0065
2349.0,0.0069
2348.0,0.0069
2347.0,0.0068
2346.0,0.0068
2345.0,0.0071
2344.0,0.0073
2343.0,0.0073
2342.0,0.0071
2341.0,0.0068
2340.0,0.0065
2339.0,0.0063
2338.0,0.0063
2337.0,0.0063
2336.0,0.0062
2335.0,0.0062
2334.0,0.0062
2333.0,0.0062
2332.0,0.0063
2331.0,0.0066
2330.0,0.007
2329.0,0.0077
2328.0,0.0083
2327.0,0.0085
2326.0,0.0083
2325.0,0.0079
2324.0,0.0076
2323.0,0.0077
2322.0,0.0079
2321.0,0.0081
2320.0,0.0084
2319.0,0.0085
2318.0,0.0085
2317.0,0.0085
2316.0,0.0085
2315.0,0.0085
2314.0,0.0086
2313.0,0.0086
2312.0,0.0085
2311.0,0.0085
2310.0,0.0086
2309.0,0.0086
2308.0,0.0087
2307.0,0.0087
2306.0,0.0087
2305.0,0.0087
2304.0,0.0088
2303.0,0.0089
2302.0,0.0089
2301.0,0.0089
2300.0,0.0089
2299.0,0.0089
2298.0,0.009
2297.0,0.0091
2296.0,0.0091
2295.0,0.0091
2294.0,0.0091
2293.0,0.0091
2292.0,0.0091
2291.0,0.0091
2290.0,0.0091
2289.0,0.0091
2288.0,0.0091
2287.0,0.0091
2286.0,0.0091
2285.0,0.0091
2284.0,0.0091
2283.0,0.0091
2282.0,0.0091
2281.0,0.0092
2280.0,0.0092
2279.0,0.0092
2278.0,0.0091
2277.0,0.009
2276.0,0.0089
2275.0,0.0089
2274.0,0.0089
2273.0,0.0089
2272.0,0.009
2271.0,0.009
2270.0,0.009
2269.0,0.009
2268.0,0.009
2267.0,0.0091
2266.0,0.0091
2265.0,0.0091
2264.0,0.0092
2263.0,0.0091
2262.0,0.0091
2261.0,0.009
2260.0,0.009
2259.0,0.0089
2258.0,0.0089
2257.0,0.0089
2256.0,0.0089
2255.0,0.0089
2254.0,0.0089
2253.0,0.0089
2252.0,0.0089
2251.0,0.0089
2250.0,0.0089
2249.0,0.0089
2248.0,0.0089
2247.0,0.0089
2246.0,0.0088
2245.0,0.0088
2244.0,0.0088
2243.0,0.0088
2242.0,0.0088
2241.0,0.0088
2240.0,0.0088
2239.0,0.0087
2238.0,0.0087
2237.0,0.0087
2236.0,0.0087
2235.0,0.0086
2234.0,0.0086
2233.0,0.0086
2232.0,0.0087
2231.0,0.0087
2230.0,0.0087
2229.0,0.0087
2228.0,0.0087
2227.0,0.0087
2226.0,0.0086
2225.0,0.0086
2224.0,0.0085
2223.0,0.0085
2222.0,0.0084
2221.0,0.0084
2220.0,0.0084
2219.0,0.0084
2218.0,0.0083
2217.0,0.0083
2216.0,0.0082
2215.0,0.0082
2214.0,0.0081
2213.0,0.0081
2212.0,0.0081
2211.0,0.0081
2210.0,0.0081
2209.0,0.0082
2208.0,0.0082
2207.0,0.0081
2206.0,0.008
2205.0,0.0079
2204.0,0.0079
2203.0,0.0079
2202.0,0.0079
2201.0,0.0079
2200.0,0.0079
2199.0,0.0079
2198.0,0.0079
2197.0,0.0079
2196.0,0.0078
2195.0,0.0077
2194.0,0.0076
2193.0,0.0077
2192.0,0.0077
2191.0,0.0077
2190.0,0.0077
2189.0,0.0076
2188.0,0.0076
2187.0,0.0076
2186.0,0.0076
2185.0,0.0076
2184.0,0.0076
2183.0,0.0076
2182.0,0.0075
2181.0,0.0075
2180.0,0.0076
2179.0,0.0076
2178.0,0.0076
2177.0,0.0075
2176.0,0.0075
2175.0,0.0075
2174.0,0.0074
2173.0,0.0074
2172.0,0.0073
2171.0,0.0073
2170.0,0.0072
2169.0,0.0072
2168.0,0.0072
2167.0,0.0072
2166.0,0.0072
2165.0,0.0072
2164.0,0.0072
2163.0,0.0072
2162.0,0.0072
2161.0,0.0071
2160.0,0.0071
2159.0,0.0071
2158.0,0.007
2157.0,0.007
2156.0,0.007
2155.0,0.007
2154.0,0.007
2153.0,0.007
2152.0,0.0071
2151.0,0.0071
2150.0,0.007
2149.0,0.007
2148.0,0.0069
2147.0,0.0069
2146.0,0.0069
2145.0,0.0069
2144.0,0.0068
2143.0,0.0068
2142.0,0.0068
2141.0,0.0068
2140.0,0.0067
2139.0,0.0067
2138.0,0.0068
2137.0,0.0069
2136.0,0.0069
2135.0,0.0069
2134.0,0.0068
2133.0,0.0067
2132.0,0.0067
2131.0,0.0067
2130.0,0.0067
2129.0,0.0067
2128.0,0.0067
2127.0,0.0067
2126.0,0.0067
2125.0,0.0067
2124.0,0.0067
2123.0,0.0066
2122.0,0.0066
2121.0,0.0067
2120.0,0.0067
2119.0,0.0067
2118.0,0.0067
2117.0,0.0067
2116.0,0.0066
2115.0,0.0065
2114.0,0.0065
2113.0,0.0065
2112.0,0.0065
2111.0,0.0065
2110.0,0.0065
2109.0,0.0064
2108.0,0.0064
2107.0,0.0063
2106.0,0.0063
2105.0,0.0063
2104.0,0.0063
2103.0,0.0063
2102.0,0.0063
2101.0,0.0063
2100.0,0.0063
2099.0,0.0063
2098.0,0.0063
2097.0,0.0063
2096.0,0.0064
2095.0,0.0064
2094.0,0.0064
2093.0,0.0063
2092.0,0.0063
2091.0,0.0062
2090.0,0.0062
2089.0,0.0061
2088.0,0.0061
2087.0,0.0061
2086.0,0.0061
2085.0,0.0061
2084.0,0.0061
2083.0,0.0062
2082.0,0.0062
2081.0,0.0062
2080.0,0.0062
2079.0,0.0061
2078.0,0.006
2077.0,0.006
2076.0,0.0059
2075.0,0.0059
2074.0,0.0059
2073.0,0.0059
2072.0,0.0059
2071.0,0.0059
2070.0,0.0059
2069.0,0.0059
2068.0,0.0059
2067.0,0.0059
2066.0,0.0059
2065.0,0.0058
2064.0,0.0058
2063.0,0.0059
2062.0,0.0059
2061.0,0.0059
2060.0,0.0059
2059.0,0.0059
2058.0,0.0059
2057.0,0.0058
2056.0,0.0058
2055.0,0.0057
2054.0,0.0056
2053.0,0.0056
2052.0,0.0056
2051.0,0.0056
2050.0,0.0056
2049.0,0.0056
2048.0,0.0055
2047.0,0.0055
2046.0,0.0055
2045.0,0.0055
2044.0,0.0055
2043.0,0.0055
2042.0,0.0054
2041.0,0.0053
2040.0,0.0052
2039.0,0.0052
2038.0,0.0051
2037.0,0.0051
2036.0,0.0052
2035.0,0.0052
2034.0,0.0053
2033.0,0.0052
2032.0,0.0052
2031.0,0.0051
2030.0,0.005
2029.0,0.0049
2028.0,0.0049
2027.0,0.0048
2026.0,0.0048
2025.0,0.0048
2024.0,0.0047
2023.0,0.0047
2022.0,0.0047
2021.0,0.0047
2020.0,0.0047
2019.0,0.0047
2018.0,0.0046
2017.0,0.0046
2016.0,0.0046
2015.0,0.0045
2014.0,0.0045
2013.0,0.0045
2012.0,0.0044
2011.0,0.0044
2010.0,0.0044
2009.0,0.0044
2008.0,0.0044
2007.0,0.0043
2006.0,0.0043
2005.0,0.0042
2004.0,0.0042
2003.0,0.0042
2002.0,0.0041
2001.0,0.0041
2000.0,0.0041
1999.0,0.0041
1998.0,0.0041
1997.0,0.004
1996.0,0.004
1995.0,0.004
1994.0,0.004
1993.0,0.004
1992.0,0.004
1991.0,0.004
1990.0,0.0039
1989.0,0.0038
1988.0,0.0038
1987.0,0.0037
1986.0,0.0037
1985.0,0.0037
1984.0,0.0037
1983.0,0.0037
1982.0,0.0037
1981.0,0.0037
1980.0,0.0037
1979.0,0.0037
1978.0,0.0036
1977.0,0.0036
1976.0,0.0035
1975.0,0.0035
1974.0,0.0034
1973.0,0.0034
1972.0,0.0034
1971.0,0.0034
1970.0,0.0034
1969.0,0.0034
1968.0,0.0034
1967.0,0.0034
1966.0,0.0033
1965.0,0.0033
1964.0,0.0033
1963.0,0.0033
1962.0,0.0033
1961.0,0.0033
1960.0,0.0033
1959.0,0.0033
1958.0,0.0033
1957.0,0.0033
1956.0,0.0032
1955.0,0.0031
1954.0,0.003
1953.0,0.0029
1952.0,0.0029
1951.0,0.0029
1950.0,0.0029
1949.0,0.0029
1948.0,0.0029
1947.0,0.0029
1946.0,0.0029
1945.0,0.0029
1944.0,0.003
1943.0,0.003
1942.0,0.003
1941.0,0.0029
1940.0,0.0029
1939.0,0.0028
1938.0,0.0027
1937.0,0.0027
1936.0,0.0027
1935.0,0.0027
1934.0,0.0027
1933.0,0.0027
1932.0,0.0027
1931.0,0.0026
1930.0,0.0025
1929.0,0.0025
1928.0,0.0025
1927.0,0.0025
1926.0,0.0026
1925.0,0.0026
1924.0,0.0025
1923.0,0.0025
1922.0,0.0024
1921.0,0.0024
1920.0,0.0023
1919.0,0.0023
1918.0,0.0023
1917.0,0.0024
1916.0,0.0024
1915.0,0.0024
1914.0,0.0023
1913.0,0.0023
1912.0,0.0023
1911.0,0.0023
1910.0,0.0022
1909.0,0.0022
1908.0,0.0021
1907.0,0.0021
1906.0,0.0021
1905.0,0.0022
1904.0,0.0022
1903.0,0.0022
1902.0,0.0021
1901.0,0.0022
1900.0,0.0022
1899.0,0.0022
1898.0,0.0021
1897.0,0.0021
1896.0,0.0021
1895.0,0.0021
1894.0,0.0021
1893.0,0.0021
1892.0,0.0022
1891.0,0.0022
1890.0,0.0021
1889.0,0.002
1888.0,0.002
1887.0,0.002
1886.0,0.002
1885.0,0.002
1884.0,0.002
1883.0,0.0021
1882.0,0.0021
1881.0,0.0021
1880.0,0.0021
1879.0,0.0021
1878.0,0.0021
1877.0,0.0022
1876.0,0.0023
1875.0,0.0023
1874.0,0.0023
1873.0,0.0023
1872.0,0.0023
1871.0,0.0023
1870.0,0.0023
1869.0,0.0023
1868.0,0.0023
1867.0,0.0023
1866.0,0.0022
1865.0,0.0022
1864.0,0.0022
1863.0,0.0022
1862.0,0.0022
1861.0,0.0022
1860.0,0.0022
1859.0,0.0021
1858.0,0.0021
1857.0,0.002
1856.0,0.002
1855.0,0.0019
1854.0,0.0019
1853.0,0.0019
1852.0,0.0019
1851.0,0.002
1850.0,0.002
1849.0,0.002
1848.0,0.002
1847.0,0.0019
1846.0,0.0019
1845.0,0.0018
1844.0,0.0017
1843.0,0.0017
1842.0,0.0017
1841.0,0.0016
1840.0,0.0016
1839.0,0.0015
1838.0,0.0015
1837.0,0.0014
1836.0,0.0015
1835.0,0.0015
1834.0,0.0015
1833.0,0.0015
1832.0,0.0016
1831.0,0.0016
1830.0,0.0016
1829.0,0.0015
1828.0,0.0015
1827.0,0.0015
1826.0,0.0014
1825.0,0.0014
1824.0,0.0013
1823.0,0.0013
1822.0,0.0012
1821.0,0.0011
1820.0,0.001
1819.0,0.001
1818.0,0.001
1817.0,0.0011
1816.0,0.0012
1815.0,0.0013
1814.0,0.0012
1813.0,0.0012
1812.0,0.0011
1811.0,0.001
1810.0,0.001
1809.0,0.001
1808.0,0.0011
1807.0,0.0011
1806.0,0.0011
1805.0,0.0011
1804.0,0.0011
1803.0,0.0011
1802.0,0.0011
1801.0,0.0011
1800.0,0.0012
1799.0,0.0012
1798.0,0.0012
1797.0,0.0011
1796.0,0.0011
1795.0,0.001
1794.0,0.001
1793.0,0.001
1792.0,0.001
1791.0,0.001
1790.0,0.001
1789.0,0.001
1788.0,0.001
1787.0,0.001
1786.0,0.0009
1785.0,0.001
1784.0,0.001
1783.0,0.0011
1782.0,0.0011
1781.0,0.0011
1780.0,0.0011
1779.0,0.0012
1778.0,0.0012
1777.0,0.0012
1776.0,0.0013
1775.0,0.0013
1774.0,0.0013
1773.0,0.0012
1772.0,0.0013
1771.0,0.0014
1770.0,0.0014
1769.0,0.0015
1768.0,0.0015
1767.0,0.0014
1766.0,0.0014
1765.0,0.0014
1764.0,0.0014
1763.0,0.0014
1762.0,0.0014
1761.0,0.0015
1760.0,0.0016
1759.0,0.0017
1758.0,0.0017
1757.0,0.0017
1756.0,0.0017
1755.0,0.0018
1754.0,0.0018
1753.0,0.0018
1752.0,0.0019
1751.0,0.0021
1750.0,0.0021
1749.0,0.0022
1748.0,0.0023
1747.0,0.0023
1746.0,0.0023
1745.0,0.0024
1744.0,0.0025
1743.0,0.0025
1742.0,0.0025
1741.0,0.0027
1740.0,0.0028
1739.0,0.0029
1738.0,0.003
1737.0,0.003
1736.0,0.0031
1735.0,0.0032
1734.0,0.0032
1733.0,0.0032
1732.0,0.0034
1731.0,0.0035
1730.0,0.0036
1729.0,0.0037
1728.0,0.0038
1727.0,0.0039
1726.0,0.004
1725.0,0.0042
1724.0,0.0044
1723.0,0.0046
1722.0,0.0047
1721.0,0.0049
1720.0,0.0052
1719.0,0.0054
1718.0,0.0055
1717.0,0.0056
1716.0,0.0058
1715.0,0.0061
1714.0,0.0064
1713.0,0.0066
1712.0,0.0069
1711.0,0.0072
1710.0,0.0075
1709.0,0.0079
1708.0,0.0084
1707.0,0.0088
1706.0,0.0092
1705.0,0.0095
1704.0,0.0098
1703.0,0.0102
1702.0,0.0106
1701.0,0.0112
1700.0,0.0121
1699.0,0.0126
1698.0,0.0128
1697.0,0.013
1696.0,0.0135
1695.0,0.0141
1694.0,0.0147
1693.0,0.0153
1692.0,0.016
1691.0,0.0166
1690.0,0.0173
1689.0,0.0179
1688.0,0.0186
1687.0,0.0191
1686.0,0.0195
1685.0,0.0202
1684.0,0.0214
1683.0,0.0225
1682.0,0.0232
1681.0,0.0239
1680.0,0.0246
1679.0,0.0253
1678.0,0.026
1677.0,0.0267
1676.0,0.0275
1675.0,0.0284
1674.0,0.0292
1673.0,0.0299
1672.0,0.0305
1671.0,0.0312
1670.0,0.0319
1669.0,0.0328
1668.0,0.0336
1667.0,0.0343
1666.0,0.0348
1665.0,0.0354
1664.0,0.0361
1663.0,0.0369
1662.0,0.0377
1661.0,0.0384
1660.0,0.0391
1659.0,0.0398
1658.0,0.0405
1657.0,0.0413
1656.0,0.0421
1655.0,0.0429
1654.0,0.044
1653.0,0.0458
1652.0,0.0477
1651.0,0.0492
1650.0,0.0505
1649.0,0.0521
1648.0,0.0544
1647.0,0.0574
1646.0,0.0603
1645.0,0.0627
1644.0,0.0651
1643.0,0.0678
1642.0,0.0707
1641.0,0.0736
1640.0,0.0763
1639.0,0.0785
1638.0,0.0798
1637.0,0.0794
1636.0,0.077
1635.0,0.074
1634.0,0.0715
1633.0,0.0695
1632.0,0.0674
1631.0,0.0652
1630.0,0.0629
1629.0,0.0606
1628.0,0.0584
1627.0,0.0567
1626.0,0.0554
1625.0,0.0542
1624.0,0.0528
1623.0,0.0513
1622.0,0.0503
1621.0,0.0498
1620.0,0.0494
1619.0,0.0489
1618.0,0.0479
1617.0,0.0466
1616.0,0.0456
1615.0,0.0452
1614.0,0.0449
1613.0,0.0446
1612.0,0.0441
1611.0,0.0437
1610.0,0.0431
1609.0,0.0426
1608.0,0.042
1607.0,0.0415
1606.0,0.041
1605.0,0.0405
1604.0,0.04
1603.0,0.0394
1602.0,0.0389
1601.0,0.0384
1600.0,0.0379
1599.0,0.0375
1598.0,0.037
1597.0,0.0365
1596.0,0.036
1595.0,0.0355
1594.0,0.035
1593.0,0.0345
1592.0,0.034
1591.0,0.0334
1590.0,0.0329
1589.0,0.0324
1588.0,0.0319
1587.0,0.0314
1586.0,0.0309
1585.0,0.0303
1584.0,0.0298
1583.0,0.0292
1582.0,0.0287
1581.0,0.0281
1580.0,0.0277
1579.0,0.0273
1578.0,0.0269
1577.0,0.0262
1576.0,0.0254
1575.0,0.0249
1574.0,0.0248
1573.0,0.0247
1572.0,0.0246
1571.0,0.0242
1570.0,0.0235
1569.0,0.0229
1568.0,0.0225
1567.0,0.0223
1566.0,0.022
1565.0,0.0217
1564.0,0.0215
1563.0,0.0214
1562.0,0.0213
1561.0,0.0213
1560.0,0.0213
1559.0,0.0207
1558.0,0.0201
1557.0,0.0199
1556.0,0.0196
1555.0,0.0192
1554.0,0.0187
1553.0,0.0184
1552.0,0.0181
1551.0,0.0178
1550.0,0.0175
1549.0,0.0173
1548.0,0.0173
1547.0,0.0173
1546.0,0.0172
1545.0,0.0171
1544.0,0.0169
1543.0,0.0169
1542.0,0.0169
1541.0,0.0167
1540.0,0.016
1539.0,0.0155
1538.0,0.0153
1537.0,0.0153
1536.0,0.0153
1535.0,0.0152
1534.0,0.0149
1533.0,0.0146
1532.0,0.0144
1531.0,0.0144
1530.0,0.0144
1529.0,0.0144
1528.0,0.0144
1527.0,0.0144
1526.0,0.0143
1525.0,0.0143
1524.0,0.0144
1523.0,0.0145
1522.0,0.0145
1521.0,0.0146
1520.0,0.0149
1519.0,0.0152
1518.0,0.0155
1517.0,0.0159
1516.0,0.0161
1515.0,0.0162
1514.0,0.0163
1513.0,0.0164
1512.0,0.0165
1511.0,0.0166
1510.0,0.0167
1509.0,0.0167
1508.0,0.0164
1507.0,0.0158
1506.0,0.0154
1505.0,0.0155
1504.0,0.0155
1503.0,0.0155
1502.0,0.0154
1501.0,0.0152
1500.0,0.015
1499.0,0.0149
1498.0,0.0146
1497.0,0.0143
1496.0,0.0141
1495.0,0.0139
1494.0,0.0139
1493.0,0.014
1492.0,0.0142
1491.0,0.0142
1490.0,0.0142
1489.0,0.0142
1488.0,0.0142
1487.0,0.0143
1486.0,0.0145
1485.0,0.0147
1484.0,0.015
1483.0,0.0153
1482.0,0.0156
1481.0,0.0158
1480.0,0.016
1479.0,0.0162
1478.0,0.0164
1477.0,0.0165
1476.0,0.0167
1475.0,0.0169
1474.0,0.0171
1473.0,0.0173
1472.0,0.0176
1471.0,0.018
1470.0,0.0185
1469.0,0.0189
1468.0,0.0193
1467.0,0.0198
1466.0,0.0202
1465.0,0.0206
1464.0,0.0209
1463.0,0.0213
1462.0,0.0216
1461.0,0.0219
1460.0,0.0223
1459.0,0.0227
1458.0,0.0229
1457.0,0.0229
1456.0,0.023
1455.0,0.0232
1454.0,0.0234
1453.0,0.0236
1452.0,0.0237
1451.0,0.0239
1450.0,0.024
1449.0,0.0241
1448.0,0.024
1447.0,0.0239
1446.0,0.0238
1445.0,0.0238
1444.0,0.0238
1443.0,0.0239
1442.0,0.0241
1441.0,0.0244
1440.0,0.0247
1439.0,0.0251
1438.0,0.0254
1437.0,0.0259
1436.0,0.0264
1435.0,0.027
1434.0,0.0276
1433.0,0.0282
1432.0,0.0288
1431.0,0.0293
1430.0,0.0298
1429.0,0.0301
1428.0,0.0303
1427.0,0.0304
1426.0,0.0304
1425.0,0.0303
1424.0,0.0301
1423.0,0.0298
1422.0,0.0295
1421.0,0.0291
1420.0,0.0285
1419.0,0.0277
1418.0,0.0271
1417.0,0.0267
1416.0,0.0264
1415.0,0.0261
1414.0,0.0257
1413.0,0.0254
1412.0,0.025
1411.0,0.0246
1410.0,0.0243
1409.0,0.0241
1408.0,0.0239
1407.0,0.0237
1406.0,0.0235
1405.0,0.0233
1404.0,0.0231
1403.0,0.023
1402.0,0.023
1401.0,0.023
1400.0,0.0229
1399.0,0.0227
1398.0,0.0226
1397.0,0.0225
1396.0,0.0224
1395.0,0.0223
1394.0,0.0222
1393.0,0.0222
1392.0,0.0223
1391.0,0.0223
1390.0,0.0225
1389.0,0.0226
1388.0,0.0229
1387.0,0.0232
1386.0,0.0235
1385.0,0.0239
1384.0,0.0244
1383.0,0.0249
1382.0,0.0256
1381.0,0.0262
1380.0,0.0269
1379.0,0.0275
1378.0,0.0281
1377.0,0.0286
1376.0,0.029
1375.0,0.0295
1374.0,0.0299
1373.0,0.0303
1372.0,0.0306
1371.0,0.0308
1370.0,0.0309
1369.0,0.0308
1368.0,0.0306
1367.0,0.0304
1366.0,0.0302
1365.0,0.0301
1364.0,0.03
1363.0,0.0298
1362.0,0.0296
1361.0,0.0293
1360.0,0.0291
1359.0,0.0288
1358.0,0.0285
1357.0,0.0283
1356.0,0.028
1355.0,0.0277
1354.0,0.0274
1353.0,0.0271
1352.0,0.0267
1351.0,0.0264
1350.0,0.0262
1349.0,0.0261
1348.0,0.0261
1347.0,0.0263
1346.0,0.0265
1345.0,0.0268
1344.0,0.0272
1343.0,0.0276
1342.0,0.028
1341.0,0.0284
1340.0,0.0288
1339.0,0.0291
1338.0,0.0295
1337.0,0.0297
1336.0,0.0299
1335.0,0.0299
1334.0,0.0299
1333.0,0.0298
1332.0,0.0296
1331.0,0.0294
1330.0,0.0291
1329.0,0.029
1328.0,0.0289
1327.0,0.029
1326.0,0.0292
1325.0,0.0295
1324.0,0.0299
1323.0,0.0304
1322.0,0.031
1321.0,0.0317
1320.0,0.0324
1319.0,0.033
1318.0,0.0335
1317.0,0.0339
1316.0,0.0341
1315.0,0.0341
1314.0,0.0339
1313.0,0.0336
1312.0,0.0332
1311.0,0.0327
1310.0,0.0321
1309.0,0.0315
1308.0,0.0309
1307.0,0.0303
1306.0,0.0297
1305.0,0.0291
1304.0,0.0285
1303.0,0.0278
1302.0,0.0273
1301.0,0.0268
1300.0,0.0263
1299.0,0.0259
1298.0,0.0255
1297.0,0.0251
1296.0,0.0248
1295.0,0.0246
1294.0,0.0246
1293.0,0.0245
1292.0,0.0245
1291.0,0.0245
1290.0,0.0245
1289.0,0.0246
1288.0,0.0246
1287.0,0.0247
1286.0,0.0249
1285.0,0.0252
1284.0,0.0255
1283.0,0.0258
1282.0,0.026
1281.0,0.0262
1280.0,0.0262
1279.0,0.0262
1278.0,0.0261
1277.0,0.0262
1276.0,0.0262
1275.0,0.0262
1274.0,0.0262
1273.0,0.0262
1272.0,0.0262
1271.0,0.0261
1270.0,0.026
1269.0,0.026
1268.0,0.0259
1267.0,0.0259
1266.0,0.0259
1265.0,0.0258
1264.0,0.0257
1263.0,0.0256
1262.0,0.0254
1261.0,0.0253
1260.0,0.0252
1259.0,0.025
1258.0,0.0249
1257.0,0.0248
1256.0,0.0247
1255.0,0.0246
1254.0,0.0245
1253.0,0.0245
1252.0,0.0245
1251.0,0.0245
1250.0,0.0246
1249.0,0.0246
1248.0,0.0246
1247.0,0.0246
1246.0,0.0244
1245.0,0.0243
1244.0,0.0241
1243.0,0.0239
1242.0,0.0237
1241.0,0.0236
1240.0,0.0235
1239.0,0.0235
1238.0,0.0234
1237.0,0.0234
1236.0,0.0234
1235.0,0.0234
1234.0,0.0234
1233.0,0.0232
1232.0,0.023
1231.0,0.0227
1230.0,0.0224
1229.0,0.0221
1228.0,0.0218
1227.0,0.0216
1226.0,0.0214
1225.0,0.0212
1224.0,0.021
1223.0,0.0209
1222.0,0.0208
1221.0,0.0207
1220.0,0.0206
1219.0,0.0205
1218.0,0.0204
1217.0,0.0204
1216.0,0.0204
1215.0,0.0204
1214.0,0.0206
1213.0,0.0207
1212.0,0.0211
1211.0,0.0215
1210.0,0.0221
1209.0,0.0227
1208.0,0.0232
1207.0,0.0236
1206.0,0.0239
1205.0,0.024
1204.0,0.024
1203.0,0.0239
1202.0,0.0238
1201.0,0.0237
1200.0,0.0235
1199.0,0.0232
1198.0,0.023
1197.0,0.0227
1196.0,0.0224
1195.0,0.0222
1194.0,0.0221
1193.0,0.0219
1192.0,0.0218
1191.0,0.0218
1190.0,0.0218
1189.0,0.0218
1188.0,0.022
1187.0,0.0222
1186.0,0.0225
1185.0,0.0228
1184.0,0.0232
1183.0,0.0237
1182.0,0.0242
1181.0,0.0247
1180.0,0.0254
1179.0,0.0261
1178.0,0.0268
1177.0,0.0277
1176.0,0.0286
1175.0,0.0296
1174.0,0.0307
1173.0,0.032
1172.0,0.0335
1171.0,0.0352
1170.0,0.0371
1169.0,0.0392
1168.0,0.0416
1167.0,0.044
1166.0,0.0465
1165.0,0.049
1164.0,0.0513
1163.0,0.0531
1162.0,0.0544
1161.0,0.0552
1160.0,0.0555
1159.0,0.0553
1158.0,0.0549
1157.0,0.0542
1156.0,0.0534
1155.0,0.0525
1154.0,0.0517
1153.0,0.051
1152.0,0.0504
1151.0,0.0499
1150.0,0.0495
1149.0,0.0492
1148.0,0.049
1147.0,0.0488
1146.0,0.0486
1145.0,0.0483
1144.0,0.0481
1143.0,0.0478
1142.0,0.0476
1141.0,0.0475
1140.0,0.0474
1139.0,0.0475
1138.0,0.0477
1137.0,0.0482
1136.0,0.0488
1135.0,0.0497
1134.0,0.0506
1133.0,0.0517
1132.0,0.0528
1131.0,0.0539
1130.0,0.0551
1129.0,0.0563
1128.0,0.0578
1127.0,0.0595
1126.0,0.0612
1125.0,0.063
1124.0,0.0647
1123.0,0.0663
1122.0,0.0678
1121.0,0.0692
1120.0,0.0707
1119.0,0.0722
1118.0,0.0741
1117.0,0.0763
1116.0,0.0787
1115.0,0.0811
1114.0,0.0833
1113.0,0.085
1112.0,0.0864
1111.0,0.0872
1110.0,0.0877
1109.0,0.0879
1108.0,0.088
1107.0,0.088
1106.0,0.0879
1105.0,0.0878
1104.0,0.0876
1103.0,0.0873
1102.0,0.0869
1101.0,0.0865
1100.0,0.0861
1099.0,0.0857
1098.0,0.0852
1097.0,0.0847
1096.0,0.0842
1095.0,0.0838
1094.0,0.0833
1093.0,0.0828
1092.0,0.0825
1091.0,0.0823
1090.0,0.0823
1089.0,0.0823
1088.0,0.0823
1087.0,0.0824
1086.0,0.0824
1085.0,0.0825
1084.0,0.0828
1083.0,0.0831
1082.0,0.0835
1081.0,0.0841
1080.0,0.0849
1079.0,0.0859
1078.0,0.087
1077.0,0.0881
1076.0,0.0892
1075.0,0.0904
1074.0,0.0915
1073.0,0.0927
1072.0,0.0939
1071.0,0.0951
1070.0,0.0965
1069.0,0.0982
1068.0,0.1001
1067.0,0.1024
1066.0,0.1051
1065.0,0.1082
1064.0,0.1117
1063.0,0.1155
1062.0,0.1192
1061.0,0.1227
1060.0,0.1256
1059.0,0.1277
1058.0,0.129
1057.0,0.1297
1056.0,0.1298
1055.0,0.1295
1054.0,0.1287
1053.0,0.1275
1052.0,0.1261
1051.0,0.1244
1050.0,0.1227
1049.0,0.1209
1048.0,0.1193
1047.0,0.1178
1046.0,0.1162
1045.0,0.1149
1044.0,0.114
1043.0,0.1135
1042.0,0.1135
1041.0,0.1142
1040.0,0.1156
1039.0,0.1174
1038.0,0.1195
1037.0,0.1218
1036.0,0.124
1035.0,0.1258
1034.0,0.1269
1033.0,0.1273
1032.0,0.1269
1031.0,0.126
1030.0,0.1246
1029.0,0.1229
1028.0,0.1213
1027.0,0.1196
1026.0,0.1179
1025.0,0.1163
1024.0,0.1146
1023.0,0.1131
1022.0,0.1116
1021.0,0.1102
1020.0,0.1089
1019.0,0.1076
1018.0,0.1063
1017.0,0.1051
1016.0,0.104
1015.0,0.1029
1014.0,0.1018
1013.0,0.1006
1012.0,0.0994
1011.0,0.0981
1010.0,0.097
1009.0,0.0961
1008.0,0.0954
1007.0,0.0949
1006.0,0.0946
1005.0,0.0945
1004.0,0.0944
1003.0,0.0943
1002.0,0.0941
1001.0,0.0939
1000.0,0.0934
999.0,0.0927
998.0,0.0918
997.0,0.0908
996.0,0.0898
995.0,0.0887
994.0,0.0877
993.0,0.0867
992.0,0.0858
991.0,0.085
990.0,0.0843
989.0,0.0838
988.0,0.0833
987.0,0.0828
986.0,0.0824
985.0,0.0819
984.0,0.0811
983.0,0.0799
982.0,0.0783
981.0,0.0763
980.0,0.0742
979.0,0.0722
978.0,0.0702
977.0,0.0683
976.0,0.0667
975.0,0.0653
974.0,0.0641
973.0,0.063
972.0,0.062
971.0,0.0611
970.0,0.0602
969.0,0.0592
968.0,0.0583
967.0,0.0574
966.0,0.0565
965.0,0.0557
964.0,0.0549
963.0,0.0541
962.0,0.0532
961.0,0.0523
960.0,0.0515
959.0,0.0507
958.0,0.05
957.0,0.0494
956.0,0.0489
955.0,0.0484
954.0,0.0478
953.0,0.0472
952.0,0.0465
951.0,0.046
950.0,0.0455
949.0,0.0451
948.0,0.0447
947.0,0.0444
946.0,0.0441
945.0,0.0438
944.0,0.0434
943.0,0.0431
942.0,0.0428
941.0,0.0425
940.0,0.0421
939.0,0.0419
938.0,0.0416
937.0,0.0413
936.0,0.041
935.0,0.0406
934.0,0.0403
933.0,0.0401
932.0,0.0399
931.0,0.0397
930.0,0.0394
929.0,0.0392
928.0,0.0389
927.0,0.0386
926.0,0.0384
925.0,0.0382
924.0,0.0381
923.0,0.038
922.0,0.0379
921.0,0.0379
920.0,0.0379
919.0,0.0378
918.0,0.0378
917.0,0.0378
916.0,0.0379
915.0,0.0379
914.0,0.038
913.0,0.0381
912.0,0.0382
911.0,0.0384
910.0,0.0386
909.0,0.0389
908.0,0.0392
907.0,0.0395
906.0,0.0398
905.0,0.0402
904.0,0.0406
903.0,0.041
902.0,0.0414
901.0,0.0419
900.0,0.0423
899.0,0.0426
898.0,0.0428
897.0,0.0429
896.0,0.0428
895.0,0.0425
894.0,0.0421
893.0,0.0418
892.0,0.0415
891.0,0.0413
890.0,0.0411
889.0,0.0408
888.0,0.0405
887.0,0.0401
886.0,0.0398
885.0,0.0396
884.0,0.0394
883.0,0.0393
882.0,0.0392
881.0,0.0391
880.0,0.039
879.0,0.0388
878.0,0.0388
877.0,0.0389
876.0,0.0391
875.0,0.0393
874.0,0.0393
873.0,0.0393
872.0,0.0391
871.0,0.039
870.0,0.0388
869.0,0.0387
868.0,0.0387
867.0,0.0387
866.0,0.0385
865.0,0.0383
864.0,0.038
863.0,0.0378
862.0,0.0375
861.0,0.0374
860.0,0.0373
859.0,0.0373
858.0,0.0373
857.0,0.0373
856.0,0.0372
855.0,0.0371
854.0,0.0369
853.0,0.0368
852.0,0.0368
851.0,0.0368
850.0,0.0369
849.0,0.0369
848.0,0.0369
847.0,0.0368
846.0,0.0368
845.0,0.0368
844.0,0.0368
843.0,0.0369
842.0,0.037
841.0,0.0371
840.0,0.0372
839.0,0.0373
838.0,0.0374
837.0,0.0374
836.0,0.0374
835.0,0.0374
834.0,0.0375
833.0,0.0375
832.0,0.0377
831.0,0.038
830.0,0.0382
829.0,0.0384
828.0,0.0386
827.0,0.0388
826.0,0.0391
825.0,0.0394
824.0,0.0399
823.0,0.0404
822.0,0.0408
821.0,0.0412
820.0,0.0416
819.0,0.0419
818.0,0.0422
817.0,0.0425
816.0,0.0429
815.0,0.0432
814.0,0.0434
813.0,0.0436
812.0,0.0437
811.0,0.0437
810.0,0.0437
809.0,0.0437
808.0,0.0438
807.0,0.044
806.0,0.0441
805.0,0.0444
804.0,0.0447
803.0,0.045
802.0,0.0452
801.0,0.0454
800.0,0.0455
799.0,0.0456
798.0,0.0458
797.0,0.0461
796.0,0.0463
795.0,0.0465
794.0,0.0467
793.0,0.0469
792.0,0.0471
791.0,0.0475
790.0,0.0478
789.0,0.0482
788.0,0.0487
787.0,0.049
786.0,0.0494
785.0,0.0498
784.0,0.0502
783.0,0.0507
782.0,0.0511
781.0,0.0515
780.0,0.0518
779.0,0.0522
778.0,0.0527
777.0,0.053
776.0,0.0534
775.0,0.0538
774.0,0.0543
773.0,0.0548
772.0,0.0553
771.0,0.0557
770.0,0.056
769.0,0.0564
768.0,0.057
767.0,0.0576
766.0,0.0583
765.0,0.0589
764.0,0.0593
763.0,0.0597
762.0,0.0601
761.0,0.0605
760.0,0.0609
759.0,0.0615
758.0,0.062
757.0,0.0626
756.0,0.0631
755.0,0.0636
754.0,0.0642
753.0,0.0648
752.0,0.0654
751.0,0.0659
750.0,0.0665
749.0,0.0671
748.0,0.0677
747.0,0.0682
746.0,0.0685
745.0,0.0689
744.0,0.0694
743.0,0.0701
742.0,0.0709
741.0,0.0716
740.0,0.0723
739.0,0.0728
738.0,0.0732
737.0,0.0736
736.0,0.074
735.0,0.0745
734.0,0.0751
733.0,0.0758
732.0,0.0765
731.0,0.0771
730.0,0.0777
729.0,0.0782
728.0,0.0788
727.0,0.0794
726.0,0.0802
725.0,0.0811
724.0,0.0821
723.0,0.083
722.0,0.0837
721.0,0.0844
720.0,0.0853
719.0,0.0863
718.0,0.0872
717.0,0.0881
716.0,0.089
715.0,0.0901
714.0,0.091
713.0,0.0918
712.0,0.0923
711.0,0.0926
710.0,0.0929
709.0,0.0933
708.0,0.0939
707.0,0.0946
706.0,0.0955
705.0,0.0963
704.0,0.0968
703.0,0.0969
702.0,0.0967
701.0,0.0967
700.0,0.0971
699.0,0.0977
698.0,0.0986
697.0,0.0996
696.0,0.1005
695.0,0.101
694.0,0.1011
693.0,0.101
692.0,0.1009
691.0,0.1009
690.0,0.1008
689.0,0.1004
688.0,0.0998
687.0,0.0992
686.0,0.0993
685.0,0.1002
684.0,0.1012
683.0,0.1018
682.0,0.1019
681.0,0.1014
680.0,0.1005
679.0,0.1002
678.0,0.1011
677.0,0.1032
676.0,0.1054
675.0,0.1061
674.0,0.1057
673.0,0.1052
672.0,0.1052
671.0,0.1053
670.0,0.1044
669.0,0.1028
668.0,0.1032
667.0,0.1068
666.0,0.1103
665.0,0.1119
664.0,0.1119
663.0,0.1108
662.0,0.1094
661.0,0.1088
660.0,0.1092
659.0,0.1101
658.0,0.1106
657.0,0.1109
656.0,0.1116
655.0,0.1124
654.0,0.1129
653.0,0.1129
652.0,0.1124
651.0,0.1118
650.0,0.111
649.0,0.1106
648.0,0.1104
647.0,0.1104
646.0,0.1105
645.0,0.1108
644.0,0.1113
643.0,0.1118
642.0,0.1122
641.0,0.113
640.0,0.1144
639.0,0.1163
638.0,0.1183
637.0,0.1204
636.0,0.1226
635.0,0.1244
634.0,0.1255
633.0,0.1259
632.0,0.126
631.0,0.1263
630.0,0.1266
629.0,0.1267
628.0,0.1266
627.0,0.1264
626.0,0.1267
625.0,0.1278
624.0,0.1295
623.0,0.131
622.0,0.1318
621.0,0.1323
620.0,0.1333
619.0,0.1347
618.0,0.136
617.0,0.137
616.0,0.1381
615.0,0.1392
614.0,0.14
613.0,0.1401
612.0,0.1399
611.0,0.14
610.0,0.1412
609.0,0.1434
608.0,0.1459
607.0,0.1474
606.0,0.1475
605.0,0.1472
604.0,0.1479
603.0,0.1501
602.0,0.1528
601.0,0.1549
600.0,0.1558
