cm-1,A
4000.0,0.0076
3999.0,0.0076
3998.0,0.0076
3997.0,0.0075
3996.0,0.0075
3995.0,0.0075
3994.0,0.0074
3993.0,0.0074
3992.0,0.0074
3991.0,0.0074
3990.0,0.0075
3989.0,0.0075
3988.0,0.0075
3987.0,0.0076
3986.0,0.0076
3985.0,0.0075
3984.0,0.0075
3983.0,0.0075
3982.0,0.0075
3981.0,0.0075
3980.0,0.0076
3979.0,0.0077
3978.0,0.0078
3977.0,0.0078
3976.0,0.0078
3975.0,0.0078
3974.0,0.0078
3973.0,0.0078
3972.0,0.0078
3971.0,0.0077
3970.0,0.0077
3969.0,0.0076
3968.0,0.0076
3967.0,0.0077
3966.0,0.0077
3965.0,0.0076
3964.0,0.0076
3963.0,0.0075
3962.0,0.0075
3961.0,0.0075
3960.0,0.0076
3959.0,0.0076
3958.0,0.0077
3957.0,0.0077
3956.0,0.0077
3955.0,0.0077
3954.0,0.0077
3953.0,0.0077
3952.0,0.0077
3951.0,0.0078
3950.0,0.0078
3949.0,0.0079
3948.0,0.0079
3947.0,0.0079
3946.0,0.0079
3945.0,0.0079
3944.0,0.0078
3943.0,0.0079
3942.0,0.0079
3941.0,0.008
3940.0,0.008
3939.0,0.008
3938.0,0.0081
3937.0,0.0082
3936.0,0.0083
3935.0,0.0083
3934.0,0.0082
3933.0,0.0081
3932.0,0.008
3931.0,0.0079
3930.0,0.0079
3929.0,0.0079
3928.0,0.0079
3927.0,0.0079
3926.0,0.0079
3925.0,0.008
3924.0,0.0081
3923.0,0.0081
3922.0,0.0082
3921.0,0.0082
3920.0,0.0082
3919.0,0.0081
3918.0,0.0081
3917.0,0.008
3916.0,0.008
3915.0,0.008
3914.0,0.008
3913.0,0.008
3912.0,0.0081
3911.0,0.0082
3910.0,0.0083
3909.0,0.0084
3908.0,0.0085
3907.0,0.0086
3906.0,0.0086
3905.0,0.0085
3904.0,0.0085
3903.0,0.0085
3902.0,0.0085
3901.0,0.0085
3900.0,0.0085
3899.0,0.0084
3898.0,0.0084
3897.0,0.0083
3896.0,0.0084
3895.0,0.0085
3894.0,0.0085
3893.0,0.0084
3892.0,0.0083
3891.0,0.0083
3890.0,0.0083
3889.0,0.0084
3888.0,0.0084
3887.0,0.0084
3886.0,0.0085
3885.0,0.0086
3884.0,0.0087
3883.0,0.0086
3882.0,0.0084
3881.0,0.0083
3880.0,0.0083
3879.0,0.0084
3878.0,0.0084
3877.0,0.0083
3876.0,0.0082
3875.0,0.0083
3874.0,0.0085
3873.0,0.0088
3872.0,0.0089
3871.0,0.0089
3870.0,0.0089
3869.0,0.0089
3868.0,0.0088
3867.0,0.0087
3866.0,0.0085
3865.0,0.0084
3864.0,0.0084
3863.0,0.0084
3862.0,0.0083
3861.0,0.0082
3860.0,0.0083
3859.0,0.0084
3858.0,0.0086
3857.0,0.0088
3856.0,0.0088
3855.0,0.0085
3854.0,0.0085
3853.0,0.0087
3852.0,0.0087
3851.0,0.0087
3850.0,0.0086
3849.0,0.0086
3848.0,0.0085
3847.0,0.0085
3846.0,0.0085
3845.0,0.0084
3844.0,0.0084
3843.0,0.0084
3842.0,0.0085
3841.0,0.0085
3840.0,0.0085
3839.0,0.0085
3838.0,0.0085
3837.0,0.0086
3836.0,0.0087
3835.0,0.0088
3834.0,0.0087
3833.0,0.0086
3832.0,0.0086
3831.0,0.0086
3830.0,0.0085
3829.0,0.0085
3828.0,0.0083
3827.0,0.0083
3826.0,0.0084
3825.0,0.0085
3824.0,0.0085
3823.0,0.0082
3822.0,0.0082
3821.0,0.0084
3820.0,0.0087
3819.0,0.0088
3818.0,0.0086
3817.0,0.0085
3816.0,0.0085
3815.0,0.0086
3814.0,0.0086
3813.0,0.0085
3812.0,0.0084
3811.0,0.0084
3810.0,0.0084
3809.0,0.0083
3808.0,0.0083
3807.0,0.0084
3806.0,0.0086
3805.0,0.0087
3804.0,0.0087
3803.0,0.0086
3802.0,0.0087
3801.0,0.0088
3800.0,0.0089
3799.0,0.0088
3798.0,0.0088
3797.0,0.0088
3796.0,0.0089
3795.0,0.0088
3794.0,0.0088
3793.0,0.0087
3792.0,0.0086
3791.0,0.0086
3790.0,0.0087
3789.0,0.0087
3788.0,0.0087
3787.0,0.0087
3786.0,0.0086
3785.0,0.0086
3784.0,0.0086
3783.0,0.0086
3782.0,0.0085
3781.0,0.0085
3780.0,0.0086
3779.0,0.0087
3778.0,0.0088
3777.0,0.0088
3776.0,0.0087
3775.0,0.0086
3774.0,0.0086
3773.0,0.0086
3772.0,0.0086
3771.0,0.0086
3770.0,0.0088
3769.0,0.009
3768.0,0.009
3767.0,0.009
3766.0,0.0089
3765.0,0.0088
3764.0,0.0088
3763.0,0.0089
3762.0,0.0088
3761.0,0.0088
3760.0,0.0089
3759.0,0.009
3758.0,0.009
3757.0,0.009
3756.0,0.009
3755.0,0.0091
3754.0,0.0091
3753.0,0.0092
3752.0,0.0092
3751.0,0.0092
3750.0,0.0092
3749.0,0.0092
3748.0,0.0093
3747.0,0.0093
3746.0,0.0092
3745.0,0.0091
3744.0,0.0092
3743.0,0.0092
3742.0,0.0091
3741.0,0.009
3740.0,0.009
3739.0,0.009
3738.0,0.0089
3737.0,0.0088
3736.0,0.0088
3735.0,0.0088
3734.0,0.0088
3733.0,0.0087
3732.0,0.0087
3731.0,0.0087
3730.0,0.0088
3729.0,0.0088
3728.0,0.0088
3727.0,0.0088
3726.0,0.0088
3725.0,0.0088
3724.0,0.0087
3723.0,0.0087
3722.0,0.0088
3721.0,0.0088
3720.0,0.0089
3719.0,0.009
3718.0,0.0091
3717.0,0.0092
3716.0,0.0093
3715.0,0.0091
3714.0,0.0087
3713.0,0.0084
3712.0,0.0084
3711.0,0.0085
3710.0,0.0086
3709.0,0.0086
3708.0,0.0085
3707.0,0.0085
3706.0,0.0084
3705.0,0.0084
3704.0,0.0084
3703.0,0.0084
3702.0,0.0086
3701.0,0.0087
3700.0,0.0088
3699.0,0.0088
3698.0,0.0087
3697.0,0.0087
3696.0,0.0087
3695.0,0.0087
3694.0,0.0088
3693.0,0.0088
3692.0,0.0088
3691.0,0.0088
3690.0,0.0089
3689.0,0.0089
3688.0,0.0089
3687.0,0.0089
3686.0,0.0089
3685.0,0.0088
3684.0,0.0088
3683.0,0.0088
3682.0,0.0089
3681.0,0.009
3680.0,0.0092
3679.0,0.0095
3678.0,0.0096
3677.0,0.0096
3676.0,0.0097
3675.0,0.0099
3674.0,0.0099
3673.0,0.0098
3672.0,0.0096
3671.0,0.0095
3670.0,0.0096
3669.0,0.0097
3668.0,0.0096
3667.0,0.0095
3666.0,0.0094
3665.0,0.0093
3664.0,0.0093
3663.0,0.0093
3662.0,0.0094
3661.0,0.0095
3660.0,0.0096
3659.0,0.0095
3658.0,0.0094
3657.0,0.0093
3656.0,0.0094
3655.0,0.0096
3654.0,0.0097
3653.0,0.0097
3652.0,0.0097
3651.0,0.0097
3650.0,0.01
3649.0,0.0104
3648.0,0.0104
3647.0,0.0102
3646.0,0.0099
3645.0,0.0098
3644.0,0.0098
3643.0,0.0098
3642.0,0.0098
3641.0,0.0098
3640.0,0.0096
3639.0,0.0095
3638.0,0.0094
3637.0,0.0094
3636.0,0.0094
3635.0,0.0095
3634.0,0.0096
3633.0,0.0099
3632.0,0.0101
3631.0,0.01
3630.0,0.0099
3629.0,0.01
3628.0,0.01
3627.0,0.0099
3626.0,0.0098
3625.0,0.0097
3624.0,0.0097
3623.0,0.0097
3622.0,0.0098
3621.0,0.0098
3620.0,0.01
3619.0,0.0102
3618.0,0.0103
3617.0,0.0105
3616.0,0.0106
3615.0,0.0107
3614.0,0.0108
3613.0,0.0109
3612.0,0.0109
3611.0,0.0109
3610.0,0.0107
3609.0,0.0106
3608.0,0.0104
3607.0,0.0102
3606.0,0.01
3605.0,0.0099
3604.0,0.0098
3603.0,0.0098
3602.0,0.0098
3601.0,0.0098
3600.0,0.0099
3599.0,0.01
3598.0,0.0101
3597.0,0.0101
3596.0,0.0102
3595.0,0.0102
3594.0,0.0102
3593.0,0.0103
3592.0,0.0104
3591.0,0.0106
3590.0,0.0107
3589.0,0.0108
3588.0,0.0109
3587.0,0.0109
3586.0,0.0108
3585.0,0.0107
3584.0,0.0106
3583.0,0.0105
3582.0,0.0105
3581.0,0.0105
3580.0,0.0104
3579.0,0.0104
3578.0,0.0104
3577.0,0.0104
3576.0,0.0104
3575.0,0.0105
3574.0,0.0106
3573.0,0.0109
3572.0,0.0111
3571.0,0.0113
3570.0,0.0114
3569.0,0.0114
3568.0,0.0115
3567.0,0.0116
3566.0,0.0116
3565.0,0.0114
3564.0,0.0112
3563.0,0.0111
3562.0,0.0109
3561.0,0.0109
3560.0,0.0108
3559.0,0.0108
3558.0,0.0108
3557.0,0.0108
3556.0,0.0109
3555.0,0.011
3554.0,0.0111
3553.0,0.0112
3552.0,0.0112
3551.0,0.0113
3550.0,0.0114
3549.0,0.0114
3548.0,0.0114
3547.0,0.0113
3546.0,0.0113
3545.0,0.0113
3544.0,0.0113
3543.0,0.0114
3542.0,0.0115
3541.0,0.0115
3540.0,0.0116
3539.0,0.0116
3538.0,0.0116
3537.0,0.0116
3536.0,0.0115
3535.0,0.0115
3534.0,0.0115
3533.0,0.0115
3532.0,0.0115
3531.0,0.0116
3530.0,0.0117
3529.0,0.0117
3528.0,0.0117
3527.0,0.0115
3526.0,0.0114
3525.0,0.0114
3524.0,0.0114
3523.0,0.0115
3522.0,0.0116
3521.0,0.0116
3520.0,0.0116
3519.0,0.0115
3518.0,0.0116
3517.0,0.0116
3516.0,0.0117
3515.0,0.0117
3514.0,0.0117
3513.0,0.0117
3512.0,0.0117
3511.0,0.0117
3510.0,0.0117
3509.0,0.0117
3508.0,0.0117
3507.0,0.0117
3506.0,0.0117
3505.0,0.0117
3504.0,0.0117
3503.0,0.0118
3502.0,0.0118
3501.0,0.0118
3500.0,0.0117
3499.0,0.0117
3498.0,0.0117
3497.0,0.0117
3496.0,0.0118
3495.0,0.0118
3494.0,0.0118
3493.0,0.0118
3492.0,0.0118
3491.0,0.0119
3490.0,0.0119
3489.0,0.012
3488.0,0.012
3487.0,0.012
3486.0,0.012
3485.0,0.012
3484.0,0.012
3483.0,0.012
3482.0,0.012
3481.0,0.012
3480.0,0.0121
3479.0,0.0121
3478.0,0.0122
3477.0,0.0122
3476.0,0.0121
3475.0,0.0121
3474.0,0.0122
3473.0,0.0122
3472.0,0.0123
3471.0,0.0123
3470.0,0.0123
3469.0,0.0122
3468.0,0.0121
3467.0,0.0121
3466.0,0.0121
3465.0,0.0122
3464.0,0.0123
3463.0,0.0125
3462.0,0.0126
3461.0,0.0126
3460.0,0.0125
3459.0,0.0124
3458.0,0.0123
3457.0,0.0123
3456.0,0.0123
3455.0,0.0124
3454.0,0.0125
3453.0,0.0126
3452.0,0.0127
3451.0,0.0127
3450.0,0.0127
3449.0,0.0126
3448.0,0.0126
3447.0,0.0126
3446.0,0.0127
3445.0,0.0128
3444.0,0.0128
3443.0,0.0129
3442.0,0.0129
3441.0,0.0128
3440.0,0.0128
3439.0,0.0129
3438.0,0.0129
3437.0,0.013
3436.0,0.013
3435.0,0.013
3434.0,0.013
3433.0,0.013
3432.0,0.013
3431.0,0.013
3430.0,0.013
3429.0,0.0131
3428.0,0.0131
3427.0,0.0131
3426.0,0.013
3425.0,0.013
3424.0,0.013
3423.0,0.0131
3422.0,0.0131
3421.0,0.0131
3420.0,0.0131
3419.0,0.0131
3418.0,0.0132
3417.0,0.0132
3416.0,0.0132
3415.0,0.0131
3414.0,0.013
3413.0,0.0129
3412.0,0.0128
3411.0,0.0127
3410.0,0.0127
3409.0,0.0127
3408.0,0.0127
3407.0,0.0128
3406.0,0.0128
3405.0,0.0127
3404.0,0.0127
3403.0,0.0126
3402.0,0.0127
3401.0,0.0127
3400.0,0.0128
3399.0,0.0129
3398.0,0.0129
3397.0,0.0129
3396.0,0.0129
3395.0,0.0128
3394.0,0.0128
3393.0,0.0129
3392.0,0.0129
3391.0,0.0128
3390.0,0.0128
3389.0,0.0127
3388.0,0.0127
3387.0,0.0128
3386.0,0.0128
3385.0,0.0127
3384.0,0.0127
3383.0,0.0127
3382.0,0.0127
3381.0,0.0127
3380.0,0.0127
3379.0,0.0127
3378.0,0.0126
3377.0,0.0126
3376.0,0.0126
3375.0,0.0126
3374.0,0.0126
3373.0,0.0127
3372.0,0.0127
3371.0,0.0128
3370.0,0.0128
3369.0,0.0129
3368.0,0.013
3367.0,0.0131
3366.0,0.0131
3365.0,0.013
3364.0,0.0129
3363.0,0.0128
3362.0,0.0128
3361.0,0.0128
3360.0,0.0128
3359.0,0.0128
3358.0,0.0128
3357.0,0.0126
3356.0,0.0125
3355.0,0.0125
3354.0,0.0125
3353.0,0.0126
3352.0,0.0127
3351.0,0.0127
3350.0,0.0127
3349.0,0.0127
3348.0,0.0127
3347.0,0.0128
3346.0,0.0128
3345.0,0.0128
3344.0,0.0129
3343.0,0.0129
3342.0,0.0129
3341.0,0.0128
3340.0,0.0127
3339.0,0.0126
3338.0,0.0126
3337.0,0.0126
3336.0,0.0126
3335.0,0.0127
3334.0,0.0127
3333.0,0.0127
3332.0,0.0127
3331.0,0.0126
3330.0,0.0126
3329.0,0.0126
3328.0,0.0126
3327.0,0.0126
3326.0,0.0126
3325.0,0.0126
3324.0,0.0127
3323.0,0.0127
3322.0,0.0128
3321.0,0.0128
3320.0,0.0128
3319.0,0.0128
3318.0,0.0128
3317.0,0.0127
3316.0,0.0126
3315.0,0.0125
3314.0,0.0124
3313.0,0.0125
3312.0,0.0125
3311.0,0.0126
3310.0,0.0126
3309.0,0.0126
3308.0,0.0126
3307.0,0.0125
3306.0,0.0124
3305.0,0.0124
3304.0,0.0125
3303.0,0.0126
3302.0,0.0126
3301.0,0.0127
3300.0,0.0126
3299.0,0.0126
3298.0,0.0126
3297.0,0.0126
3296.0,0.0125
3295.0,0.0124
3294.0,0.0124
3293.0,0.0125
3292.0,0.0125
3291.0,0.0126
3290.0,0.0125
3289.0,0.0125
3288.0,0.0126
3287.0,0.0126
3286.0,0.0126
3285.0,0.0126
3284.0,0.0125
3283.0,0.0125
3282.0,0.0125
3281.0,0.0126
3280.0,0.0126
3279.0,0.0126
3278.0,0.0125
3277.0,0.0125
3276.0,0.0126
3275.0,0.0126
3274.0,0.0126
3273.0,0.0126
3272.0,0.0126
3271.0,0.0124
3270.0,0.0123
3269.0,0.0123
3268.0,0.0123
3267.0,0.0125
3266.0,0.0126
3265.0,0.0127
3264.0,0.0127
3263.0,0.0125
3262.0,0.0124
3261.0,0.0123
3260.0,0.0123
3259.0,0.0123
3258.0,0.0123
3257.0,0.0122
3256.0,0.0121
3255.0,0.0121
3254.0,0.0121
3253.0,0.0122
3252.0,0.0124
3251.0,0.0125
3250.0,0.0125
3249.0,0.0125
3248.0,0.0125
3247.0,0.0124
3246.0,0.0123
3245.0,0.0123
3244.0,0.0123
3243.0,0.0124
3242.0,0.0124
3241.0,0.0125
3240.0,0.0125
3239.0,0.0126
3238.0,0.0127
3237.0,0.0127
3236.0,0.0126
3235.0,0.0125
3234.0,0.0123
3233.0,0.0121
3232.0,0.012
3231.0,0.012
3230.0,0.0121
3229.0,0.0121
3228.0,0.0121
3227.0,0.0121
3226.0,0.0121
3225.0,0.0121
3224.0,0.0121
3223.0,0.0121
3222.0,0.0121
3221.0,0.0121
3220.0,0.0121
3219.0,0.012
3218.0,0.0121
3217.0,0.0121
3216.0,0.0121
3215.0,0.012
3214.0,0.0119
3213.0,0.0119
3212.0,0.0119
3211.0,0.012
3210.0,0.012
3209.0,0.0121
3208.0,0.0121
3207.0,0.0122
3206.0,0.0122
3205.0,0.0123
3204.0,0.0123
3203.0,0.0122
3202.0,0.0122
3201.0,0.0121
3200.0,0.0121
3199.0,0.0121
3198.0,0.012
3197.0,0.012
3196.0,0.0119
3195.0,0.0119
3194.0,0.0118
3193.0,0.0118
3192.0,0.0119
3191.0,0.0119
3190.0,0.012
3189.0,0.012
3188.0,0.0121
3187.0,0.0121
3186.0,0.012
3185.0,0.0119
3184.0,0.0118
3183.0,0.0118
3182.0,0.0119
3181.0,0.012
3180.0,0.0121
3179.0,0.0121
3178.0,0.012
3177.0,0.0119
3176.0,0.0118
3175.0,0.0117
3174.0,0.0117
3173.0,0.0117
3172.0,0.0117
3171.0,0.0117
3170.0,0.0117
3169.0,0.0118
3168.0,0.0118
3167.0,0.0119
3166.0,0.0119
3165.0,0.0118
3164.0,0.0117
3163.0,0.0117
3162.0,0.0116
3161.0,0.0115
3160.0,0.0115
3159.0,0.0116
3158.0,0.0116
3157.0,0.0117
3156.0,0.0118
3155.0,0.0118
3154.0,0.0118
3153.0,0.0118
3152.0,0.0117
3151.0,0.0117
3150.0,0.0117
3149.0,0.0117
3148.0,0.0116
3147.0,0.0116
3146.0,0.0116
3145.0,0.0116
3144.0,0.0116
3143.0,0.0115
3142.0,0.0115
3141.0,0.0116
3140.0,0.0116
3139.0,0.0116
3138.0,0.0117
3137.0,0.0117
3136.0,0.0117
3135.0,0.0118
3134.0,0.0118
3133.0,0.0118
3132.0,0.0117
3131.0,0.0117
3130.0,0.0117
3129.0,0.0117
3128.0,0.0117
3127.0,0.0117
3126.0,0.0116
3125.0,0.0116
3124.0,0.0116
3123.0,0.0117
3122.0,0.0117
3121.0,0.0117
3120.0,0.0117
3119.0,0.0117
3118.0,0.0117
3117.0,0.0117
3116.0,0.0118
3115.0,0.0118
3114.0,0.0118
3113.0,0.0119
3112.0,0.0119
3111.0,0.0119
3110.0,0.0118
3109.0,0.0118
3108.0,0.0118
3107.0,0.0118
3106.0,0.0118
3105.0,0.0118
3104.0,0.0118
3103.0,0.0118
3102.0,0.0117
3101.0,0.0117
3100.0,0.0116
3099.0,0.0116
3098.0,0.0116
3097.0,0.0117
3096.0,0.0117
3095.0,0.0117
3094.0,0.0117
3093.0,0.0116
3092.0,0.0116
3091.0,0.0115
3090.0,0.0116
3089.0,0.0116
3088.0,0.0117
3087.0,0.0117
3086.0,0.0117
3085.0,0.0118
3084.0,0.0118
3083.0,0.0119
3082.0,0.0119
3081.0,0.012
3080.0,0.012
3079.0,0.012
3078.0,0.012
3077.0,0.0119
3076.0,0.0119
3075.0,0.012
3074.0,0.012
3073.0,0.012
3072.0,0.0121
3071.0,0.0121
3070.0,0.0121
3069.0,0.0122
3068.0,0.0122
3067.0,0.0121
3066.0,0.012
3065.0,0.0119
3064.0,0.0119
3063.0,0.0119
3062.0,0.012
3061.0,0.012
3060.0,0.0121
3059.0,0.0121
3058.0,0.0121
3057.0,0.0121
3056.0,0.0121
3055.0,0.0121
3054.0,0.0122
3053.0,0.0122
3052.0,0.0123
3051.0,0.0123
3050.0,0.0122
3049.0,0.0121
3048.0,0.012
3047.0,0.0119
3046.0,0.0119
3045.0,0.0118
3044.0,0.0118
3043.0,0.0119
3042.0,0.0119
3041.0,0.0118
3040.0,0.0117
3039.0,0.0117
3038.0,0.0116
3037.0,0.0116
3036.0,0.0116
3035.0,0.0116
3034.0,0.0116
3033.0,0.0117
3032.0,0.0117
3031.0,0.0118
3030.0,0.0118
3029.0,0.0119
3028.0,0.0119
3027.0,0.0119
3026.0,0.0119
3025.0,0.012
3024.0,0.0121
3023.0,0.0122
3022.0,0.0123
3021.0,0.0124
3020.0,0.0125
3019.0,0.0127
3018.0,0.0129
3017.0,0.0131
3016.0,0.0133
3015.0,0.0135
3014.0,0.0138
3013.0,0.014
3012.0,0.0142
3011.0,0.0144
3010.0,0.0146
3009.0,0.0147
3008.0,0.0149
3007.0,0.015
3006.0,0.0152
3005.0,0.0153
3004.0,0.0153
3003.0,0.0153
3002.0,0.0153
3001.0,0.0153
3000.0,0.0152
2999.0,0.0151
2998.0,0.0151
2997.0,0.015
2996.0,0.0149
2995.0,0.0149
2994.0,0.0149
2993.0,0.015
2992.0,0.0151
2991.0,0.0153
2990.0,0.0155
2989.0,0.0157
2988.0,0.0158
2987.0,0.016
2986.0,0.0163
2985.0,0.0166
2984.0,0.0169
2983.0,0.0173
2982.0,0.0178
2981.0,0.0182
2980.0,0.0186
2979.0,0.0191
2978.0,0.0195
2977.0,0.02
2976.0,0.0206
2975.0,0.0212
2974.0,0.0218
2973.0,0.0225
2972.0,0.0234
2971.0,0.0243
2970.0,0.0253
2969.0,0.0263
2968.0,0.0273
2967.0,0.0284
2966.0,0.0295
2965.0,0.0306
2964.0,0.0317
2963.0,0.0327
2962.0,0.0336
2961.0,0.0344
2960.0,0.0351
2959.0,0.0358
2958.0,0.0363
2957.0,0.0366
2956.0,0.0368
2955.0,0.0369
2954.0,0.0368
2953.0,0.0366
2952.0,0.0365
2951.0,0.0363
2950.0,0.0361
2949.0,0.036
2948.0,0.036
2947.0,0.0363
2946.0,0.0367
2945.0,0.0374
2944.0,0.0383
2943.0,0.0393
2942.0,0.0406
2941.0,0.0419
2940.0,0.0435
2939.0,0.0453
2938.0,0.0472
2937.0,0.0492
2936.0,0.0514
2935.0,0.0538
2934.0,0.0561
2933.0,0.0586
2932.0,0.0611
2931.0,0.0637
2930.0,0.0662
2929.0,0.0686
2928.0,0.0709
2927.0,0.0729
2926.0,0.0746
2925.0,0.0758
2924.0,0.0765
2923.0,0.0768
2922.0,0.0765
2921.0,0.0756
2920.0,0.0742
2919.0,0.0724
2918.0,0.0703
2917.0,0.068
2916.0,0.0658
2915.0,0.0636
2914.0,0.0614
2913.0,0.0593
2912.0,0.0573
2911.0,0.0555
2910.0,0.054
2909.0,0.0525
2908.0,0.0512
2907.0,0.0499
2906.0,0.0488
2905.0,0.0477
2904.0,0.0467
2903.0,0.0457
2902.0,0.0448
2901.0,0.0438
2900.0,0.043
2899.0,0.0422
2898.0,0.0414
2897.0,0.0406
2896.0,0.0398
2895.0,0.039
2894.0,0.0382
2893.0,0.0374
2892.0,0.0367
2891.0,0.036
2890.0,0.0353
2889.0,0.0345
2888.0,0.0338
2887.0,0.0331
2886.0,0.0325
2885.0,0.032
2884.0,0.0316
2883.0,0.0312
2882.0,0.0309
2881.0,0.0308
2880.0,0.0308
2879.0,0.0309
2878.0,0.0311
2877.0,0.0314
2876.0,0.0318
2875.0,0.0322
2874.0,0.0327
2873.0,0.033
2872.0,0.0333
2871.0,0.0335
2870.0,0.0337
2869.0,0.0338
2868.0,0.0342
2867.0,0.0347
2866.0,0.0355
2865.0,0.0366
2864.0,0.0379
2863.0,0.0395
2862.0,0.0413
2861.0,0.0435
2860.0,0.0458
2859.0,0.0483
2858.0,0.0509
2857.0,0.0532
2856.0,0.0552
2855.0,0.0566
2854.0,0.0574
2853.0,0.0573
2852.0,0.0564
2851.0,0.0548
2850.0,0.0526
2849.0,0.05
2848.0,0.0472
2847.0,0.0443
2846.0,0.0415
2845.0,0.0389
2844.0,0.0365
2843.0,0.0343
2842.0,0.0324
2841.0,0.0308
2840.0,0.0294
2839.0,0.0282
2838.0,0.0271
2837.0,0.0262
2836.0,0.0255
2835.0,0.0248
2834.0,0.0241
2833.0,0.0235
2832.0,0.023
2831.0,0.0225
2830.0,0.022
2829.0,0.0217
2828.0,0.0213
2827.0,0.021
2826.0,0.0207
2825.0,0.0204
2824.0,0.0201
2823.0,0.0198
2822.0,0.0195
2821.0,0.0192
2820.0,0.019
2819.0,0.0187
2818.0,0.0186
2817.0,0.0184
2816.0,0.0183
2815.0,0.0182
2814.0,0.0181
2813.0,0.018
2812.0,0.0178
2811.0,0.0176
2810.0,0.0175
2809.0,0.0174
2808.0,0.0173
2807.0,0.0172
2806.0,0.0171
2805.0,0.017
2804.0,0.0169
2803.0,0.0168
2802.0,0.0167
2801.0,0.0166
2800.0,0.0166
2799.0,0.0165
2798.0,0.0163
2797.0,0.0162
2796.0,0.0161
2795.0,0.0161
2794.0,0.016
2793.0,0.0161
2792.0,0.0161
2791.0,0.016
2790.0,0.0159
2789.0,0.0158
2788.0,0.0158
2787.0,0.0157
2786.0,0.0157
2785.0,0.0156
2784.0,0.0155
2783.0,0.0154
2782.0,0.0153
2781.0,0.0153
2780.0,0.0152
2779.0,0.0152
2778.0,0.0152
2777.0,0.0151
2776.0,0.0151
2775.0,0.015
2774.0,0.015
2773.0,0.015
2772.0,0.015
2771.0,0.015
2770.0,0.015
2769.0,0.015
2768.0,0.0149
2767.0,0.0148
2766.0,0.0147
2765.0,0.0147
2764.0,0.0147
2763.0,0.0147
2762.0,0.0147
2761.0,0.0146
2760.0,0.0145
2759.0,0.0145
2758.0,0.0145
2757.0,0.0145
2756.0,0.0145
2755.0,0.0145
2754.0,0.0145
2753.0,0.0145
2752.0,0.0145
2751.0,0.0145
2750.0,0.0145
2749.0,0.0145
2748.0,0.0145
2747.0,0.0144
2746.0,0.0144
2745.0,0.0144
2744.0,0.0143
2743.0,0.0143
2742.0,0.0143
2741.0,0.0143
2740.0,0.0143
2739.0,0.0143
2738.0,0.0144
2737.0,0.0143
2736.0,0.0143
2735.0,0.0143
2734.0,0.0143
2733.0,0.0143
2732.0,0.0143
2731.0,0.0143
2730.0,0.0144
2729.0,0.0144
2728.0,0.0143
2727.0,0.0143
2726.0,0.0143
2725.0,0.0143
2724.0,0.0143
2723.0,0.0143
2722.0,0.0143
2721.0,0.0143
2720.0,0.0142
2719.0,0.0142
2718.0,0.0141
2717.0,0.0141
2716.0,0.0141
2715.0,0.0141
2714.0,0.0141
2713.0,0.0141
2712.0,0.0141
2711.0,0.014
2710.0,0.014
2709.0,0.014
2708.0,0.014
2707.0,0.014
2706.0,0.0141
2705.0,0.0141
2704.0,0.0141
2703.0,0.0141
2702.0,0.014
2701.0,0.014
2700.0,0.014
2699.0,0.0139
2698.0,0.0138
2697.0,0.0138
2696.0,0.0138
2695.0,0.0138
2694.0,0.0139
2693.0,0.0139
2692.0,0.0139
2691.0,0.0139
2690.0,0.0139
2689.0,0.0139
2688.0,0.0139
2687.0,0.0139
2686.0,0.0139
2685.0,0.0139
2684.0,0.0139
2683.0,0.0138
2682.0,0.0138
2681.0,0.0138
2680.0,0.0138
2679.0,0.0139
2678.0,0.0139
2677.0,0.0139
2676.0,0.0138
2675.0,0.0138
2674.0,0.0138
2673.0,0.0138
2672.0,0.0138
2671.0,0.0138
2670.0,0.0138
2669.0,0.0138
2668.0,0.0137
2667.0,0.0137
2666.0,0.0136
2665.0,0.0136
2664.0,0.0136
2663.0,0.0137
2662.0,0.0137
2661.0,0.0136
2660.0,0.0136
2659.0,0.0135
2658.0,0.0135
2657.0,0.0135
2656.0,0.0135
2655.0,0.0135
2654.0,0.0135
2653.0,0.0135
2652.0,0.0134
2651.0,0.0134
2650.0,0.0134
2649.0,0.0134
2648.0,0.0133
2647.0,0.0133
2646.0,0.0134
2645.0,0.0134
2644.0,0.0134
2643.0,0.0134
2642.0,0.0133
2641.0,0.0132
2640.0,0.0132
2639.0,0.0133
2638.0,0.0133
2637.0,0.0133
2636.0,0.0133
2635.0,0.0133
2634.0,0.0132
2633.0,0.0132
2632.0,0.0132
2631.0,0.0132
2630.0,0.0133
2629.0,0.0133
2628.0,0.0132
2627.0,0.0132
2626.0,0.0132
2625.0,0.0132
2624.0,0.0132
2623.0,0.0132
2622.0,0.0132
2621.0,0.0132
2620.0,0.0132
2619.0,0.0132
2618.0,0.0132
2617.0,0.0132
2616.0,0.0132
2615.0,0.0132
2614.0,0.0131
2613.0,0.0131
2612.0,0.0131
2611.0,0.0131
2610.0,0.0131
2609.0,0.0131
2608.0,0.013
2607.0,0.013
2606.0,0.013
2605.0,0.0131
2604.0,0.0131
2603.0,0.0131
2602.0,0.0131
2601.0,0.0131
2600.0,0.013
2599.0,0.013
2598.0,0.0131
2597.0,0.0131
2596.0,0.0131
2595.0,0.0132
2594.0,0.0132
2593.0,0.0131
2592.0,0.0131
2591.0,0.013
2590.0,0.013
2589.0,0.013
2588.0,0.0131
2587.0,0.0132
2586.0,0.0132
2585.0,0.0132
2584.0,0.0131
2583.0,0.0131
2582.0,0.013
2581.0,0.013
2580.0,0.013
2579.0,0.013
2578.0,0.013
2577.0,0.0129
2576.0,0.0129
2575.0,0.0128
2574.0,0.0128
2573.0,0.0128
2572.0,0.0128
2571.0,0.0129
2570.0,0.0129
2569.0,0.0129
2568.0,0.0129
2567.0,0.0129
2566.0,0.0128
2565.0,0.0128
2564.0,0.0128
2563.0,0.0128
2562.0,0.0128
2561.0,0.0128
2560.0,0.0128
2559.0,0.0128
2558.0,0.0128
2557.0,0.0127
2556.0,0.0127
2555.0,0.0127
2554.0,0.0127
2553.0,0.0127
2552.0,0.0127
2551.0,0.0127
2550.0,0.0127
2549.0,0.0127
2548.0,0.0127
2547.0,0.0127
2546.0,0.0127
2545.0,0.0126
2544.0,0.0126
2543.0,0.0126
2542.0,0.0126
2541.0,0.0126
2540.0,0.0125
2539.0,0.0125
2538.0,0.0126
2537.0,0.0126
2536.0,0.0127
2535.0,0.0127
2534.0,0.0127
2533.0,0.0127
2532.0,0.0127
2531.0,0.0127
2530.0,0.0126
2529.0,0.0126
2528.0,0.0126
2527.0,0.0125
2526.0,0.0125
2525.0,0.0125
2524.0,0.0126
2523.0,0.0126
2522.0,0.0126
2521.0,0.0126
2520.0,0.0125
2519.0,0.0125
2518.0,0.0124
2517.0,0.0124
2516.0,0.0125
2515.0,0.0125
2514.0,0.0125
2513.0,0.0125
2512.0,0.0125
2511.0,0.0125
2510.0,0.0125
2509.0,0.0125
2508.0,0.0125
2507.0,0.0125
2506.0,0.0125
2505.0,0.0124
2504.0,0.0124
2503.0,0.0123
2502.0,0.0123
2501.0,0.0123
2500.0,0.0123
2499.0,0.0123
2498.0,0.0122
2497.0,0.0122
2496.0,0.0122
2495.0,0.0122
2494.0,0.0121
2493.0,0.0121
2492.0,0.0121
2491.0,0.0121
2490.0,0.0121
2489.0,0.0122
2488.0,0.0122
2487.0,0.0121
2486.0,0.0121
2485.0,0.0121
2484.0,0.0121
2483.0,0.0121
2482.0,0.0121
2481.0,0.0121
2480.0,0.012
2479.0,0.0121
2478.0,0.0121
2477.0,0.0122
2476.0,0.0122
2475.0,0.0121
2474.0,0.0121
2473.0,0.012
2472.0,0.012
2471.0,0.0119
2470.0,0.012
2469.0,0.012
2468.0,0.012
2467.0,0.0119
2466.0,0.0119
2465.0,0.0118
2464.0,0.0117
2463.0,0.0117
2462.0,0.0117
2461.0,0.0118
2460.0,0.0119
2459.0,0.0119
2458.0,0.0119
2457.0,0.0119
2456.0,0.0118
2455.0,0.0118
2454.0,0.0118
2453.0,0.0117
2452.0,0.0117
2451.0,0.0117
2450.0,0.0118
2449.0,0.0118
2448.0,0.0118
2447.0,0.0118
2446.0,0.0118
2445.0,0.0118
2444.0,0.0118
2443.0,0.0118
2442.0,0.0118
2441.0,0.0118
2440.0,0.0118
2439.0,0.0118
2438.0,0.0118
2437.0,0.0118
2436.0,0.0118
2435.0,0.0118
2434.0,0.0118
2433.0,0.0117
2432.0,0.0117
2431.0,0.0118
2430.0,0.0118
2429.0,0.0118
2428.0,0.0118
2427.0,0.0118
2426.0,0.0118
2425.0,0.0118
2424.0,0.0118
2423.0,0.0117
2422.0,0.0117
2421.0,0.0117
2420.0,0.0117
2419.0,0.0117
2418.0,0.0117
2417.0,0.0117
2416.0,0.0117
2415.0,0.0116
2414.0,0.0116
2413.0,0.0116
2412.0,0.0116
2411.0,0.0117
2410.0,0.0117
2409.0,0.0117
2408.0,0.0117
2407.0,0.0117
2406.0,0.0117
2405.0,0.0117
2404.0,0.0118
2403.0,0.0118
2402.0,0.0118
2401.0,0.0118
2400.0,0.0118
2399.0,0.0118
2398.0,0.0118
2397.0,0.0118
2396.0,0.0118
2395.0,0.0118
2394.0,0.0119
2393.0,0.0119
2392.0,0.0118
2391.0,0.0118
2390.0,0.0118
2389.0,0.0117
2388.0,0.0117
2387.0,0.0116
2386.0,0.0114
2385.0,0.0113
2384.0,0.0112
2383.0,0.0111
2382.0,0.011
2381.0,0.0109
2380.0,0.0109
2379.0,0.0109
2378.0,0.0109
2377.0,0.0111
2376.0,0.0114
2375.0,0.0117
2374.0,0.0118
2373.0,0.0117
2372.0,0.0113
2371.0,0.011
2370.0,0.011
2369.0,0.0112
2368.0,0.0113
2367.0,0.011
2366.0,0.0102
2365.0,0.0098
2364.0,0.0101
2363.0,0.0107
2362.0,0.0117
2361.0,0.0133
2360.0,0.0144
2359.0,0.0138
2358.0,0.0119
2357.0,0.0106
2356.0,0.0106
2355.0,0.0109
2354.0,0.0109
2353.0,0.0109
2352.0,0.0114
2351.0,0.0122
2350.0,0.0123
2349.0,0.0114
2348.0,0.0097
2347.0,0.0082
2346.0,0.0074
2345.0,0.0076
2344.0,0.0081
2343.0,0.0085
2342.0,0.0088
2341.0,0.0092
2340.0,0.0094
2339.0,0.0095
2338.0,0.0095
2337.0,0.0096
2336.0,0.01
2335.0,0.0105
2334.0,0.0109
2333.0,0.0109
2332.0,0.0107
2331.0,0.0104
2330.0,0.0102
2329.0,0.0105
2328.0,0.011
2327.0,0.0116
2326.0,0.0117
2325.0,0.0115
2324.0,0.0111
2323.0,0.0108
2322.0,0.0107
2321.0,0.0107
2320.0,0.011
2319.0,0.0112
2318.0,0.0115
2317.0,0.0114
2316.0,0.0111
2315.0,0.0107
2314.0,0.0103
2313.0,0.01
2312.0,0.0099
2311.0,0.0099
2310.0,0.0099
2309.0,0.0098
2308.0,0.0099
2307.0,0.0099
2306.0,0.01
2305.0,0.01
2304.0,0.0101
2303.0,0.0101
2302.0,0.0101
2301.0,0.0102
2300.0,0.0102
2299.0,0.0103
2298.0,0.0103
2297.0,0.0104
2296.0,0.0104
2295.0,0.0104
2294.0,0.0105
2293.0,0.0105
2292.0,0.0106
2291.0,0.0106
2290.0,0.0106
2289.0,0.0107
2288.0,0.0108
2287.0,0.0109
2286.0,0.011
2285.0,0.011
2284.0,0.0111
2283.0,0.0111
2282.0,0.011
2281.0,0.011
2280.0,0.0109
2279.0,0.0109
2278.0,0.0108
2277.0,0.0108
2276.0,0.0108
2275.0,0.0108
2274.0,0.0108
2273.0,0.0108
2272.0,0.0108
2271.0,0.0108
2270.0,0.0107
2269.0,0.0107
2268.0,0.0108
2267.0,0.0108
2266.0,0.0109
2265.0,0.0109
2264.0,0.0108
2263.0,0.0108
2262.0,0.0108
2261.0,0.0109
2260.0,0.0109
2259.0,0.0108
2258.0,0.0108
2257.0,0.0108
2256.0,0.0108
2255.0,0.0108
2254.0,0.0108
2253.0,0.0108
2252.0,0.0108
2251.0,0.0108
2250.0,0.0109
2249.0,0.0109
2248.0,0.0109
2247.0,0.0109
2246.0,0.0109
2245.0,0.0109
2244.0,0.0109
2243.0,0.0109
2242.0,0.0108
2241.0,0.0108
2240.0,0.0108
2239.0,0.0107
2238.0,0.0107
2237.0,0.0107
2236.0,0.0107
2235.0,0.0107
2234.0,0.0107
2233.0,0.0108
2232.0,0.0108
2231.0,0.0109
2230.0,0.0109
2229.0,0.0109
2228.0,0.0109
2227.0,0.0108
2226.0,0.0108
2225.0,0.0108
2224.0,0.0109
2223.0,0.0109
2222.0,0.0109
2221.0,0.0108
2220.0,0.0107
2219.0,0.0107
2218.0,0.0106
2217.0,0.0106
2216.0,0.0106
2215.0,0.0106
2214.0,0.0105
2213.0,0.0105
2212.0,0.0105
2211.0,0.0105
2210.0,0.0105
2209.0,0.0105
2208.0,0.0105
2207.0,0.0106
2206.0,0.0106
2205.0,0.0107
2204.0,0.0107
2203.0,0.0106
2202.0,0.0105
2201.0,0.0105
2200.0,0.0104
2199.0,0.0104
2198.0,0.0104
2197.0,0.0104
2196.0,0.0104
2195.0,0.0104
2194.0,0.0105
2193.0,0.0105
2192.0,0.0105
2191.0,0.0105
2190.0,0.0105
2189.0,0.0104
2188.0,0.0104
2187.0,0.0104
2186.0,0.0104
2185.0,0.0105
2184.0,0.0105
2183.0,0.0106
2182.0,0.0106
2181.0,0.0105
2180.0,0.0105
2179.0,0.0104
2178.0,0.0104
2177.0,0.0104
2176.0,0.0104
2175.0,0.0104
2174.0,0.0104
2173.0,0.0104
2172.0,0.0104
2171.0,0.0104
2170.0,0.0104
2169.0,0.0104
2168.0,0.0104
2167.0,0.0104
2166.0,0.0105
2165.0,0.0105
2164.0,0.0104
2163.0,0.0104
2162.0,0.0103
2161.0,0.0103
2160.0,0.0104
2159.0,0.0105
2158.0,0.0105
2157.0,0.0105
2156.0,0.0105
2155.0,0.0105
2154.0,0.0105
2153.0,0.0105
2152.0,0.0105
2151.0,0.0105
2150.0,0.0105
2149.0,0.0104
2148.0,0.0104
2147.0,0.0104
2146.0,0.0104
2145.0,0.0104
2144.0,0.0104
2143.0,0.0104
2142.0,0.0103
2141.0,0.0103
2140.0,0.0104
2139.0,0.0105
2138.0,0.0105
2137.0,0.0105
2136.0,0.0104
2135.0,0.0103
2134.0,0.0103
2133.0,0.0103
2132.0,0.0103
2131.0,0.0104
2130.0,0.0104
2129.0,0.0104
2128.0,0.0104
2127.0,0.0104
2126.0,0.0104
2125.0,0.0104
2124.0,0.0104
2123.0,0.0103
2122.0,0.0103
2121.0,0.0103
2120.0,0.0103
2119.0,0.0103
2118.0,0.0103
2117.0,0.0103
2116.0,0.0103
2115.0,0.0103
2114.0,0.0103
2113.0,0.0104
2112.0,0.0104
2111.0,0.0104
2110.0,0.0104
2109.0,0.0104
2108.0,0.0103
2107.0,0.0103
2106.0,0.0103
2105.0,0.0103
2104.0,0.0103
2103.0,0.0103
2102.0,0.0103
2101.0,0.0103
2100.0,0.0102
2099.0,0.0102
2098.0,0.0101
2097.0,0.0101
2096.0,0.0102
2095.0,0.0103
2094.0,0.0103
2093.0,0.0103
2092.0,0.0102
2091.0,0.0102
2090.0,0.0101
2089.0,0.0101
2088.0,0.0101
2087.0,0.0102
2086.0,0.0102
2085.0,0.0102
2084.0,0.0102
2083.0,0.0101
2082.0,0.0101
2081.0,0.0101
2080.0,0.0101
2079.0,0.0101
2078.0,0.0101
2077.0,0.0101
2076.0,0.01
2075.0,0.01
2074.0,0.01
2073.0,0.01
2072.0,0.01
2071.0,0.01
2070.0,0.01
2069.0,0.01
2068.0,0.01
2067.0,0.0099
2066.0,0.0099
2065.0,0.0099
2064.0,0.0099
2063.0,0.0099
2062.0,0.0099
2061.0,0.0098
2060.0,0.0098
2059.0,0.0097
2058.0,0.0097
2057.0,0.0097
2056.0,0.0097
2055.0,0.0097
2054.0,0.0096
2053.0,0.0096
2052.0,0.0096
2051.0,0.0096
2050.0,0.0096
2049.0,0.0096
2048.0,0.0096
2047.0,0.0096
2046.0,0.0096
2045.0,0.0096
2044.0,0.0096
2043.0,0.0096
2042.0,0.0096
2041.0,0.0095
2040.0,0.0095
2039.0,0.0095
2038.0,0.0094
2037.0,0.0094
2036.0,0.0094
2035.0,0.0094
2034.0,0.0094
2033.0,0.0094
2032.0,0.0094
2031.0,0.0094
2030.0,0.0094
2029.0,0.0093
2028.0,0.0093
2027.0,0.0093
2026.0,0.0093
2025.0,0.0093
2024.0,0.0093
2023.0,0.0093
2022.0,0.0093
2021.0,0.0093
2020.0,0.0093
2019.0,0.0093
2018.0,0.0093
2017.0,0.0093
2016.0,0.0093
2015.0,0.0093
2014.0,0.0092
2013.0,0.0091
2012.0,0.0091
2011.0,0.009
2010.0,0.009
2009.0,0.009
2008.0,0.0091
2007.0,0.0091
2006.0,0.0092
2005.0,0.0092
2004.0,0.0091
2003.0,0.0091
2002.0,0.009
2001.0,0.009
2000.0,0.009
1999.0,0.009
1998.0,0.0091
1997.0,0.0091
1996.0,0.0091
1995.0,0.0092
1994.0,0.0092
1993.0,0.0091
1992.0,0.0091
1991.0,0.0091
1990.0,0.009
1989.0,0.009
1988.0,0.009
1987.0,0.0091
1986.0,0.0091
1985.0,0.0092
1984.0,0.0092
1983.0,0.0092
1982.0,0.0092
1981.0,0.0091
1980.0,0.0091
1979.0,0.0091
1978.0,0.0091
1977.0,0.0091
1976.0,0.0091
1975.0,0.0091
1974.0,0.0091
1973.0,0.0091
1972.0,0.0092
1971.0,0.0092
1970.0,0.0092
1969.0,0.0092
1968.0,0.0092
1967.0,0.0092
1966.0,0.0093
1965.0,0.0094
1964.0,0.0094
1963.0,0.0095
1962.0,0.0095
1961.0,0.0094
1960.0,0.0095
1959.0,0.0095
1958.0,0.0095
1957.0,0.0095
1956.0,0.0095
1955.0,0.0096
1954.0,0.0096
1953.0,0.0097
1952.0,0.0097
1951.0,0.0097
1950.0,0.0098
1949.0,0.0097
1948.0,0.0097
1947.0,0.0097
1946.0,0.0096
1945.0,0.0096
1944.0,0.0095
1943.0,0.0095
1942.0,0.0094
1941.0,0.0093
1940.0,0.0092
1939.0,0.0092
1938.0,0.0091
1937.0,0.0091
1936.0,0.009
1935.0,0.0089
1934.0,0.0089
1933.0,0.0088
1932.0,0.0088
1931.0,0.0088
1930.0,0.0087
1929.0,0.0086
1928.0,0.0085
1927.0,0.0084
1926.0,0.0084
1925.0,0.0084
1924.0,0.0083
1923.0,0.0082
1922.0,0.0082
1921.0,0.0081
1920.0,0.008
1919.0,0.008
1918.0,0.0079
1917.0,0.0079
1916.0,0.0078
1915.0,0.0078
1914.0,0.0077
1913.0,0.0076
1912.0,0.0076
1911.0,0.0076
1910.0,0.0076
1909.0,0.0075
1908.0,0.0075
1907.0,0.0074
1906.0,0.0073
1905.0,0.0072
1904.0,0.0072
1903.0,0.0072
1902.0,0.0071
1901.0,0.0071
1900.0,0.0071
1899.0,0.007
1898.0,0.007
1897.0,0.0069
1896.0,0.0069
1895.0,0.0068
1894.0,0.0068
1893.0,0.0068
1892.0,0.0068
1891.0,0.0068
1890.0,0.0068
1889.0,0.0067
1888.0,0.0066
1887.0,0.0065
1886.0,0.0064
1885.0,0.0063
1884.0,0.0063
1883.0,0.0062
1882.0,0.0061
1881.0,0.0061
1880.0,0.006
1879.0,0.006
1878.0,0.006
1877.0,0.0059
1876.0,0.0059
1875.0,0.0058
1874.0,0.0058
1873.0,0.0058
1872.0,0.0058
1871.0,0.0058
1870.0,0.0058
1869.0,0.0057
1868.0,0.0056
1867.0,0.0056
1866.0,0.0056
1865.0,0.0055
1864.0,0.0054
1863.0,0.0053
1862.0,0.0053
1861.0,0.0053
1860.0,0.0052
1859.0,0.0052
1858.0,0.0051
1857.0,0.0051
1856.0,0.0051
1855.0,0.005
1854.0,0.005
1853.0,0.005
1852.0,0.005
1851.0,0.005
1850.0,0.005
1849.0,0.005
1848.0,0.005
1847.0,0.005
1846.0,0.005
1845.0,0.0049
1844.0,0.0048
1843.0,0.0048
1842.0,0.0048
1841.0,0.0049
1840.0,0.0049
1839.0,0.0049
1838.0,0.0049
1837.0,0.0049
1836.0,0.0049
1835.0,0.0049
1834.0,0.0049
1833.0,0.005
1832.0,0.005
1831.0,0.005
1830.0,0.005
1829.0,0.0049
1828.0,0.0049
1827.0,0.0049
1826.0,0.0049
1825.0,0.0048
1824.0,0.0047
1823.0,0.0047
1822.0,0.0047
1821.0,0.0046
1820.0,0.0046
1819.0,0.0045
1818.0,0.0045
1817.0,0.0044
1816.0,0.0044
1815.0,0.0044
1814.0,0.0043
1813.0,0.0042
1812.0,0.0042
1811.0,0.0041
1810.0,0.004
1809.0,0.0039
1808.0,0.0038
1807.0,0.0038
1806.0,0.0037
1805.0,0.0036
1804.0,0.0036
1803.0,0.0035
1802.0,0.0034
1801.0,0.0032
1800.0,0.0031
1799.0,0.0031
1798.0,0.003
1797.0,0.0029
1796.0,0.0029
1795.0,0.0028
1794.0,0.0027
1793.0,0.0026
1792.0,0.0025
1791.0,0.0024
1790.0,0.0024
1789.0,0.0023
1788.0,0.0023
1787.0,0.0023
1786.0,0.0022
1785.0,0.0021
1784.0,0.0021
1783.0,0.0021
1782.0,0.002
1781.0,0.0019
1780.0,0.0018
1779.0,0.0018
1778.0,0.0019
1777.0,0.0019
1776.0,0.0019
1775.0,0.0021
1774.0,0.0021
1773.0,0.0021
1772.0,0.002
1771.0,0.0021
1770.0,0.0022
1769.0,0.0022
1768.0,0.0023
1767.0,0.0025
1766.0,0.0028
1765.0,0.0031
1764.0,0.0035
1763.0,0.0042
1762.0,0.0049
1761.0,0.0057
1760.0,0.0066
1759.0,0.0076
1758.0,0.009
1757.0,0.0105
1756.0,0.0121
1755.0,0.0137
1754.0,0.0153
1753.0,0.0171
1752.0,0.0193
1751.0,0.0219
1750.0,0.0246
1749.0,0.0272
1748.0,0.0298
1747.0,0.0321
1746.0,0.0344
1745.0,0.0367
1744.0,0.0393
1743.0,0.042
1742.0,0.0445
1741.0,0.0472
1740.0,0.0501
1739.0,0.0529
1738.0,0.055
1737.0,0.0566
1736.0,0.0582
1735.0,0.0607
1734.0,0.0642
1733.0,0.0675
1732.0,0.07
1731.0,0.0726
1730.0,0.0754
1729.0,0.0785
1728.0,0.0814
1727.0,0.0843
1726.0,0.0872
1725.0,0.0903
1724.0,0.0935
1723.0,0.0967
1722.0,0.0995
1721.0,0.1018
1720.0,0.1037
1719.0,0.1059
1718.0,0.1087
1717.0,0.1114
1716.0,0.1131
1715.0,0.1141
1714.0,0.1145
1713.0,0.1143
1712.0,0.1132
1711.0,0.1115
1710.0,0.1093
1709.0,0.1068
1708.0,0.1038
1707.0,0.1
1706.0,0.0955
1705.0,0.0912
1704.0,0.088
1703.0,0.0855
1702.0,0.0826
1701.0,0.0784
1700.0,0.074
1699.0,0.0714
1698.0,0.0699
1697.0,0.0679
1696.0,0.0654
1695.0,0.0632
1694.0,0.0618
1693.0,0.0608
1692.0,0.0597
1691.0,0.0583
1690.0,0.0568
1689.0,0.0556
1688.0,0.0547
1687.0,0.0539
1686.0,0.0531
1685.0,0.052
1684.0,0.051
1683.0,0.0503
1682.0,0.0497
1681.0,0.0491
1680.0,0.0484
1679.0,0.0476
1678.0,0.047
1677.0,0.0463
1676.0,0.0455
1675.0,0.0447
1674.0,0.0441
1673.0,0.0436
1672.0,0.0431
1671.0,0.0426
1670.0,0.042
1669.0,0.0415
1668.0,0.041
1667.0,0.0404
1666.0,0.0399
1665.0,0.0394
1664.0,0.0389
1663.0,0.0383
1662.0,0.0378
1661.0,0.0374
1660.0,0.037
1659.0,0.0366
1658.0,0.0361
1657.0,0.0356
1656.0,0.0352
1655.0,0.0348
1654.0,0.0343
1653.0,0.0342
1652.0,0.0341
1651.0,0.034
1650.0,0.034
1649.0,0.0338
1648.0,0.0334
1647.0,0.0331
1646.0,0.0329
1645.0,0.0328
1644.0,0.0326
1643.0,0.0324
1642.0,0.0321
1641.0,0.0319
1640.0,0.0316
1639.0,0.0313
1638.0,0.031
1637.0,0.0308
1636.0,0.0306
1635.0,0.0304
1634.0,0.0302
1633.0,0.03
1632.0,0.0298
1631.0,0.0296
1630.0,0.0294
1629.0,0.0292
1628.0,0.0289
1627.0,0.0287
1626.0,0.0286
1625.0,0.0284
1624.0,0.0282
1623.0,0.028
1622.0,0.0279
1621.0,0.0278
1620.0,0.0278
1619.0,0.0278
1618.0,0.0279
1617.0,0.0283
1616.0,0.0287
1615.0,0.0288
1614.0,0.0289
1613.0,0.0289
1612.0,0.0289
1611.0,0.0288
1610.0,0.0287
1609.0,0.0286
1608.0,0.0284
1607.0,0.0282
1606.0,0.0279
1605.0,0.0276
1604.0,0.0273
1603.0,0.0269
1602.0,0.0266
1601.0,0.0262
1600.0,0.0259
1599.0,0.0256
1598.0,0.0253
1597.0,0.0251
1596.0,0.0249
1595.0,0.0248
1594.0,0.0246
1593.0,0.0245
1592.0,0.0244
1591.0,0.0244
1590.0,0.0243
1589.0,0.0242
1588.0,0.0242
1587.0,0.0241
1586.0,0.0241
1585.0,0.0242
1584.0,0.0244
1583.0,0.0248
1582.0,0.0254
1581.0,0.0259
1580.0,0.0264
1579.0,0.0268
1578.0,0.0269
1577.0,0.0268
1576.0,0.0264
1575.0,0.0259
1574.0,0.0254
1573.0,0.025
1572.0,0.0245
1571.0,0.024
1570.0,0.0233
1569.0,0.0228
1568.0,0.0225
1567.0,0.0222
1566.0,0.0219
1565.0,0.0215
1564.0,0.0212
1563.0,0.0209
1562.0,0.0207
1561.0,0.0206
1560.0,0.0204
1559.0,0.0204
1558.0,0.0203
1557.0,0.02
1556.0,0.0199
1555.0,0.0196
1554.0,0.0194
1553.0,0.0192
1552.0,0.0192
1551.0,0.019
1550.0,0.0189
1549.0,0.0187
1548.0,0.0186
1547.0,0.0185
1546.0,0.0184
1545.0,0.0183
1544.0,0.0182
1543.0,0.018
1542.0,0.0178
1541.0,0.0177
1540.0,0.0177
1539.0,0.0175
1538.0,0.0174
1537.0,0.0174
1536.0,0.0174
1535.0,0.0174
1534.0,0.0174
1533.0,0.0174
1532.0,0.0174
1531.0,0.0173
1530.0,0.0172
1529.0,0.0171
1528.0,0.017
1527.0,0.0168
1526.0,0.0166
1525.0,0.0164
1524.0,0.0163
1523.0,0.0162
1522.0,0.016
1521.0,0.0158
1520.0,0.0156
1519.0,0.0155
1518.0,0.0154
1517.0,0.0153
1516.0,0.0152
1515.0,0.0152
1514.0,0.0152
1513.0,0.0153
1512.0,0.0155
1511.0,0.0158
1510.0,0.0162
1509.0,0.0169
1508.0,0.0189
1507.0,0.0226
1506.0,0.0251
1505.0,0.0256
1504.0,0.0252
1503.0,0.0243
1502.0,0.023
1501.0,0.0215
1500.0,0.0201
1499.0,0.0188
1498.0,0.0177
1497.0,0.0168
1496.0,0.0162
1495.0,0.0157
1494.0,0.0154
1493.0,0.0153
1492.0,0.0151
1491.0,0.0149
1490.0,0.0148
1489.0,0.0149
1488.0,0.015
1487.0,0.0151
1486.0,0.0152
1485.0,0.0154
1484.0,0.0158
1483.0,0.0162
1482.0,0.0166
1481.0,0.0172
1480.0,0.0178
1479.0,0.0184
1478.0,0.0189
1477.0,0.0196
1476.0,0.0204
1475.0,0.0211
1474.0,0.0222
1473.0,0.0241
1472.0,0.0264
1471.0,0.0282
1470.0,0.0296
1469.0,0.0309
1468.0,0.032
1467.0,0.0329
1466.0,0.0336
1465.0,0.0342
1464.0,0.0348
1463.0,0.0351
1462.0,0.0354
1461.0,0.0357
1460.0,0.036
1459.0,0.0363
1458.0,0.0369
1457.0,0.0378
1456.0,0.0382
1455.0,0.0382
1454.0,0.0379
1453.0,0.0375
1452.0,0.037
1451.0,0.0363
1450.0,0.0357
1449.0,0.0352
1448.0,0.0346
1447.0,0.0341
1446.0,0.0337
1445.0,0.0334
1444.0,0.0332
1443.0,0.0329
1442.0,0.0325
1441.0,0.0322
1440.0,0.0319
1439.0,0.0314
1438.0,0.0308
1437.0,0.0299
1436.0,0.0289
1435.0,0.028
1434.0,0.0271
1433.0,0.0263
1432.0,0.0252
1431.0,0.024
1430.0,0.0228
1429.0,0.0217
1428.0,0.0209
1427.0,0.0203
1426.0,0.0198
1425.0,0.0193
1424.0,0.019
1423.0,0.0189
1422.0,0.0189
1421.0,0.0191
1420.0,0.0198
1419.0,0.0211
1418.0,0.0229
1417.0,0.0249
1416.0,0.0272
1415.0,0.0301
1414.0,0.0336
1413.0,0.0377
1412.0,0.0422
1411.0,0.0464
1410.0,0.0498
1409.0,0.052
1408.0,0.0528
1407.0,0.0522
1406.0,0.0502
1405.0,0.0474
1404.0,0.0444
1403.0,0.0418
1402.0,0.0396
1401.0,0.0375
1400.0,0.0354
1399.0,0.0333
1398.0,0.0317
1397.0,0.0304
1396.0,0.0293
1395.0,0.0281
1394.0,0.0271
1393.0,0.0264
1392.0,0.0259
1391.0,0.0255
1390.0,0.0251
1389.0,0.0248
1388.0,0.0246
1387.0,0.0247
1386.0,0.0248
1385.0,0.0251
1384.0,0.0254
1383.0,0.0258
1382.0,0.0262
1381.0,0.0268
1380.0,0.0275
1379.0,0.0281
1378.0,0.0286
1377.0,0.029
1376.0,0.0293
1375.0,0.0295
1374.0,0.0296
1373.0,0.0297
1372.0,0.0297
1371.0,0.0297
1370.0,0.0295
1369.0,0.0292
1368.0,0.0286
1367.0,0.0279
1366.0,0.027
1365.0,0.0259
1364.0,0.0247
1363.0,0.0233
1362.0,0.022
1361.0,0.021
1360.0,0.0204
1359.0,0.0199
1358.0,0.0196
1357.0,0.0194
1356.0,0.0194
1355.0,0.0195
1354.0,0.0197
1353.0,0.0201
1352.0,0.0205
1351.0,0.0212
1350.0,0.0221
1349.0,0.0232
1348.0,0.0247
1347.0,0.0265
1346.0,0.0287
1345.0,0.0313
1344.0,0.034
1343.0,0.0369
1342.0,0.0396
1341.0,0.0422
1340.0,0.0442
1339.0,0.0452
1338.0,0.0447
1337.0,0.0431
1336.0,0.0405
1335.0,0.0373
1334.0,0.0338
1333.0,0.0303
1332.0,0.027
1331.0,0.0243
1330.0,0.0221
1329.0,0.0205
1328.0,0.0195
1327.0,0.0188
1326.0,0.0185
1325.0,0.0184
1324.0,0.0185
1323.0,0.0188
1322.0,0.0191
1321.0,0.0195
1320.0,0.02
1319.0,0.0205
1318.0,0.0211
1317.0,0.0217
1316.0,0.0223
1315.0,0.0229
1314.0,0.0237
1313.0,0.0245
1312.0,0.0253
1311.0,0.0262
1310.0,0.0271
1309.0,0.0281
1308.0,0.029
1307.0,0.0299
1306.0,0.0307
1305.0,0.0316
1304.0,0.0324
1303.0,0.0334
1302.0,0.0345
1301.0,0.0359
1300.0,0.0375
1299.0,0.0392
1298.0,0.0412
1297.0,0.0432
1296.0,0.0453
1295.0,0.0474
1294.0,0.0495
1293.0,0.0515
1292.0,0.0536
1291.0,0.0555
1290.0,0.0574
1289.0,0.0592
1288.0,0.061
1287.0,0.0627
1286.0,0.0642
1285.0,0.0657
1284.0,0.0672
1283.0,0.0685
1282.0,0.0697
1281.0,0.0708
1280.0,0.072
1279.0,0.0731
1278.0,0.0744
1277.0,0.0757
1276.0,0.0773
1275.0,0.0791
1274.0,0.0811
1273.0,0.0834
1272.0,0.086
1271.0,0.0889
1270.0,0.0919
1269.0,0.0951
1268.0,0.0986
1267.0,0.102
1266.0,0.1055
1265.0,0.1089
1264.0,0.1122
1263.0,0.1153
1262.0,0.1181
1261.0,0.1205
1260.0,0.1225
1259.0,0.1239
1258.0,0.1248
1257.0,0.1254
1256.0,0.126
1255.0,0.1265
1254.0,0.1271
1253.0,0.1281
1252.0,0.1294
1251.0,0.1309
1250.0,0.1325
1249.0,0.1343
1248.0,0.1362
1247.0,0.1382
1246.0,0.1401
1245.0,0.142
1244.0,0.1437
1243.0,0.1452
1242.0,0.1464
1241.0,0.1473
1240.0,0.1479
1239.0,0.148
1238.0,0.1477
1237.0,0.147
1236.0,0.146
1235.0,0.1445
1234.0,0.1427
1233.0,0.1406
1232.0,0.1383
1231.0,0.1358
1230.0,0.1331
1229.0,0.1305
1228.0,0.1278
1227.0,0.1252
1226.0,0.1224
1225.0,0.1198
1224.0,0.1172
1223.0,0.1145
1222.0,0.1119
1221.0,0.1093
1220.0,0.1067
1219.0,0.1041
1218.0,0.1015
1217.0,0.099
1216.0,0.0967
1215.0,0.0944
1214.0,0.0922
1213.0,0.0902
1212.0,0.0883
1211.0,0.0865
1210.0,0.0847
1209.0,0.083
1208.0,0.0814
1207.0,0.0799
1206.0,0.0784
1205.0,0.0769
1204.0,0.0756
1203.0,0.0742
1202.0,0.0728
1201.0,0.0715
1200.0,0.0702
1199.0,0.0689
1198.0,0.0678
1197.0,0.0666
1196.0,0.0655
1195.0,0.0644
1194.0,0.0633
1193.0,0.0623
1192.0,0.0614
1191.0,0.0605
1190.0,0.0597
1189.0,0.0589
1188.0,0.0582
1187.0,0.0576
1186.0,0.0571
1185.0,0.0568
1184.0,0.0566
1183.0,0.0566
1182.0,0.0568
1181.0,0.0572
1180.0,0.0577
1179.0,0.0583
1178.0,0.059
1177.0,0.0597
1176.0,0.0603
1175.0,0.0608
1174.0,0.061
1173.0,0.0608
1172.0,0.0604
1171.0,0.0595
1170.0,0.0583
1169.0,0.057
1168.0,0.0556
1167.0,0.0543
1166.0,0.0532
1165.0,0.0522
1164.0,0.0513
1163.0,0.0506
1162.0,0.05
1161.0,0.0495
1160.0,0.049
1159.0,0.0486
1158.0,0.0482
1157.0,0.0479
1156.0,0.0478
1155.0,0.0477
1154.0,0.0477
1153.0,0.048
1152.0,0.0483
1151.0,0.0489
1150.0,0.0495
1149.0,0.0502
1148.0,0.051
1147.0,0.0518
1146.0,0.0528
1145.0,0.0538
1144.0,0.0549
1143.0,0.0561
1142.0,0.0573
1141.0,0.0586
1140.0,0.0598
1139.0,0.0611
1138.0,0.0624
1137.0,0.0639
1136.0,0.0654
1135.0,0.0671
1134.0,0.0689
1133.0,0.071
1132.0,0.0733
1131.0,0.0758
1130.0,0.0786
1129.0,0.0815
1128.0,0.0848
1127.0,0.0882
1126.0,0.0916
1125.0,0.0951
1124.0,0.0985
1123.0,0.1018
1122.0,0.105
1121.0,0.1079
1120.0,0.1106
1119.0,0.1129
1118.0,0.1145
1117.0,0.1155
1116.0,0.116
1115.0,0.1158
1114.0,0.1153
1113.0,0.1147
1112.0,0.1143
1111.0,0.1145
1110.0,0.1154
1109.0,0.1172
1108.0,0.1198
1107.0,0.123
1106.0,0.1267
1105.0,0.1307
1104.0,0.1349
1103.0,0.1389
1102.0,0.1427
1101.0,0.1464
1100.0,0.1498
1099.0,0.1528
1098.0,0.1553
1097.0,0.1575
1096.0,0.1592
1095.0,0.1604
1094.0,0.161
1093.0,0.1613
1092.0,0.1612
1091.0,0.1607
1090.0,0.1599
1089.0,0.1589
1088.0,0.1578
1087.0,0.1566
1086.0,0.1552
1085.0,0.1537
1084.0,0.1522
1083.0,0.1504
1082.0,0.1484
1081.0,0.1462
1080.0,0.1437
1079.0,0.141
1078.0,0.138
1077.0,0.1349
1076.0,0.1317
1075.0,0.1285
1074.0,0.1253
1073.0,0.1222
1072.0,0.1193
1071.0,0.1164
1070.0,0.1137
1069.0,0.1111
1068.0,0.1087
1067.0,0.1064
1066.0,0.1042
1065.0,0.1022
1064.0,0.1003
1063.0,0.0986
1062.0,0.0968
1061.0,0.0952
1060.0,0.0938
1059.0,0.0925
1058.0,0.0913
1057.0,0.0904
1056.0,0.0896
1055.0,0.0891
1054.0,0.0887
1053.0,0.0884
1052.0,0.0883
1051.0,0.0883
1050.0,0.0883
1049.0,0.0885
1048.0,0.0887
1047.0,0.089
1046.0,0.0892
1045.0,0.0893
1044.0,0.0895
1043.0,0.0895
1042.0,0.0893
1041.0,0.089
1040.0,0.0885
1039.0,0.088
1038.0,0.0872
1037.0,0.0865
1036.0,0.0856
1035.0,0.0847
1034.0,0.0837
1033.0,0.0827
1032.0,0.0817
1031.0,0.0805
1030.0,0.0795
1029.0,0.0786
1028.0,0.078
1027.0,0.0781
1026.0,0.079
1025.0,0.0813
1024.0,0.0849
1023.0,0.0901
1022.0,0.0964
1021.0,0.1038
1020.0,0.1118
1019.0,0.1194
1018.0,0.1256
1017.0,0.1294
1016.0,0.1303
1015.0,0.1281
1014.0,0.1236
1013.0,0.1179
1012.0,0.1121
1011.0,0.1066
1010.0,0.1019
1009.0,0.0978
1008.0,0.0943
1007.0,0.0913
1006.0,0.0887
1005.0,0.0866
1004.0,0.0847
1003.0,0.0831
1002.0,0.0817
1001.0,0.0803
1000.0,0.0791
999.0,0.0781
998.0,0.0771
997.0,0.0763
996.0,0.0754
995.0,0.0746
994.0,0.0738
993.0,0.0731
992.0,0.0725
991.0,0.072
990.0,0.0715
989.0,0.0711
988.0,0.0707
987.0,0.0704
986.0,0.0702
985.0,0.0701
984.0,0.0702
983.0,0.0703
982.0,0.0705
981.0,0.0707
980.0,0.0711
979.0,0.0716
978.0,0.0721
977.0,0.0727
976.0,0.0734
975.0,0.074
974.0,0.0745
973.0,0.0751
972.0,0.0755
971.0,0.0757
970.0,0.0757
969.0,0.0755
968.0,0.0752
967.0,0.0747
966.0,0.074
965.0,0.0732
964.0,0.0724
963.0,0.0716
962.0,0.0708
961.0,0.0699
960.0,0.0691
959.0,0.0684
958.0,0.0677
957.0,0.067
956.0,0.0663
955.0,0.0656
954.0,0.0649
953.0,0.0643
952.0,0.0638
951.0,0.0633
950.0,0.0628
949.0,0.0624
948.0,0.0619
947.0,0.0615
946.0,0.0611
945.0,0.0608
944.0,0.0605
943.0,0.0603
942.0,0.06
941.0,0.0597
940.0,0.0594
939.0,0.0591
938.0,0.0587
937.0,0.0584
936.0,0.0581
935.0,0.0579
934.0,0.0576
933.0,0.0574
932.0,0.0572
931.0,0.0569
930.0,0.0566
929.0,0.0563
928.0,0.056
927.0,0.0558
926.0,0.0556
925.0,0.0553
924.0,0.055
923.0,0.0547
922.0,0.0544
921.0,0.0541
920.0,0.0538
919.0,0.0535
918.0,0.0532
917.0,0.053
916.0,0.0529
915.0,0.0528
914.0,0.0527
913.0,0.0527
912.0,0.0528
911.0,0.053
910.0,0.0533
909.0,0.0536
908.0,0.054
907.0,0.0544
906.0,0.0549
905.0,0.0556
904.0,0.0563
903.0,0.057
902.0,0.0576
901.0,0.0581
900.0,0.0586
899.0,0.059
898.0,0.0592
897.0,0.0594
896.0,0.0594
895.0,0.0593
894.0,0.0591
893.0,0.059
892.0,0.0588
891.0,0.0586
890.0,0.0584
889.0,0.0583
888.0,0.0584
887.0,0.0588
886.0,0.0595
885.0,0.0604
884.0,0.0616
883.0,0.063
882.0,0.065
881.0,0.0674
880.0,0.0703
879.0,0.0736
878.0,0.0772
877.0,0.0812
876.0,0.0855
875.0,0.0899
874.0,0.0939
873.0,0.097
872.0,0.0982
871.0,0.0974
870.0,0.0947
869.0,0.091
868.0,0.0873
867.0,0.0839
866.0,0.0811
865.0,0.0789
864.0,0.0772
863.0,0.0757
862.0,0.0745
861.0,0.0735
860.0,0.0728
859.0,0.0724
858.0,0.072
857.0,0.0718
856.0,0.0717
855.0,0.0717
854.0,0.0717
853.0,0.0719
852.0,0.0721
851.0,0.0724
850.0,0.0728
849.0,0.0734
848.0,0.074
847.0,0.0746
846.0,0.0749
845.0,0.075
844.0,0.075
843.0,0.0749
842.0,0.0747
841.0,0.0743
840.0,0.0739
839.0,0.0733
838.0,0.0727
837.0,0.072
836.0,0.0713
835.0,0.0706
834.0,0.0697
833.0,0.0688
832.0,0.068
831.0,0.0673
830.0,0.0667
829.0,0.0662
828.0,0.0658
827.0,0.0655
826.0,0.0653
825.0,0.0651
824.0,0.065
823.0,0.0648
822.0,0.0646
821.0,0.0645
820.0,0.0645
819.0,0.0646
818.0,0.0647
817.0,0.0648
816.0,0.0648
815.0,0.0646
814.0,0.0644
813.0,0.0643
812.0,0.0643
811.0,0.0643
810.0,0.0643
809.0,0.0644
808.0,0.0645
807.0,0.0646
806.0,0.0645
805.0,0.0643
804.0,0.064
803.0,0.0636
802.0,0.0633
801.0,0.0629
800.0,0.0627
799.0,0.0628
798.0,0.0634
797.0,0.0646
796.0,0.0661
795.0,0.0675
794.0,0.0684
793.0,0.0688
792.0,0.0685
791.0,0.0676
790.0,0.0663
789.0,0.0647
788.0,0.063
787.0,0.0614
786.0,0.0598
785.0,0.0583
784.0,0.0571
783.0,0.056
782.0,0.0549
781.0,0.0541
780.0,0.0533
779.0,0.0525
778.0,0.0518
777.0,0.051
776.0,0.0503
775.0,0.0497
774.0,0.049
773.0,0.0484
772.0,0.0478
771.0,0.0472
770.0,0.0464
769.0,0.0456
768.0,0.0448
767.0,0.0439
766.0,0.0431
765.0,0.0424
764.0,0.0418
763.0,0.0411
762.0,0.0404
761.0,0.0397
760.0,0.0389
759.0,0.038
758.0,0.0372
757.0,0.0365
756.0,0.0358
755.0,0.0351
754.0,0.0345
753.0,0.0339
752.0,0.0333
751.0,0.0326
750.0,0.0318
749.0,0.0311
748.0,0.0305
747.0,0.03
746.0,0.0298
745.0,0.03
744.0,0.0307
743.0,0.0319
742.0,0.0342
741.0,0.0379
740.0,0.0432
739.0,0.05
738.0,0.0579
737.0,0.067
736.0,0.0771
735.0,0.0877
734.0,0.0989
733.0,0.1106
732.0,0.1229
731.0,0.1357
730.0,0.1495
729.0,0.1645
728.0,0.1806
727.0,0.1967
726.0,0.2114
725.0,0.2232
724.0,0.2306
723.0,0.2329
722.0,0.2304
721.0,0.2244
720.0,0.2159
719.0,0.2059
718.0,0.1954
717.0,0.1851
716.0,0.1758
715.0,0.1675
714.0,0.1605
713.0,0.1547
712.0,0.1498
711.0,0.1454
710.0,0.1413
709.0,0.1377
708.0,0.1343
707.0,0.1311
706.0,0.1282
705.0,0.1256
704.0,0.1232
703.0,0.1207
702.0,0.1179
701.0,0.115
700.0,0.1121
699.0,0.1093
698.0,0.1067
697.0,0.1043
696.0,0.1023
695.0,0.1004
694.0,0.0987
693.0,0.0972
692.0,0.0958
691.0,0.0943
690.0,0.0928
689.0,0.0916
688.0,0.0907
687.0,0.09
686.0,0.0894
685.0,0.0891
684.0,0.0887
683.0,0.0882
682.0,0.0875
681.0,0.087
680.0,0.0866
679.0,0.086
678.0,0.0852
677.0,0.0841
676.0,0.0829
675.0,0.0818
674.0,0.0808
673.0,0.08
672.0,0.0797
671.0,0.0801
670.0,0.0814
669.0,0.0836
668.0,0.0854
667.0,0.0848
666.0,0.082
665.0,0.0791
664.0,0.0773
663.0,0.0763
662.0,0.0756
661.0,0.0749
660.0,0.0742
659.0,0.0735
658.0,0.073
657.0,0.0727
656.0,0.0726
655.0,0.0724
654.0,0.0721
653.0,0.0717
652.0,0.0713
651.0,0.0707
650.0,0.0702
649.0,0.0699
648.0,0.0696
647.0,0.0692
646.0,0.0687
645.0,0.0684
644.0,0.0684
643.0,0.0688
642.0,0.0695
641.0,0.0704
640.0,0.071
639.0,0.0712
638.0,0.071
637.0,0.0709
636.0,0.0711
635.0,0.0719
634.0,0.0734
633.0,0.0752
632.0,0.0762
631.0,0.0757
630.0,0.0739
629.0,0.072
628.0,0.0707
627.0,0.0699
626.0,0.0695
625.0,0.0694
624.0,0.0693
623.0,0.069
622.0,0.0687
621.0,0.0688
620.0,0.0691
619.0,0.0693
618.0,0.0693
617.0,0.0691
616.0,0.069
615.0,0.0688
614.0,0.0687
613.0,0.0685
612.0,0.0683
611.0,0.0675
610.0,0.0666
609.0,0.0665
608.0,0.0677
607.0,0.0695
606.0,0.071
605.0,0.0717
604.0,0.0718
603.0,0.0716
602.0,0.0715
601.0,0.0714
600.0,0.0711
