cm-1,A
4000.0,0.0088
3999.0,0.0089
3998.0,0.0089
3997.0,0.009
3996.0,0.0089
3995.0,0.0089
3994.0,0.0088
3993.0,0.0087
3992.0,0.0086
3991.0,0.0086
3990.0,0.0086
3989.0,0.0087
3988.0,0.0089
3987.0,0.0089
3986.0,0.0089
3985.0,0.0089
3984.0,0.0089
3983.0,0.0089
3982.0,0.0089
3981.0,0.009
3980.0,0.009
3979.0,0.0089
3978.0,0.0089
3977.0,0.0088
3976.0,0.0088
3975.0,0.0088
3974.0,0.0088
3973.0,0.0088
3972.0,0.0088
3971.0,0.0088
3970.0,0.0087
3969.0,0.0086
3968.0,0.0086
3967.0,0.0086
3966.0,0.0086
3965.0,0.0087
3964.0,0.0088
3963.0,0.0088
3962.0,0.0088
3961.0,0.0088
3960.0,0.0089
3959.0,0.0089
3958.0,0.0089
3957.0,0.0089
3956.0,0.0089
3955.0,0.0088
3954.0,0.0088
3953.0,0.0087
3952.0,0.0087
3951.0,0.0087
3950.0,0.0088
3949.0,0.009
3948.0,0.009
3947.0,0.009
3946.0,0.0089
3945.0,0.0088
3944.0,0.0087
3943.0,0.0088
3942.0,0.0088
3941.0,0.0089
3940.0,0.0089
3939.0,0.0089
3938.0,0.0089
3937.0,0.0089
3936.0,0.0089
3935.0,0.009
3934.0,0.009
3933.0,0.009
3932.0,0.009
3931.0,0.009
3930.0,0.009
3929.0,0.009
3928.0,0.009
3927.0,0.0089
3926.0,0.0088
3925.0,0.0088
3924.0,0.0088
3923.0,0.0089
3922.0,0.009
3921.0,0.009
3920.0,0.009
3919.0,0.009
3918.0,0.0091
3917.0,0.0091
3916.0,0.0091
3915.0,0.0092
3914.0,0.0092
3913.0,0.0091
3912.0,0.0089
3911.0,0.0088
3910.0,0.0087
3909.0,0.0087
3908.0,0.0087
3907.0,0.0088
3906.0,0.0089
3905.0,0.0089
3904.0,0.0089
3903.0,0.0089
3902.0,0.009
3901.0,0.009
3900.0,0.009
3899.0,0.009
3898.0,0.009
3897.0,0.0089
3896.0,0.009
3895.0,0.0091
3894.0,0.0092
3893.0,0.0093
3892.0,0.0091
3891.0,0.0089
3890.0,0.0087
3889.0,0.0088
3888.0,0.0091
3887.0,0.0091
3886.0,0.0089
3885.0,0.0087
3884.0,0.0088
3883.0,0.009
3882.0,0.0093
3881.0,0.0093
3880.0,0.0092
3879.0,0.0091
3878.0,0.0092
3877.0,0.0093
3876.0,0.0093
3875.0,0.0091
3874.0,0.0088
3873.0,0.0087
3872.0,0.0088
3871.0,0.0088
3870.0,0.0087
3869.0,0.0087
3868.0,0.0088
3867.0,0.0091
3866.0,0.0091
3865.0,0.0092
3864.0,0.0093
3863.0,0.0094
3862.0,0.0093
3861.0,0.0092
3860.0,0.0089
3859.0,0.0087
3858.0,0.0084
3857.0,0.0083
3856.0,0.0084
3855.0,0.0083
3854.0,0.0081
3853.0,0.0081
3852.0,0.0083
3851.0,0.0086
3850.0,0.009
3849.0,0.0092
3848.0,0.0093
3847.0,0.0094
3846.0,0.0095
3845.0,0.0096
3844.0,0.0095
3843.0,0.0093
3842.0,0.0091
3841.0,0.009
3840.0,0.0089
3839.0,0.0088
3838.0,0.0087
3837.0,0.0088
3836.0,0.0089
3835.0,0.0091
3834.0,0.0093
3833.0,0.0094
3832.0,0.0094
3831.0,0.0094
3830.0,0.0094
3829.0,0.0095
3828.0,0.0095
3827.0,0.0093
3826.0,0.009
3825.0,0.0089
3824.0,0.009
3823.0,0.009
3822.0,0.0089
3821.0,0.0087
3820.0,0.0087
3819.0,0.0089
3818.0,0.0091
3817.0,0.0091
3816.0,0.009
3815.0,0.009
3814.0,0.0092
3813.0,0.0094
3812.0,0.0093
3811.0,0.0092
3810.0,0.0091
3809.0,0.0091
3808.0,0.009
3807.0,0.0088
3806.0,0.0087
3805.0,0.0088
3804.0,0.0089
3803.0,0.0089
3802.0,0.0087
3801.0,0.0087
3800.0,0.0088
3799.0,0.0092
3798.0,0.0094
3797.0,0.0095
3796.0,0.0095
3795.0,0.0094
3794.0,0.0094
3793.0,0.0095
3792.0,0.0096
3791.0,0.0096
3790.0,0.0096
3789.0,0.0096
3788.0,0.0095
3787.0,0.0094
3786.0,0.0094
3785.0,0.0094
3784.0,0.0095
3783.0,0.0096
3782.0,0.0097
3781.0,0.0096
3780.0,0.0094
3779.0,0.0094
3778.0,0.0095
3777.0,0.0096
3776.0,0.0097
3775.0,0.0097
3774.0,0.0095
3773.0,0.0095
3772.0,0.0095
3771.0,0.0094
3770.0,0.0094
3769.0,0.0095
3768.0,0.0097
3767.0,0.0098
3766.0,0.0097
3765.0,0.0096
3764.0,0.0095
3763.0,0.0096
3762.0,0.0097
3761.0,0.0097
3760.0,0.0097
3759.0,0.0097
3758.0,0.0096
3757.0,0.0093
3756.0,0.0091
3755.0,0.0088
3754.0,0.0086
3753.0,0.0082
3752.0,0.0081
3751.0,0.0082
3750.0,0.0082
3749.0,0.0081
3748.0,0.0082
3747.0,0.0086
3746.0,0.0089
3745.0,0.0088
3744.0,0.0088
3743.0,0.0089
3742.0,0.0092
3741.0,0.0093
3740.0,0.0092
3739.0,0.0092
3738.0,0.0091
3737.0,0.0091
3736.0,0.0091
3735.0,0.0092
3734.0,0.0093
3733.0,0.0091
3732.0,0.0088
3731.0,0.0086
3730.0,0.0087
3729.0,0.0089
3728.0,0.0091
3727.0,0.0092
3726.0,0.0093
3725.0,0.0093
3724.0,0.0093
3723.0,0.0092
3722.0,0.0092
3721.0,0.0093
3720.0,0.0095
3719.0,0.0096
3718.0,0.0096
3717.0,0.0096
3716.0,0.0095
3715.0,0.0095
3714.0,0.0094
3713.0,0.0094
3712.0,0.0095
3711.0,0.0097
3710.0,0.0098
3709.0,0.0096
3708.0,0.0095
3707.0,0.0094
3706.0,0.0094
3705.0,0.0095
3704.0,0.0095
3703.0,0.0095
3702.0,0.0093
3701.0,0.0093
3700.0,0.0093
3699.0,0.0095
3698.0,0.0096
3697.0,0.0096
3696.0,0.0096
3695.0,0.0095
3694.0,0.0094
3693.0,0.0093
3692.0,0.0093
3691.0,0.0094
3690.0,0.0096
3689.0,0.0095
3688.0,0.0094
3687.0,0.0095
3686.0,0.0096
3685.0,0.0097
3684.0,0.0098
3683.0,0.0099
3682.0,0.0099
3681.0,0.0099
3680.0,0.0097
3679.0,0.0097
3678.0,0.0097
3677.0,0.0096
3676.0,0.0093
3675.0,0.0089
3674.0,0.0089
3673.0,0.0091
3672.0,0.0093
3671.0,0.0095
3670.0,0.0096
3669.0,0.0098
3668.0,0.0099
3667.0,0.01
3666.0,0.01
3665.0,0.01
3664.0,0.01
3663.0,0.0101
3662.0,0.01
3661.0,0.0099
3660.0,0.0099
3659.0,0.0098
3658.0,0.0098
3657.0,0.0097
3656.0,0.0095
3655.0,0.0095
3654.0,0.0095
3653.0,0.0096
3652.0,0.0096
3651.0,0.0096
3650.0,0.0097
3649.0,0.01
3648.0,0.0102
3647.0,0.0102
3646.0,0.0102
3645.0,0.0103
3644.0,0.0104
3643.0,0.0104
3642.0,0.0104
3641.0,0.0103
3640.0,0.0103
3639.0,0.0102
3638.0,0.01
3637.0,0.01
3636.0,0.0099
3635.0,0.0098
3634.0,0.0096
3633.0,0.0094
3632.0,0.0093
3631.0,0.0093
3630.0,0.0093
3629.0,0.0093
3628.0,0.0095
3627.0,0.0096
3626.0,0.0097
3625.0,0.0097
3624.0,0.0096
3623.0,0.0097
3622.0,0.0098
3621.0,0.0099
3620.0,0.01
3619.0,0.0101
3618.0,0.0102
3617.0,0.0103
3616.0,0.0105
3615.0,0.0107
3614.0,0.0107
3613.0,0.0107
3612.0,0.0106
3611.0,0.0107
3610.0,0.0108
3609.0,0.0109
3608.0,0.0109
3607.0,0.0108
3606.0,0.0107
3605.0,0.0105
3604.0,0.0105
3603.0,0.0106
3602.0,0.0106
3601.0,0.0107
3600.0,0.0107
3599.0,0.0108
3598.0,0.0108
3597.0,0.0108
3596.0,0.0108
3595.0,0.0108
3594.0,0.0106
3593.0,0.0105
3592.0,0.0104
3591.0,0.0104
3590.0,0.0105
3589.0,0.0105
3588.0,0.0105
3587.0,0.0105
3586.0,0.0105
3585.0,0.0106
3584.0,0.0107
3583.0,0.0107
3582.0,0.0108
3581.0,0.0109
3580.0,0.011
3579.0,0.011
3578.0,0.011
3577.0,0.011
3576.0,0.0109
3575.0,0.0108
3574.0,0.0108
3573.0,0.0108
3572.0,0.0108
3571.0,0.0108
3570.0,0.0108
3569.0,0.0107
3568.0,0.0106
3567.0,0.0106
3566.0,0.0108
3565.0,0.0109
3564.0,0.0109
3563.0,0.011
3562.0,0.011
3561.0,0.011
3560.0,0.011
3559.0,0.0111
3558.0,0.0111
3557.0,0.0111
3556.0,0.0111
3555.0,0.011
3554.0,0.011
3553.0,0.011
3552.0,0.011
3551.0,0.0111
3550.0,0.0111
3549.0,0.011
3548.0,0.011
3547.0,0.0109
3546.0,0.0109
3545.0,0.0109
3544.0,0.0109
3543.0,0.0109
3542.0,0.0109
3541.0,0.0109
3540.0,0.0111
3539.0,0.0112
3538.0,0.0112
3537.0,0.0112
3536.0,0.0112
3535.0,0.0111
3534.0,0.0111
3533.0,0.0111
3532.0,0.0111
3531.0,0.0111
3530.0,0.011
3529.0,0.011
3528.0,0.011
3527.0,0.0109
3526.0,0.0108
3525.0,0.0107
3524.0,0.0107
3523.0,0.0108
3522.0,0.0109
3521.0,0.011
3520.0,0.011
3519.0,0.011
3518.0,0.011
3517.0,0.011
3516.0,0.011
3515.0,0.011
3514.0,0.011
3513.0,0.011
3512.0,0.011
3511.0,0.0109
3510.0,0.0109
3509.0,0.011
3508.0,0.011
3507.0,0.0109
3506.0,0.0109
3505.0,0.0109
3504.0,0.0109
3503.0,0.0109
3502.0,0.0109
3501.0,0.011
3500.0,0.011
3499.0,0.011
3498.0,0.011
3497.0,0.011
3496.0,0.011
3495.0,0.011
3494.0,0.011
3493.0,0.011
3492.0,0.011
3491.0,0.0111
3490.0,0.0111
3489.0,0.011
3488.0,0.011
3487.0,0.0109
3486.0,0.0108
3485.0,0.0108
3484.0,0.0108
3483.0,0.0108
3482.0,0.0108
3481.0,0.0109
3480.0,0.011
3479.0,0.0111
3478.0,0.0111
3477.0,0.0111
3476.0,0.0111
3475.0,0.011
3474.0,0.011
3473.0,0.011
3472.0,0.011
3471.0,0.011
3470.0,0.011
3469.0,0.011
3468.0,0.0111
3467.0,0.0111
3466.0,0.011
3465.0,0.0109
3464.0,0.0109
3463.0,0.0109
3462.0,0.0109
3461.0,0.0109
3460.0,0.0109
3459.0,0.0109
3458.0,0.011
3457.0,0.0111
3456.0,0.0111
3455.0,0.0111
3454.0,0.011
3453.0,0.011
3452.0,0.0109
3451.0,0.0108
3450.0,0.0108
3449.0,0.0108
3448.0,0.0108
3447.0,0.0108
3446.0,0.0108
3445.0,0.0108
3444.0,0.0108
3443.0,0.0108
3442.0,0.0108
3441.0,0.0108
3440.0,0.0109
3439.0,0.011
3438.0,0.011
3437.0,0.011
3436.0,0.011
3435.0,0.011
3434.0,0.0111
3433.0,0.0111
3432.0,0.011
3431.0,0.011
3430.0,0.011
3429.0,0.0111
3428.0,0.0112
3427.0,0.0112
3426.0,0.0113
3425.0,0.0112
3424.0,0.0112
3423.0,0.0111
3422.0,0.0109
3421.0,0.0109
3420.0,0.0109
3419.0,0.0109
3418.0,0.011
3417.0,0.011
3416.0,0.0111
3415.0,0.0111
3414.0,0.011
3413.0,0.0109
3412.0,0.0109
3411.0,0.0108
3410.0,0.0109
3409.0,0.0109
3408.0,0.0109
3407.0,0.0109
3406.0,0.0109
3405.0,0.0109
3404.0,0.0109
3403.0,0.0108
3402.0,0.0108
3401.0,0.0108
3400.0,0.0108
3399.0,0.0107
3398.0,0.0107
3397.0,0.0108
3396.0,0.0108
3395.0,0.0108
3394.0,0.0108
3393.0,0.0108
3392.0,0.0108
3391.0,0.0109
3390.0,0.0109
3389.0,0.011
3388.0,0.011
3387.0,0.011
3386.0,0.0109
3385.0,0.0108
3384.0,0.0107
3383.0,0.0107
3382.0,0.0107
3381.0,0.0107
3380.0,0.0107
3379.0,0.0106
3378.0,0.0105
3377.0,0.0106
3376.0,0.0106
3375.0,0.0107
3374.0,0.0108
3373.0,0.0108
3372.0,0.0107
3371.0,0.0106
3370.0,0.0105
3369.0,0.0104
3368.0,0.0104
3367.0,0.0105
3366.0,0.0105
3365.0,0.0105
3364.0,0.0104
3363.0,0.0104
3362.0,0.0105
3361.0,0.0106
3360.0,0.0106
3359.0,0.0107
3358.0,0.0106
3357.0,0.0106
3356.0,0.0105
3355.0,0.0105
3354.0,0.0105
3353.0,0.0106
3352.0,0.0106
3351.0,0.0105
3350.0,0.0105
3349.0,0.0104
3348.0,0.0103
3347.0,0.0103
3346.0,0.0103
3345.0,0.0104
3344.0,0.0105
3343.0,0.0105
3342.0,0.0105
3341.0,0.0104
3340.0,0.0103
3339.0,0.0103
3338.0,0.0103
3337.0,0.0103
3336.0,0.0102
3335.0,0.0102
3334.0,0.0102
3333.0,0.0102
3332.0,0.0103
3331.0,0.0105
3330.0,0.0105
3329.0,0.0105
3328.0,0.0105
3327.0,0.0104
3326.0,0.0103
3325.0,0.0103
3324.0,0.0104
3323.0,0.0104
3322.0,0.0104
3321.0,0.0103
3320.0,0.0102
3319.0,0.0102
3318.0,0.0101
3317.0,0.0101
3316.0,0.0102
3315.0,0.0102
3314.0,0.0102
3313.0,0.0102
3312.0,0.0102
3311.0,0.0102
3310.0,0.0101
3309.0,0.01
3308.0,0.01
3307.0,0.01
3306.0,0.0101
3305.0,0.0101
3304.0,0.0101
3303.0,0.0101
3302.0,0.0101
3301.0,0.0101
3300.0,0.0102
3299.0,0.0102
3298.0,0.0102
3297.0,0.0102
3296.0,0.0101
3295.0,0.0101
3294.0,0.01
3293.0,0.01
3292.0,0.0099
3291.0,0.0099
3290.0,0.0099
3289.0,0.0099
3288.0,0.0098
3287.0,0.0097
3286.0,0.0097
3285.0,0.0097
3284.0,0.0097
3283.0,0.0097
3282.0,0.0097
3281.0,0.0098
3280.0,0.0098
3279.0,0.0099
3278.0,0.0099
3277.0,0.0099
3276.0,0.0099
3275.0,0.0098
3274.0,0.0097
3273.0,0.0097
3272.0,0.0097
3271.0,0.0097
3270.0,0.0097
3269.0,0.0097
3268.0,0.0096
3267.0,0.0096
3266.0,0.0096
3265.0,0.0096
3264.0,0.0095
3263.0,0.0094
3262.0,0.0094
3261.0,0.0094
3260.0,0.0095
3259.0,0.0096
3258.0,0.0096
3257.0,0.0096
3256.0,0.0095
3255.0,0.0094
3254.0,0.0094
3253.0,0.0094
3252.0,0.0095
3251.0,0.0095
3250.0,0.0095
3249.0,0.0095
3248.0,0.0094
3247.0,0.0094
3246.0,0.0093
3245.0,0.0094
3244.0,0.0094
3243.0,0.0093
3242.0,0.0092
3241.0,0.0092
3240.0,0.0092
3239.0,0.0092
3238.0,0.0092
3237.0,0.0092
3236.0,0.0092
3235.0,0.0092
3234.0,0.0092
3233.0,0.0091
3232.0,0.009
3231.0,0.0089
3230.0,0.0089
3229.0,0.0089
3228.0,0.0089
3227.0,0.0089
3226.0,0.0089
3225.0,0.0089
3224.0,0.0089
3223.0,0.0089
3222.0,0.0089
3221.0,0.0089
3220.0,0.0089
3219.0,0.0089
3218.0,0.009
3217.0,0.009
3216.0,0.0089
3215.0,0.0088
3214.0,0.0088
3213.0,0.0087
3212.0,0.0087
3211.0,0.0086
3210.0,0.0087
3209.0,0.0087
3208.0,0.0086
3207.0,0.0085
3206.0,0.0085
3205.0,0.0085
3204.0,0.0085
3203.0,0.0086
3202.0,0.0086
3201.0,0.0085
3200.0,0.0084
3199.0,0.0083
3198.0,0.0083
3197.0,0.0083
3196.0,0.0083
3195.0,0.0083
3194.0,0.0083
3193.0,0.0083
3192.0,0.0082
3191.0,0.0083
3190.0,0.0084
3189.0,0.0084
3188.0,0.0085
3187.0,0.0084
3186.0,0.0084
3185.0,0.0083
3184.0,0.0082
3183.0,0.0081
3182.0,0.008
3181.0,0.008
3180.0,0.008
3179.0,0.0081
3178.0,0.0082
3177.0,0.0083
3176.0,0.0083
3175.0,0.0083
3174.0,0.0082
3173.0,0.0081
3172.0,0.008
3171.0,0.0079
3170.0,0.0079
3169.0,0.008
3168.0,0.008
3167.0,0.008
3166.0,0.0079
3165.0,0.0078
3164.0,0.0078
3163.0,0.0077
3162.0,0.0077
3161.0,0.0078
3160.0,0.0078
3159.0,0.0078
3158.0,0.0078
3157.0,0.0078
3156.0,0.0077
3155.0,0.0076
3154.0,0.0075
3153.0,0.0075
3152.0,0.0075
3151.0,0.0075
3150.0,0.0075
3149.0,0.0075
3148.0,0.0074
3147.0,0.0074
3146.0,0.0073
3145.0,0.0073
3144.0,0.0073
3143.0,0.0073
3142.0,0.0073
3141.0,0.0073
3140.0,0.0073
3139.0,0.0073
3138.0,0.0073
3137.0,0.0073
3136.0,0.0073
3135.0,0.0072
3134.0,0.0072
3133.0,0.0072
3132.0,0.0072
3131.0,0.0072
3130.0,0.0072
3129.0,0.0071
3128.0,0.0071
3127.0,0.007
3126.0,0.007
3125.0,0.007
3124.0,0.007
3123.0,0.0071
3122.0,0.0071
3121.0,0.0071
3120.0,0.0071
3119.0,0.007
3118.0,0.0069
3117.0,0.0069
3116.0,0.0069
3115.0,0.007
3114.0,0.007
3113.0,0.0071
3112.0,0.007
3111.0,0.0069
3110.0,0.0068
3109.0,0.0067
3108.0,0.0066
3107.0,0.0066
3106.0,0.0066
3105.0,0.0067
3104.0,0.0068
3103.0,0.0068
3102.0,0.0068
3101.0,0.0068
3100.0,0.0067
3099.0,0.0067
3098.0,0.0067
3097.0,0.0067
3096.0,0.0066
3095.0,0.0066
3094.0,0.0065
3093.0,0.0066
3092.0,0.0066
3091.0,0.0066
3090.0,0.0067
3089.0,0.0066
3088.0,0.0066
3087.0,0.0066
3086.0,0.0066
3085.0,0.0066
3084.0,0.0066
3083.0,0.0065
3082.0,0.0064
3081.0,0.0064
3080.0,0.0064
3079.0,0.0065
3078.0,0.0065
3077.0,0.0065
3076.0,0.0064
3075.0,0.0063
3074.0,0.0062
3073.0,0.0061
3072.0,0.0061
3071.0,0.0061
3070.0,0.0061
3069.0,0.0061
3068.0,0.006
3067.0,0.006
3066.0,0.0059
3065.0,0.0059
3064.0,0.0059
3063.0,0.0059
3062.0,0.0059
3061.0,0.0059
3060.0,0.0058
3059.0,0.0057
3058.0,0.0056
3057.0,0.0055
3056.0,0.0054
3055.0,0.0054
3054.0,0.0054
3053.0,0.0054
3052.0,0.0055
3051.0,0.0055
3050.0,0.0055
3049.0,0.0055
3048.0,0.0055
3047.0,0.0055
3046.0,0.0054
3045.0,0.0054
3044.0,0.0053
3043.0,0.0053
3042.0,0.0052
3041.0,0.0052
3040.0,0.0052
3039.0,0.0052
3038.0,0.0052
3037.0,0.0051
3036.0,0.0051
3035.0,0.005
3034.0,0.0051
3033.0,0.0051
3032.0,0.005
3031.0,0.0049
3030.0,0.0048
3029.0,0.0047
3028.0,0.0047
3027.0,0.0046
3026.0,0.0046
3025.0,0.0045
3024.0,0.0045
3023.0,0.0045
3022.0,0.0044
3021.0,0.0044
3020.0,0.0043
3019.0,0.0042
3018.0,0.0041
3017.0,0.0039
3016.0,0.0039
3015.0,0.0038
3014.0,0.0038
3013.0,0.0038
3012.0,0.0037
3011.0,0.0036
3010.0,0.0035
3009.0,0.0034
3008.0,0.0033
3007.0,0.0032
3006.0,0.0032
3005.0,0.0031
3004.0,0.003
3003.0,0.003
3002.0,0.0029
3001.0,0.0028
3000.0,0.0027
2999.0,0.0026
2998.0,0.0026
2997.0,0.0025
2996.0,0.0024
2995.0,0.0023
2994.0,0.0023
2993.0,0.0023
2992.0,0.0022
2991.0,0.0021
2990.0,0.0021
2989.0,0.002
2988.0,0.002
2987.0,0.0019
2986.0,0.0019
2985.0,0.0018
2984.0,0.0018
2983.0,0.0017
2982.0,0.0016
2981.0,0.0016
2980.0,0.0017
2979.0,0.0017
2978.0,0.0018
2977.0,0.0018
2976.0,0.0019
2975.0,0.0019
2974.0,0.002
2973.0,0.002
2972.0,0.0021
2971.0,0.0022
2970.0,0.0023
2969.0,0.0025
2968.0,0.0027
2967.0,0.0029
2966.0,0.0031
2965.0,0.0032
2964.0,0.0034
2963.0,0.0037
2962.0,0.0041
2961.0,0.0045
2960.0,0.0049
2959.0,0.0053
2958.0,0.0057
2957.0,0.006
2956.0,0.0063
2955.0,0.0065
2954.0,0.0068
2953.0,0.0072
2952.0,0.0077
2951.0,0.0081
2950.0,0.0086
2949.0,0.0092
2948.0,0.0099
2947.0,0.0108
2946.0,0.012
2945.0,0.0134
2944.0,0.015
2943.0,0.0169
2942.0,0.0189
2941.0,0.0212
2940.0,0.0238
2939.0,0.0266
2938.0,0.0296
2937.0,0.0328
2936.0,0.0362
2935.0,0.04
2934.0,0.0441
2933.0,0.0485
2932.0,0.0534
2931.0,0.0588
2930.0,0.0646
2929.0,0.0709
2928.0,0.0779
2927.0,0.0857
2926.0,0.0945
2925.0,0.1045
2924.0,0.1157
2923.0,0.1282
2922.0,0.1421
2921.0,0.1573
2920.0,0.1734
2919.0,0.1897
2918.0,0.205
2917.0,0.2174
2916.0,0.2249
2915.0,0.2261
2914.0,0.2211
2913.0,0.2116
2912.0,0.1998
2911.0,0.1875
2910.0,0.1759
2909.0,0.1656
2908.0,0.1566
2907.0,0.149
2906.0,0.1424
2905.0,0.1368
2904.0,0.132
2903.0,0.1279
2902.0,0.1242
2901.0,0.121
2900.0,0.118
2899.0,0.1154
2898.0,0.1129
2897.0,0.1106
2896.0,0.1082
2895.0,0.1058
2894.0,0.1034
2893.0,0.101
2892.0,0.0985
2891.0,0.096
2890.0,0.0935
2889.0,0.0909
2888.0,0.0883
2887.0,0.0857
2886.0,0.0829
2885.0,0.0801
2884.0,0.0773
2883.0,0.0745
2882.0,0.0717
2881.0,0.0689
2880.0,0.0661
2879.0,0.0633
2878.0,0.0606
2877.0,0.0579
2876.0,0.0553
2875.0,0.0529
2874.0,0.0507
2873.0,0.0488
2872.0,0.0471
2871.0,0.0455
2870.0,0.044
2869.0,0.0428
2868.0,0.0418
2867.0,0.0412
2866.0,0.041
2865.0,0.0413
2864.0,0.0422
2863.0,0.0435
2862.0,0.0455
2861.0,0.0482
2860.0,0.0519
2859.0,0.0569
2858.0,0.0633
2857.0,0.0714
2856.0,0.0814
2855.0,0.0938
2854.0,0.109
2853.0,0.1271
2852.0,0.1479
2851.0,0.1699
2850.0,0.1899
2849.0,0.2043
2848.0,0.2097
2847.0,0.2058
2846.0,0.1945
2845.0,0.1793
2844.0,0.1633
2843.0,0.1482
2842.0,0.1347
2841.0,0.1231
2840.0,0.1131
2839.0,0.1047
2838.0,0.0975
2837.0,0.0914
2836.0,0.0862
2835.0,0.0816
2834.0,0.0777
2833.0,0.0743
2832.0,0.0712
2831.0,0.0686
2830.0,0.0662
2829.0,0.0641
2828.0,0.0622
2827.0,0.0604
2826.0,0.0587
2825.0,0.0572
2824.0,0.0558
2823.0,0.0545
2822.0,0.0532
2821.0,0.0521
2820.0,0.051
2819.0,0.05
2818.0,0.0491
2817.0,0.0482
2816.0,0.0474
2815.0,0.0467
2814.0,0.046
2813.0,0.0453
2812.0,0.0447
2811.0,0.044
2810.0,0.0434
2809.0,0.0429
2808.0,0.0424
2807.0,0.0418
2806.0,0.0414
2805.0,0.041
2804.0,0.0406
2803.0,0.0402
2802.0,0.0398
2801.0,0.0393
2800.0,0.0388
2799.0,0.0384
2798.0,0.0379
2797.0,0.0376
2796.0,0.0373
2795.0,0.037
2794.0,0.0367
2793.0,0.0364
2792.0,0.0361
2791.0,0.0357
2790.0,0.0352
2789.0,0.0348
2788.0,0.0344
2787.0,0.0341
2786.0,0.0338
2785.0,0.0335
2784.0,0.0332
2783.0,0.0329
2782.0,0.0327
2781.0,0.0325
2780.0,0.0323
2779.0,0.032
2778.0,0.0317
2777.0,0.0314
2776.0,0.0311
2775.0,0.0309
2774.0,0.0308
2773.0,0.0306
2772.0,0.0305
2771.0,0.0303
2770.0,0.0301
2769.0,0.0299
2768.0,0.0297
2767.0,0.0296
2766.0,0.0294
2765.0,0.0293
2764.0,0.0291
2763.0,0.029
2762.0,0.0288
2761.0,0.0287
2760.0,0.0285
2759.0,0.0284
2758.0,0.0282
2757.0,0.028
2756.0,0.0278
2755.0,0.0277
2754.0,0.0275
2753.0,0.0274
2752.0,0.0272
2751.0,0.0272
2750.0,0.0271
2749.0,0.0271
2748.0,0.027
2747.0,0.0269
2746.0,0.0269
2745.0,0.0268
2744.0,0.0268
2743.0,0.0267
2742.0,0.0265
2741.0,0.0264
2740.0,0.0264
2739.0,0.0263
2738.0,0.0262
2737.0,0.0262
2736.0,0.0262
2735.0,0.0261
2734.0,0.0261
2733.0,0.026
2732.0,0.0259
2731.0,0.0258
2730.0,0.0257
2729.0,0.0256
2728.0,0.0255
2727.0,0.0255
2726.0,0.0255
2725.0,0.0254
2724.0,0.0253
2723.0,0.0252
2722.0,0.025
2721.0,0.0249
2720.0,0.0248
2719.0,0.0247
2718.0,0.0247
2717.0,0.0246
2716.0,0.0246
2715.0,0.0245
2714.0,0.0244
2713.0,0.0243
2712.0,0.0243
2711.0,0.0242
2710.0,0.0242
2709.0,0.0241
2708.0,0.024
2707.0,0.0239
2706.0,0.0238
2705.0,0.0237
2704.0,0.0237
2703.0,0.0236
2702.0,0.0236
2701.0,0.0236
2700.0,0.0236
2699.0,0.0236
2698.0,0.0235
2697.0,0.0234
2696.0,0.0234
2695.0,0.0233
2694.0,0.0233
2693.0,0.0231
2692.0,0.023
2691.0,0.0229
2690.0,0.0228
2689.0,0.0228
2688.0,0.0229
2687.0,0.0229
2686.0,0.0228
2685.0,0.0228
2684.0,0.0228
2683.0,0.0228
2682.0,0.0228
2681.0,0.0227
2680.0,0.0227
2679.0,0.0227
2678.0,0.0227
2677.0,0.0227
2676.0,0.0228
2675.0,0.0227
2674.0,0.0227
2673.0,0.0227
2672.0,0.0228
2671.0,0.0228
2670.0,0.0229
2669.0,0.023
2668.0,0.0229
2667.0,0.0228
2666.0,0.0227
2665.0,0.0226
2664.0,0.0226
2663.0,0.0227
2662.0,0.0227
2661.0,0.0228
2660.0,0.0229
2659.0,0.0229
2658.0,0.0228
2657.0,0.0227
2656.0,0.0226
2655.0,0.0225
2654.0,0.0225
2653.0,0.0224
2652.0,0.0224
2651.0,0.0224
2650.0,0.0223
2649.0,0.0223
2648.0,0.0223
2647.0,0.0222
2646.0,0.0222
2645.0,0.0223
2644.0,0.0223
2643.0,0.0224
2642.0,0.0224
2641.0,0.0225
2640.0,0.0225
2639.0,0.0226
2638.0,0.0226
2637.0,0.0225
2636.0,0.0224
2635.0,0.0224
2634.0,0.0223
2633.0,0.0223
2632.0,0.0223
2631.0,0.0222
2630.0,0.0221
2629.0,0.022
2628.0,0.022
2627.0,0.0219
2626.0,0.0219
2625.0,0.0218
2624.0,0.0218
2623.0,0.0217
2622.0,0.0217
2621.0,0.0217
2620.0,0.0216
2619.0,0.0215
2618.0,0.0214
2617.0,0.0214
2616.0,0.0213
2615.0,0.0213
2614.0,0.0212
2613.0,0.0212
2612.0,0.0211
2611.0,0.0211
2610.0,0.0211
2609.0,0.021
2608.0,0.021
2607.0,0.0209
2606.0,0.0208
2605.0,0.0208
2604.0,0.0207
2603.0,0.0207
2602.0,0.0207
2601.0,0.0206
2600.0,0.0206
2599.0,0.0207
2598.0,0.0207
2597.0,0.0207
2596.0,0.0207
2595.0,0.0206
2594.0,0.0205
2593.0,0.0204
2592.0,0.0203
2591.0,0.0202
2590.0,0.0201
2589.0,0.0201
2588.0,0.0201
2587.0,0.02
2586.0,0.02
2585.0,0.02
2584.0,0.02
2583.0,0.02
2582.0,0.02
2581.0,0.0199
2580.0,0.0199
2579.0,0.0198
2578.0,0.0197
2577.0,0.0197
2576.0,0.0197
2575.0,0.0196
2574.0,0.0196
2573.0,0.0196
2572.0,0.0196
2571.0,0.0195
2570.0,0.0195
2569.0,0.0194
2568.0,0.0194
2567.0,0.0193
2566.0,0.0193
2565.0,0.0193
2564.0,0.0193
2563.0,0.0193
2562.0,0.0192
2561.0,0.0192
2560.0,0.0191
2559.0,0.0191
2558.0,0.0191
2557.0,0.0191
2556.0,0.0191
2555.0,0.0191
2554.0,0.019
2553.0,0.019
2552.0,0.019
2551.0,0.019
2550.0,0.019
2549.0,0.0191
2548.0,0.0191
2547.0,0.0191
2546.0,0.019
2545.0,0.0189
2544.0,0.0188
2543.0,0.0187
2542.0,0.0187
2541.0,0.0187
2540.0,0.0187
2539.0,0.0187
2538.0,0.0186
2537.0,0.0186
2536.0,0.0186
2535.0,0.0186
2534.0,0.0186
2533.0,0.0186
2532.0,0.0186
2531.0,0.0186
2530.0,0.0185
2529.0,0.0185
2528.0,0.0185
2527.0,0.0184
2526.0,0.0184
2525.0,0.0184
2524.0,0.0184
2523.0,0.0184
2522.0,0.0183
2521.0,0.0182
2520.0,0.0181
2519.0,0.0181
2518.0,0.0181
2517.0,0.0182
2516.0,0.0182
2515.0,0.0182
2514.0,0.0181
2513.0,0.0181
2512.0,0.0181
2511.0,0.0181
2510.0,0.0181
2509.0,0.0181
2508.0,0.018
2507.0,0.018
2506.0,0.018
2505.0,0.018
2504.0,0.018
2503.0,0.018
2502.0,0.018
2501.0,0.0179
2500.0,0.0179
2499.0,0.0178
2498.0,0.0178
2497.0,0.0178
2496.0,0.0178
2495.0,0.0178
2494.0,0.0178
2493.0,0.0178
2492.0,0.0178
2491.0,0.0178
2490.0,0.0178
2489.0,0.0178
2488.0,0.0178
2487.0,0.0178
2486.0,0.0178
2485.0,0.0178
2484.0,0.0178
2483.0,0.0178
2482.0,0.0177
2481.0,0.0177
2480.0,0.0177
2479.0,0.0177
2478.0,0.0177
2477.0,0.0177
2476.0,0.0177
2475.0,0.0177
2474.0,0.0176
2473.0,0.0177
2472.0,0.0177
2471.0,0.0177
2470.0,0.0177
2469.0,0.0176
2468.0,0.0176
2467.0,0.0176
2466.0,0.0176
2465.0,0.0176
2464.0,0.0176
2463.0,0.0176
2462.0,0.0175
2461.0,0.0175
2460.0,0.0175
2459.0,0.0175
2458.0,0.0175
2457.0,0.0176
2456.0,0.0176
2455.0,0.0176
2454.0,0.0176
2453.0,0.0175
2452.0,0.0174
2451.0,0.0172
2450.0,0.0171
2449.0,0.0171
2448.0,0.0171
2447.0,0.0172
2446.0,0.0172
2445.0,0.0173
2444.0,0.0174
2443.0,0.0174
2442.0,0.0174
2441.0,0.0174
2440.0,0.0174
2439.0,0.0173
2438.0,0.0173
2437.0,0.0172
2436.0,0.0172
2435.0,0.0171
2434.0,0.0171
2433.0,0.0171
2432.0,0.0172
2431.0,0.0171
2430.0,0.0171
2429.0,0.0171
2428.0,0.0171
2427.0,0.0171
2426.0,0.0171
2425.0,0.0172
2424.0,0.0173
2423.0,0.0174
2422.0,0.0174
2421.0,0.0174
2420.0,0.0173
2419.0,0.0173
2418.0,0.0173
2417.0,0.0172
2416.0,0.0172
2415.0,0.0172
2414.0,0.0172
2413.0,0.0172
2412.0,0.0173
2411.0,0.0173
2410.0,0.0173
2409.0,0.0173
2408.0,0.0174
2407.0,0.0173
2406.0,0.0173
2405.0,0.0172
2404.0,0.0171
2403.0,0.0171
2402.0,0.0171
2401.0,0.0171
2400.0,0.0171
2399.0,0.0171
2398.0,0.0171
2397.0,0.0171
2396.0,0.0172
2395.0,0.0171
2394.0,0.017
2393.0,0.017
2392.0,0.017
2391.0,0.017
2390.0,0.0171
2389.0,0.0171
2388.0,0.0172
2387.0,0.0171
2386.0,0.0171
2385.0,0.0171
2384.0,0.0172
2383.0,0.0172
2382.0,0.0171
2381.0,0.0169
2380.0,0.0167
2379.0,0.0165
2378.0,0.0163
2377.0,0.0161
2376.0,0.016
2375.0,0.0161
2374.0,0.0164
2373.0,0.0167
2372.0,0.0171
2371.0,0.0174
2370.0,0.0179
2369.0,0.0186
2368.0,0.0191
2367.0,0.0192
2366.0,0.0191
2365.0,0.0193
2364.0,0.0197
2363.0,0.0193
2362.0,0.0176
2361.0,0.0153
2360.0,0.0135
2359.0,0.0129
2358.0,0.0133
2357.0,0.0138
2356.0,0.0142
2355.0,0.0145
2354.0,0.0148
2353.0,0.0151
2352.0,0.0155
2351.0,0.016
2350.0,0.0163
2349.0,0.0161
2348.0,0.0154
2347.0,0.0145
2346.0,0.0142
2345.0,0.0147
2344.0,0.0156
2343.0,0.0163
2342.0,0.0168
2341.0,0.0172
2340.0,0.0175
2339.0,0.0174
2338.0,0.017
2337.0,0.0165
2336.0,0.016
2335.0,0.0157
2334.0,0.0157
2333.0,0.016
2332.0,0.0165
2331.0,0.0171
2330.0,0.0176
2329.0,0.018
2328.0,0.0183
2327.0,0.0185
2326.0,0.0183
2325.0,0.018
2324.0,0.0176
2323.0,0.0174
2322.0,0.0175
2321.0,0.0179
2320.0,0.0182
2319.0,0.0185
2318.0,0.0186
2317.0,0.0185
2316.0,0.0182
2315.0,0.0178
2314.0,0.0176
2313.0,0.0176
2312.0,0.0178
2311.0,0.018
2310.0,0.018
2309.0,0.018
2308.0,0.0179
2307.0,0.0178
2306.0,0.0177
2305.0,0.0176
2304.0,0.0176
2303.0,0.0176
2302.0,0.0175
2301.0,0.0174
2300.0,0.0173
2299.0,0.0172
2298.0,0.0172
2297.0,0.0172
2296.0,0.0173
2295.0,0.0173
2294.0,0.0174
2293.0,0.0174
2292.0,0.0174
2291.0,0.0173
2290.0,0.0173
2289.0,0.0173
2288.0,0.0173
2287.0,0.0173
2286.0,0.0172
2285.0,0.0172
2284.0,0.0172
2283.0,0.0172
2282.0,0.0171
2281.0,0.017
2280.0,0.0169
2279.0,0.0168
2278.0,0.0168
2277.0,0.0168
2276.0,0.0168
2275.0,0.0167
2274.0,0.0167
2273.0,0.0166
2272.0,0.0167
2271.0,0.0167
2270.0,0.0167
2269.0,0.0167
2268.0,0.0166
2267.0,0.0166
2266.0,0.0165
2265.0,0.0166
2264.0,0.0167
2263.0,0.0167
2262.0,0.0167
2261.0,0.0167
2260.0,0.0166
2259.0,0.0166
2258.0,0.0166
2257.0,0.0166
2256.0,0.0167
2255.0,0.0167
2254.0,0.0168
2253.0,0.0168
2252.0,0.0168
2251.0,0.0168
2250.0,0.0168
2249.0,0.0168
2248.0,0.0167
2247.0,0.0167
2246.0,0.0167
2245.0,0.0167
2244.0,0.0166
2243.0,0.0166
2242.0,0.0166
2241.0,0.0167
2240.0,0.0167
2239.0,0.0166
2238.0,0.0166
2237.0,0.0166
2236.0,0.0166
2235.0,0.0166
2234.0,0.0166
2233.0,0.0167
2232.0,0.0167
2231.0,0.0167
2230.0,0.0167
2229.0,0.0167
2228.0,0.0167
2227.0,0.0167
2226.0,0.0167
2225.0,0.0167
2224.0,0.0166
2223.0,0.0166
2222.0,0.0166
2221.0,0.0166
2220.0,0.0166
2219.0,0.0166
2218.0,0.0167
2217.0,0.0167
2216.0,0.0167
2215.0,0.0167
2214.0,0.0167
2213.0,0.0166
2212.0,0.0166
2211.0,0.0166
2210.0,0.0166
2209.0,0.0166
2208.0,0.0167
2207.0,0.0166
2206.0,0.0166
2205.0,0.0166
2204.0,0.0166
2203.0,0.0166
2202.0,0.0166
2201.0,0.0166
2200.0,0.0166
2199.0,0.0165
2198.0,0.0166
2197.0,0.0166
2196.0,0.0166
2195.0,0.0167
2194.0,0.0167
2193.0,0.0167
2192.0,0.0167
2191.0,0.0167
2190.0,0.0167
2189.0,0.0166
2188.0,0.0166
2187.0,0.0166
2186.0,0.0166
2185.0,0.0165
2184.0,0.0165
2183.0,0.0165
2182.0,0.0165
2181.0,0.0165
2180.0,0.0165
2179.0,0.0166
2178.0,0.0167
2177.0,0.0167
2176.0,0.0167
2175.0,0.0167
2174.0,0.0167
2173.0,0.0168
2172.0,0.0168
2171.0,0.0167
2170.0,0.0167
2169.0,0.0166
2168.0,0.0166
2167.0,0.0167
2166.0,0.0167
2165.0,0.0167
2164.0,0.0166
2163.0,0.0166
2162.0,0.0167
2161.0,0.0167
2160.0,0.0167
2159.0,0.0167
2158.0,0.0166
2157.0,0.0166
2156.0,0.0167
2155.0,0.0167
2154.0,0.0167
2153.0,0.0168
2152.0,0.0168
2151.0,0.0168
2150.0,0.0168
2149.0,0.0168
2148.0,0.0168
2147.0,0.0168
2146.0,0.0169
2145.0,0.0169
2144.0,0.0168
2143.0,0.0168
2142.0,0.0167
2141.0,0.0167
2140.0,0.0168
2139.0,0.0168
2138.0,0.0168
2137.0,0.0168
2136.0,0.0168
2135.0,0.0168
2134.0,0.0168
2133.0,0.0169
2132.0,0.0169
2131.0,0.0169
2130.0,0.0169
2129.0,0.0168
2128.0,0.0168
2127.0,0.0167
2126.0,0.0167
2125.0,0.0167
2124.0,0.0167
2123.0,0.0167
2122.0,0.0167
2121.0,0.0167
2120.0,0.0167
2119.0,0.0168
2118.0,0.0168
2117.0,0.0168
2116.0,0.0168
2115.0,0.0168
2114.0,0.0168
2113.0,0.0168
2112.0,0.0167
2111.0,0.0167
2110.0,0.0167
2109.0,0.0167
2108.0,0.0168
2107.0,0.0168
2106.0,0.0168
2105.0,0.0168
2104.0,0.0168
2103.0,0.0167
2102.0,0.0167
2101.0,0.0167
2100.0,0.0167
2099.0,0.0167
2098.0,0.0167
2097.0,0.0167
2096.0,0.0167
2095.0,0.0167
2094.0,0.0167
2093.0,0.0167
2092.0,0.0168
2091.0,0.0168
2090.0,0.0169
2089.0,0.0169
2088.0,0.0168
2087.0,0.0168
2086.0,0.0167
2085.0,0.0167
2084.0,0.0167
2083.0,0.0168
2082.0,0.0168
2081.0,0.0168
2080.0,0.0168
2079.0,0.0168
2078.0,0.0167
2077.0,0.0167
2076.0,0.0167
2075.0,0.0167
2074.0,0.0167
2073.0,0.0168
2072.0,0.0169
2071.0,0.0169
2070.0,0.0168
2069.0,0.0168
2068.0,0.0167
2067.0,0.0167
2066.0,0.0167
2065.0,0.0168
2064.0,0.0169
2063.0,0.0169
2062.0,0.0169
2061.0,0.0169
2060.0,0.0169
2059.0,0.0169
2058.0,0.0169
2057.0,0.0169
2056.0,0.0169
2055.0,0.0169
2054.0,0.0169
2053.0,0.017
2052.0,0.017
2051.0,0.017
2050.0,0.0169
2049.0,0.0169
2048.0,0.0169
2047.0,0.0168
2046.0,0.0169
2045.0,0.0169
2044.0,0.0169
2043.0,0.017
2042.0,0.017
2041.0,0.0171
2040.0,0.0171
2039.0,0.0171
2038.0,0.0171
2037.0,0.0171
2036.0,0.0171
2035.0,0.0171
2034.0,0.0171
2033.0,0.0171
2032.0,0.0171
2031.0,0.017
2030.0,0.017
2029.0,0.0171
2028.0,0.0171
2027.0,0.0172
2026.0,0.0172
2025.0,0.0173
2024.0,0.0173
2023.0,0.0173
2022.0,0.0173
2021.0,0.0173
2020.0,0.0173
2019.0,0.0173
2018.0,0.0172
2017.0,0.0173
2016.0,0.0173
2015.0,0.0173
2014.0,0.0172
2013.0,0.0172
2012.0,0.0171
2011.0,0.0171
2010.0,0.017
2009.0,0.017
2008.0,0.017
2007.0,0.017
2006.0,0.0171
2005.0,0.0171
2004.0,0.0171
2003.0,0.0171
2002.0,0.0171
2001.0,0.017
2000.0,0.017
1999.0,0.017
1998.0,0.017
1997.0,0.017
1996.0,0.0171
1995.0,0.0171
1994.0,0.0171
1993.0,0.0171
1992.0,0.0171
1991.0,0.0171
1990.0,0.017
1989.0,0.017
1988.0,0.017
1987.0,0.017
1986.0,0.017
1985.0,0.0171
1984.0,0.0171
1983.0,0.0171
1982.0,0.0171
1981.0,0.0171
1980.0,0.017
1979.0,0.017
1978.0,0.017
1977.0,0.017
1976.0,0.017
1975.0,0.017
1974.0,0.017
1973.0,0.017
1972.0,0.017
1971.0,0.0171
1970.0,0.0171
1969.0,0.0171
1968.0,0.0171
1967.0,0.0172
1966.0,0.0172
1965.0,0.0172
1964.0,0.0172
1963.0,0.0172
1962.0,0.0172
1961.0,0.0172
1960.0,0.0172
1959.0,0.0172
1958.0,0.0172
1957.0,0.0171
1956.0,0.0171
1955.0,0.017
1954.0,0.017
1953.0,0.017
1952.0,0.0171
1951.0,0.0171
1950.0,0.0172
1949.0,0.0172
1948.0,0.0172
1947.0,0.0172
1946.0,0.0172
1945.0,0.0172
1944.0,0.0173
1943.0,0.0173
1942.0,0.0173
1941.0,0.0173
1940.0,0.0173
1939.0,0.0172
1938.0,0.0172
1937.0,0.0172
1936.0,0.0173
1935.0,0.0173
1934.0,0.0172
1933.0,0.0172
1932.0,0.0172
1931.0,0.0172
1930.0,0.0172
1929.0,0.0172
1928.0,0.0172
1927.0,0.0172
1926.0,0.0172
1925.0,0.0173
1924.0,0.0174
1923.0,0.0174
1922.0,0.0174
1921.0,0.0174
1920.0,0.0174
1919.0,0.0173
1918.0,0.0172
1917.0,0.0172
1916.0,0.0172
1915.0,0.0173
1914.0,0.0173
1913.0,0.0174
1912.0,0.0174
1911.0,0.0174
1910.0,0.0174
1909.0,0.0175
1908.0,0.0175
1907.0,0.0176
1906.0,0.0176
1905.0,0.0175
1904.0,0.0175
1903.0,0.0175
1902.0,0.0176
1901.0,0.0176
1900.0,0.0177
1899.0,0.0178
1898.0,0.0178
1897.0,0.0178
1896.0,0.0178
1895.0,0.0178
1894.0,0.0178
1893.0,0.0178
1892.0,0.0178
1891.0,0.0177
1890.0,0.0176
1889.0,0.0175
1888.0,0.0174
1887.0,0.0174
1886.0,0.0174
1885.0,0.0174
1884.0,0.0175
1883.0,0.0175
1882.0,0.0175
1881.0,0.0175
1880.0,0.0175
1879.0,0.0175
1878.0,0.0175
1877.0,0.0174
1876.0,0.0174
1875.0,0.0173
1874.0,0.0173
1873.0,0.0173
1872.0,0.0173
1871.0,0.0173
1870.0,0.0173
1869.0,0.0173
1868.0,0.0173
1867.0,0.0174
1866.0,0.0174
1865.0,0.0174
1864.0,0.0174
1863.0,0.0173
1862.0,0.0173
1861.0,0.0174
1860.0,0.0174
1859.0,0.0174
1858.0,0.0174
1857.0,0.0174
1856.0,0.0174
1855.0,0.0174
1854.0,0.0174
1853.0,0.0174
1852.0,0.0175
1851.0,0.0175
1850.0,0.0174
1849.0,0.0174
1848.0,0.0174
1847.0,0.0174
1846.0,0.0173
1845.0,0.0173
1844.0,0.0173
1843.0,0.0173
1842.0,0.0173
1841.0,0.0173
1840.0,0.0174
1839.0,0.0173
1838.0,0.0173
1837.0,0.0174
1836.0,0.0174
1835.0,0.0174
1834.0,0.0175
1833.0,0.0175
1832.0,0.0175
1831.0,0.0175
1830.0,0.0175
1829.0,0.0175
1828.0,0.0175
1827.0,0.0175
1826.0,0.0175
1825.0,0.0175
1824.0,0.0175
1823.0,0.0174
1822.0,0.0174
1821.0,0.0175
1820.0,0.0175
1819.0,0.0175
1818.0,0.0174
1817.0,0.0174
1816.0,0.0174
1815.0,0.0174
1814.0,0.0174
1813.0,0.0175
1812.0,0.0175
1811.0,0.0175
1810.0,0.0175
1809.0,0.0175
1808.0,0.0175
1807.0,0.0175
1806.0,0.0175
1805.0,0.0175
1804.0,0.0175
1803.0,0.0175
1802.0,0.0174
1801.0,0.0175
1800.0,0.0175
1799.0,0.0176
1798.0,0.0175
1797.0,0.0175
1796.0,0.0175
1795.0,0.0175
1794.0,0.0174
1793.0,0.0175
1792.0,0.0176
1791.0,0.0176
1790.0,0.0176
1789.0,0.0176
1788.0,0.0176
1787.0,0.0176
1786.0,0.0176
1785.0,0.0176
1784.0,0.0176
1783.0,0.0176
1782.0,0.0176
1781.0,0.0176
1780.0,0.0176
1779.0,0.0176
1778.0,0.0176
1777.0,0.0175
1776.0,0.0175
1775.0,0.0175
1774.0,0.0175
1773.0,0.0174
1772.0,0.0176
1771.0,0.0177
1770.0,0.0178
1769.0,0.0178
1768.0,0.0178
1767.0,0.0177
1766.0,0.0177
1765.0,0.0178
1764.0,0.0178
1763.0,0.0178
1762.0,0.0177
1761.0,0.0178
1760.0,0.0178
1759.0,0.0179
1758.0,0.018
1757.0,0.018
1756.0,0.0181
1755.0,0.0181
1754.0,0.0182
1753.0,0.0182
1752.0,0.0183
1751.0,0.0184
1750.0,0.0186
1749.0,0.0187
1748.0,0.0188
1747.0,0.0188
1746.0,0.0188
1745.0,0.0188
1744.0,0.0189
1743.0,0.0189
1742.0,0.0189
1741.0,0.0189
1740.0,0.0188
1739.0,0.0188
1738.0,0.0187
1737.0,0.0187
1736.0,0.0186
1735.0,0.0184
1734.0,0.0183
1733.0,0.0183
1732.0,0.0183
1731.0,0.0184
1730.0,0.0184
1729.0,0.0184
1728.0,0.0184
1727.0,0.0184
1726.0,0.0183
1725.0,0.0183
1724.0,0.0184
1723.0,0.0184
1722.0,0.0183
1721.0,0.0183
1720.0,0.0183
1719.0,0.0182
1718.0,0.0181
1717.0,0.0182
1716.0,0.0183
1715.0,0.0183
1714.0,0.0183
1713.0,0.0184
1712.0,0.0184
1711.0,0.0183
1710.0,0.0183
1709.0,0.0184
1708.0,0.0184
1707.0,0.0185
1706.0,0.0184
1705.0,0.0184
1704.0,0.0184
1703.0,0.0184
1702.0,0.0184
1701.0,0.0183
1700.0,0.0184
1699.0,0.0184
1698.0,0.0184
1697.0,0.0184
1696.0,0.0184
1695.0,0.0183
1694.0,0.0182
1693.0,0.0184
1692.0,0.0185
1691.0,0.0185
1690.0,0.0185
1689.0,0.0185
1688.0,0.0185
1687.0,0.0185
1686.0,0.0185
1685.0,0.0184
1684.0,0.0186
1683.0,0.0187
1682.0,0.0187
1681.0,0.0187
1680.0,0.0188
1679.0,0.0188
1678.0,0.0188
1677.0,0.0188
1676.0,0.0188
1675.0,0.0188
1674.0,0.0189
1673.0,0.019
1672.0,0.0191
1671.0,0.0191
1670.0,0.0191
1669.0,0.0192
1668.0,0.0192
1667.0,0.0192
1666.0,0.0192
1665.0,0.0192
1664.0,0.0192
1663.0,0.0193
1662.0,0.0193
1661.0,0.0192
1660.0,0.0192
1659.0,0.0191
1658.0,0.019
1657.0,0.019
1656.0,0.0191
1655.0,0.0191
1654.0,0.0191
1653.0,0.0192
1652.0,0.0192
1651.0,0.0191
1650.0,0.0192
1649.0,0.0193
1648.0,0.0193
1647.0,0.0193
1646.0,0.0193
1645.0,0.0192
1644.0,0.0192
1643.0,0.0192
1642.0,0.0193
1641.0,0.0193
1640.0,0.0193
1639.0,0.0194
1638.0,0.0194
1637.0,0.0195
1636.0,0.0196
1635.0,0.0196
1634.0,0.0195
1633.0,0.0195
1632.0,0.0196
1631.0,0.0196
1630.0,0.0196
1629.0,0.0196
1628.0,0.0196
1627.0,0.0196
1626.0,0.0196
1625.0,0.0196
1624.0,0.0196
1623.0,0.0196
1622.0,0.0196
1621.0,0.0195
1620.0,0.0194
1619.0,0.0194
1618.0,0.0194
1617.0,0.0193
1616.0,0.0193
1615.0,0.0193
1614.0,0.0193
1613.0,0.0193
1612.0,0.0192
1611.0,0.0192
1610.0,0.0192
1609.0,0.0192
1608.0,0.0191
1607.0,0.0191
1606.0,0.0191
1605.0,0.0191
1604.0,0.0191
1603.0,0.0191
1602.0,0.0191
1601.0,0.0191
1600.0,0.0191
1599.0,0.0191
1598.0,0.0191
1597.0,0.0191
1596.0,0.0191
1595.0,0.0191
1594.0,0.019
1593.0,0.019
1592.0,0.019
1591.0,0.019
1590.0,0.019
1589.0,0.019
1588.0,0.019
1587.0,0.019
1586.0,0.019
1585.0,0.019
1584.0,0.019
1583.0,0.0191
1582.0,0.019
1581.0,0.019
1580.0,0.019
1579.0,0.019
1578.0,0.0189
1577.0,0.0188
1576.0,0.0188
1575.0,0.0188
1574.0,0.0188
1573.0,0.0188
1572.0,0.0189
1571.0,0.0189
1570.0,0.0189
1569.0,0.0189
1568.0,0.0189
1567.0,0.0189
1566.0,0.0188
1565.0,0.0188
1564.0,0.0188
1563.0,0.0188
1562.0,0.0189
1561.0,0.0189
1560.0,0.0189
1559.0,0.019
1558.0,0.019
1557.0,0.0188
1556.0,0.0187
1555.0,0.0187
1554.0,0.0187
1553.0,0.0188
1552.0,0.0189
1551.0,0.0189
1550.0,0.0188
1549.0,0.0188
1548.0,0.0189
1547.0,0.0188
1546.0,0.0188
1545.0,0.0189
1544.0,0.019
1543.0,0.0191
1542.0,0.0191
1541.0,0.0193
1540.0,0.0194
1539.0,0.019
1538.0,0.0186
1537.0,0.0185
1536.0,0.0186
1535.0,0.0186
1534.0,0.0186
1533.0,0.0187
1532.0,0.0187
1531.0,0.0186
1530.0,0.0184
1529.0,0.0184
1528.0,0.0184
1527.0,0.0183
1526.0,0.0183
1525.0,0.0182
1524.0,0.0183
1523.0,0.0182
1522.0,0.0182
1521.0,0.0182
1520.0,0.0182
1519.0,0.0182
1518.0,0.0181
1517.0,0.0181
1516.0,0.0181
1515.0,0.0179
1514.0,0.0178
1513.0,0.0177
1512.0,0.0178
1511.0,0.0178
1510.0,0.0178
1509.0,0.0178
1508.0,0.0177
1507.0,0.0176
1506.0,0.0174
1505.0,0.0173
1504.0,0.0173
1503.0,0.0173
1502.0,0.0172
1501.0,0.0171
1500.0,0.0172
1499.0,0.0171
1498.0,0.017
1497.0,0.0169
1496.0,0.0169
1495.0,0.0168
1494.0,0.0167
1493.0,0.0167
1492.0,0.0168
1491.0,0.0166
1490.0,0.0162
1489.0,0.0161
1488.0,0.0161
1487.0,0.0159
1486.0,0.0157
1485.0,0.0155
1484.0,0.0155
1483.0,0.0154
1482.0,0.0154
1481.0,0.0156
1480.0,0.0162
1479.0,0.0174
1478.0,0.0202
1477.0,0.0264
1476.0,0.0369
1475.0,0.051
1474.0,0.0673
1473.0,0.0806
1472.0,0.0841
1471.0,0.0804
1470.0,0.0758
1469.0,0.0725
1468.0,0.0705
1467.0,0.0705
1466.0,0.0745
1465.0,0.084
1464.0,0.0947
1463.0,0.1005
1462.0,0.0995
1461.0,0.0931
1460.0,0.0831
1459.0,0.0716
1458.0,0.0607
1457.0,0.0531
1456.0,0.0492
1455.0,0.0471
1454.0,0.0453
1453.0,0.0435
1452.0,0.0417
1451.0,0.0401
1450.0,0.0389
1449.0,0.0378
1448.0,0.0368
1447.0,0.0361
1446.0,0.0356
1445.0,0.0352
1444.0,0.0347
1443.0,0.0343
1442.0,0.034
1441.0,0.0336
1440.0,0.0332
1439.0,0.0328
1438.0,0.0324
1437.0,0.032
1436.0,0.0315
1435.0,0.0313
1434.0,0.031
1433.0,0.0306
1432.0,0.0302
1431.0,0.0297
1430.0,0.0293
1429.0,0.0288
1428.0,0.0283
1427.0,0.0278
1426.0,0.0275
1425.0,0.0271
1424.0,0.0267
1423.0,0.0265
1422.0,0.0263
1421.0,0.026
1420.0,0.0257
1419.0,0.0255
1418.0,0.0255
1417.0,0.0254
1416.0,0.0253
1415.0,0.0251
1414.0,0.025
1413.0,0.0249
1412.0,0.0248
1411.0,0.0247
1410.0,0.0246
1409.0,0.0245
1408.0,0.0243
1407.0,0.0242
1406.0,0.0242
1405.0,0.0242
1404.0,0.0241
1403.0,0.024
1402.0,0.0239
1401.0,0.0238
1400.0,0.0237
1399.0,0.0237
1398.0,0.0237
1397.0,0.0237
1396.0,0.0236
1395.0,0.0236
1394.0,0.0235
1393.0,0.0235
1392.0,0.0234
1391.0,0.0234
1390.0,0.0235
1389.0,0.0234
1388.0,0.0234
1387.0,0.0234
1386.0,0.0235
1385.0,0.0235
1384.0,0.0235
1383.0,0.0237
1382.0,0.0239
1381.0,0.0242
1380.0,0.0245
1379.0,0.0248
1378.0,0.025
1377.0,0.0251
1376.0,0.0251
1375.0,0.0252
1374.0,0.0254
1373.0,0.0255
1372.0,0.0257
1371.0,0.0258
1370.0,0.026
1369.0,0.026
1368.0,0.026
1367.0,0.026
1366.0,0.0259
1365.0,0.0258
1364.0,0.0257
1363.0,0.0256
1362.0,0.0255
1361.0,0.0254
1360.0,0.0252
1359.0,0.0252
1358.0,0.0251
1357.0,0.0251
1356.0,0.0251
1355.0,0.0251
1354.0,0.0252
1353.0,0.0252
1352.0,0.0252
1351.0,0.0252
1350.0,0.0251
1349.0,0.0251
1348.0,0.025
1347.0,0.0249
1346.0,0.0248
1345.0,0.0247
1344.0,0.0246
1343.0,0.0245
1342.0,0.0244
1341.0,0.0243
1340.0,0.0242
1339.0,0.0241
1338.0,0.0241
1337.0,0.024
1336.0,0.0239
1335.0,0.0238
1334.0,0.0237
1333.0,0.0236
1332.0,0.0235
1331.0,0.0235
1330.0,0.0235
1329.0,0.0235
1328.0,0.0235
1327.0,0.0235
1326.0,0.0235
1325.0,0.0235
1324.0,0.0236
1323.0,0.0237
1322.0,0.0238
1321.0,0.0239
1320.0,0.0239
1319.0,0.024
1318.0,0.0241
1317.0,0.0241
1316.0,0.0241
1315.0,0.0242
1314.0,0.0243
1313.0,0.0244
1312.0,0.0245
1311.0,0.0246
1310.0,0.0247
1309.0,0.0247
1308.0,0.0247
1307.0,0.0248
1306.0,0.0248
1305.0,0.0248
1304.0,0.0248
1303.0,0.0249
1302.0,0.0249
1301.0,0.0249
1300.0,0.0248
1299.0,0.0247
1298.0,0.0247
1297.0,0.0247
1296.0,0.0246
1295.0,0.0246
1294.0,0.0246
1293.0,0.0245
1292.0,0.0245
1291.0,0.0245
1290.0,0.0244
1289.0,0.0244
1288.0,0.0243
1287.0,0.0243
1286.0,0.0243
1285.0,0.0243
1284.0,0.0243
1283.0,0.0242
1282.0,0.0242
1281.0,0.0242
1280.0,0.0242
1279.0,0.0242
1278.0,0.0242
1277.0,0.0243
1276.0,0.0242
1275.0,0.0242
1274.0,0.0242
1273.0,0.0243
1272.0,0.0243
1271.0,0.0243
1270.0,0.0243
1269.0,0.0243
1268.0,0.0243
1267.0,0.0244
1266.0,0.0244
1265.0,0.0245
1264.0,0.0244
1263.0,0.0244
1262.0,0.0244
1261.0,0.0244
1260.0,0.0244
1259.0,0.0244
1258.0,0.0244
1257.0,0.0244
1256.0,0.0244
1255.0,0.0244
1254.0,0.0244
1253.0,0.0244
1252.0,0.0244
1251.0,0.0243
1250.0,0.0243
1249.0,0.0243
1248.0,0.0243
1247.0,0.0243
1246.0,0.0243
1245.0,0.0243
1244.0,0.0243
1243.0,0.0243
1242.0,0.0243
1241.0,0.0244
1240.0,0.0244
1239.0,0.0244
1238.0,0.0243
1237.0,0.0243
1236.0,0.0242
1235.0,0.0242
1234.0,0.0242
1233.0,0.0243
1232.0,0.0243
1231.0,0.0243
1230.0,0.0243
1229.0,0.0244
1228.0,0.0244
1227.0,0.0244
1226.0,0.0244
1225.0,0.0244
1224.0,0.0244
1223.0,0.0244
1222.0,0.0244
1221.0,0.0243
1220.0,0.0243
1219.0,0.0243
1218.0,0.0244
1217.0,0.0244
1216.0,0.0244
1215.0,0.0245
1214.0,0.0245
1213.0,0.0246
1212.0,0.0246
1211.0,0.0246
1210.0,0.0246
1209.0,0.0247
1208.0,0.0248
1207.0,0.0249
1206.0,0.0249
1205.0,0.025
1204.0,0.025
1203.0,0.0251
1202.0,0.0251
1201.0,0.0252
1200.0,0.0252
1199.0,0.0252
1198.0,0.0253
1197.0,0.0253
1196.0,0.0255
1195.0,0.0256
1194.0,0.0257
1193.0,0.0259
1192.0,0.026
1191.0,0.0261
1190.0,0.0261
1189.0,0.0262
1188.0,0.0263
1187.0,0.0263
1186.0,0.0265
1185.0,0.0266
1184.0,0.0268
1183.0,0.027
1182.0,0.0273
1181.0,0.0275
1180.0,0.0276
1179.0,0.0277
1178.0,0.0279
1177.0,0.028
1176.0,0.0282
1175.0,0.0283
1174.0,0.0284
1173.0,0.0285
1172.0,0.0286
1171.0,0.0286
1170.0,0.0287
1169.0,0.0287
1168.0,0.0288
1167.0,0.0289
1166.0,0.029
1165.0,0.029
1164.0,0.029
1163.0,0.029
1162.0,0.029
1161.0,0.029
1160.0,0.029
1159.0,0.0289
1158.0,0.0289
1157.0,0.0288
1156.0,0.0288
1155.0,0.0288
1154.0,0.0288
1153.0,0.0287
1152.0,0.0287
1151.0,0.0287
1150.0,0.0287
1149.0,0.0286
1148.0,0.0285
1147.0,0.0285
1146.0,0.0284
1145.0,0.0284
1144.0,0.0284
1143.0,0.0283
1142.0,0.0283
1141.0,0.0283
1140.0,0.0283
1139.0,0.0283
1138.0,0.0283
1137.0,0.0282
1136.0,0.0281
1135.0,0.028
1134.0,0.028
1133.0,0.0281
1132.0,0.0281
1131.0,0.0281
1130.0,0.0281
1129.0,0.0281
1128.0,0.028
1127.0,0.0279
1126.0,0.0278
1125.0,0.0278
1124.0,0.0277
1123.0,0.0277
1122.0,0.0277
1121.0,0.0277
1120.0,0.0278
1119.0,0.0278
1118.0,0.0278
1117.0,0.0279
1116.0,0.0278
1115.0,0.0278
1114.0,0.0277
1113.0,0.0277
1112.0,0.0277
1111.0,0.0277
1110.0,0.0277
1109.0,0.0277
1108.0,0.0276
1107.0,0.0276
1106.0,0.0276
1105.0,0.0275
1104.0,0.0274
1103.0,0.0274
1102.0,0.0273
1101.0,0.0273
1100.0,0.0273
1099.0,0.0273
1098.0,0.0273
1097.0,0.0272
1096.0,0.0272
1095.0,0.0272
1094.0,0.0272
1093.0,0.0272
1092.0,0.0272
1091.0,0.0271
1090.0,0.027
1089.0,0.0269
1088.0,0.0268
1087.0,0.0267
1086.0,0.0267
1085.0,0.0266
1084.0,0.0266
1083.0,0.0267
1082.0,0.0267
1081.0,0.0266
1080.0,0.0266
1079.0,0.0265
1078.0,0.0265
1077.0,0.0264
1076.0,0.0263
1075.0,0.0262
1074.0,0.0261
1073.0,0.0261
1072.0,0.0261
1071.0,0.0261
1070.0,0.0261
1069.0,0.026
1068.0,0.026
1067.0,0.0259
1066.0,0.0259
1065.0,0.0259
1064.0,0.0259
1063.0,0.0259
1062.0,0.0259
1061.0,0.0259
1060.0,0.0259
1059.0,0.0259
1058.0,0.0259
1057.0,0.0259
1056.0,0.0259
1055.0,0.0259
1054.0,0.0259
1053.0,0.0259
1052.0,0.0258
1051.0,0.0258
1050.0,0.0257
1049.0,0.0257
1048.0,0.0257
1047.0,0.0257
1046.0,0.0257
1045.0,0.0256
1044.0,0.0256
1043.0,0.0256
1042.0,0.0256
1041.0,0.0256
1040.0,0.0255
1039.0,0.0255
1038.0,0.0255
1037.0,0.0255
1036.0,0.0255
1035.0,0.0254
1034.0,0.0254
1033.0,0.0254
1032.0,0.0254
1031.0,0.0255
1030.0,0.0256
1029.0,0.0257
1028.0,0.0258
1027.0,0.0258
1026.0,0.0259
1025.0,0.0259
1024.0,0.0258
1023.0,0.0258
1022.0,0.0258
1021.0,0.0259
1020.0,0.0259
1019.0,0.026
1018.0,0.0261
1017.0,0.0261
1016.0,0.0261
1015.0,0.026
1014.0,0.026
1013.0,0.026
1012.0,0.026
1011.0,0.026
1010.0,0.026
1009.0,0.026
1008.0,0.0261
1007.0,0.0261
1006.0,0.0261
1005.0,0.026
1004.0,0.0259
1003.0,0.0259
1002.0,0.0258
1001.0,0.0259
1000.0,0.026
999.0,0.026
998.0,0.026
997.0,0.026
996.0,0.026
995.0,0.0259
994.0,0.0259
993.0,0.0259
992.0,0.0258
991.0,0.0257
990.0,0.0257
989.0,0.0257
988.0,0.0256
987.0,0.0257
986.0,0.0257
985.0,0.0257
984.0,0.0257
983.0,0.0258
982.0,0.0258
981.0,0.0259
980.0,0.0259
979.0,0.0259
978.0,0.0259
977.0,0.0258
976.0,0.0259
975.0,0.026
974.0,0.0261
973.0,0.0262
972.0,0.0262
971.0,0.0262
970.0,0.0262
969.0,0.0262
968.0,0.0262
967.0,0.0262
966.0,0.0261
965.0,0.0261
964.0,0.026
963.0,0.026
962.0,0.026
961.0,0.026
960.0,0.026
959.0,0.026
958.0,0.026
957.0,0.026
956.0,0.026
955.0,0.0261
954.0,0.0261
953.0,0.0262
952.0,0.0262
951.0,0.0262
950.0,0.0262
949.0,0.0262
948.0,0.0262
947.0,0.0262
946.0,0.0261
945.0,0.0261
944.0,0.0261
943.0,0.0261
942.0,0.0261
941.0,0.0261
940.0,0.0261
939.0,0.026
938.0,0.026
937.0,0.0259
936.0,0.0259
935.0,0.0259
934.0,0.0259
933.0,0.0259
932.0,0.0259
931.0,0.026
930.0,0.026
929.0,0.026
928.0,0.0261
927.0,0.0263
926.0,0.0264
925.0,0.0264
924.0,0.0264
923.0,0.0263
922.0,0.0263
921.0,0.0262
920.0,0.0262
919.0,0.0261
918.0,0.026
917.0,0.0258
916.0,0.0257
915.0,0.0258
914.0,0.0259
913.0,0.026
912.0,0.026
911.0,0.0261
910.0,0.0261
909.0,0.0262
908.0,0.0263
907.0,0.0263
906.0,0.0264
905.0,0.0264
904.0,0.0265
903.0,0.0265
902.0,0.0265
901.0,0.0265
900.0,0.0264
899.0,0.0263
898.0,0.0262
897.0,0.0262
896.0,0.0263
895.0,0.0263
894.0,0.0264
893.0,0.0264
892.0,0.0264
891.0,0.0265
890.0,0.0266
889.0,0.0266
888.0,0.0267
887.0,0.0268
886.0,0.0269
885.0,0.0269
884.0,0.0267
883.0,0.0266
882.0,0.0265
881.0,0.0264
880.0,0.0263
879.0,0.0263
878.0,0.0264
877.0,0.0265
876.0,0.0266
875.0,0.0267
874.0,0.0268
873.0,0.0268
872.0,0.0268
871.0,0.0267
870.0,0.0266
869.0,0.0266
868.0,0.0267
867.0,0.0267
866.0,0.0267
865.0,0.0266
864.0,0.0265
863.0,0.0265
862.0,0.0265
861.0,0.0266
860.0,0.0266
859.0,0.0267
858.0,0.0267
857.0,0.0267
856.0,0.0268
855.0,0.0268
854.0,0.0267
853.0,0.0266
852.0,0.0265
851.0,0.0265
850.0,0.0264
849.0,0.0264
848.0,0.0264
847.0,0.0264
846.0,0.0265
845.0,0.0265
844.0,0.0266
843.0,0.0266
842.0,0.0266
841.0,0.0267
840.0,0.0268
839.0,0.0268
838.0,0.0267
837.0,0.0266
836.0,0.0264
835.0,0.0263
834.0,0.0262
833.0,0.0263
832.0,0.0263
831.0,0.0263
830.0,0.0264
829.0,0.0265
828.0,0.0266
827.0,0.0266
826.0,0.0266
825.0,0.0266
824.0,0.0266
823.0,0.0265
822.0,0.0265
821.0,0.0265
820.0,0.0265
819.0,0.0266
818.0,0.0267
817.0,0.0267
816.0,0.0266
815.0,0.0265
814.0,0.0264
813.0,0.0264
812.0,0.0264
811.0,0.0265
810.0,0.0266
809.0,0.0267
808.0,0.0267
807.0,0.0268
806.0,0.0268
805.0,0.0267
804.0,0.0266
803.0,0.0266
802.0,0.0266
801.0,0.0267
800.0,0.0267
799.0,0.0267
798.0,0.0266
797.0,0.0266
796.0,0.0266
795.0,0.0267
794.0,0.0267
793.0,0.0267
792.0,0.0266
791.0,0.0265
790.0,0.0264
789.0,0.0264
788.0,0.0265
787.0,0.0266
786.0,0.0267
785.0,0.0268
784.0,0.0269
783.0,0.0269
782.0,0.0269
781.0,0.0268
780.0,0.0266
779.0,0.0264
778.0,0.0263
777.0,0.0264
776.0,0.0264
775.0,0.0266
774.0,0.0267
773.0,0.0269
772.0,0.027
771.0,0.0268
770.0,0.0266
769.0,0.0265
768.0,0.0264
767.0,0.0263
766.0,0.0262
765.0,0.0261
764.0,0.0261
763.0,0.026
762.0,0.0259
761.0,0.0259
760.0,0.0259
759.0,0.0257
758.0,0.0255
757.0,0.0254
756.0,0.0254
755.0,0.0255
754.0,0.0255
753.0,0.0253
752.0,0.0251
751.0,0.0248
750.0,0.0245
749.0,0.0243
748.0,0.0241
747.0,0.024
746.0,0.024
745.0,0.0239
744.0,0.0237
743.0,0.0235
742.0,0.0233
741.0,0.0232
740.0,0.0233
739.0,0.0236
738.0,0.024
737.0,0.025
736.0,0.0269
735.0,0.0311
734.0,0.0394
733.0,0.053
732.0,0.07
731.0,0.0855
730.0,0.0937
729.0,0.0927
728.0,0.0857
727.0,0.0776
726.0,0.0719
725.0,0.0697
724.0,0.0716
723.0,0.0784
722.0,0.0915
721.0,0.1101
720.0,0.128
719.0,0.1362
718.0,0.1318
717.0,0.119
716.0,0.1039
715.0,0.0902
714.0,0.079
713.0,0.0702
712.0,0.0635
711.0,0.0586
710.0,0.0549
709.0,0.0521
708.0,0.0501
707.0,0.0487
706.0,0.0476
705.0,0.0465
704.0,0.0454
703.0,0.0443
702.0,0.0431
701.0,0.0418
700.0,0.0404
699.0,0.0393
698.0,0.0385
697.0,0.0382
696.0,0.0382
695.0,0.0383
694.0,0.0381
693.0,0.0376
692.0,0.0375
691.0,0.0378
690.0,0.0381
689.0,0.0379
688.0,0.0374
687.0,0.0372
686.0,0.0371
685.0,0.0365
684.0,0.0352
683.0,0.0337
682.0,0.0328
681.0,0.0325
680.0,0.0327
679.0,0.0331
678.0,0.0334
677.0,0.0334
676.0,0.0332
675.0,0.0332
674.0,0.0333
673.0,0.0335
672.0,0.0335
671.0,0.0332
670.0,0.0323
669.0,0.0306
668.0,0.0307
667.0,0.0331
666.0,0.0343
665.0,0.0338
664.0,0.0331
663.0,0.0327
662.0,0.0324
661.0,0.0321
660.0,0.0319
659.0,0.032
658.0,0.0325
657.0,0.0327
656.0,0.0326
655.0,0.0322
654.0,0.0322
653.0,0.0326
652.0,0.0331
651.0,0.0336
650.0,0.0337
649.0,0.0335
648.0,0.0331
647.0,0.0328
646.0,0.0329
645.0,0.0333
644.0,0.0336
643.0,0.0335
642.0,0.0329
641.0,0.0321
640.0,0.0316
639.0,0.0319
638.0,0.0328
637.0,0.034
636.0,0.0353
635.0,0.0365
634.0,0.0373
633.0,0.0375
632.0,0.0373
631.0,0.0366
630.0,0.0358
629.0,0.035
628.0,0.0345
627.0,0.0342
626.0,0.0341
625.0,0.034
624.0,0.0338
623.0,0.0336
622.0,0.0333
621.0,0.0332
620.0,0.0334
619.0,0.0339
618.0,0.0343
617.0,0.0347
616.0,0.0353
615.0,0.0361
614.0,0.0367
613.0,0.037
612.0,0.037
611.0,0.0371
610.0,0.0371
609.0,0.0368
608.0,0.0364
607.0,0.0362
606.0,0.0363
605.0,0.0366
604.0,0.037
603.0,0.0374
602.0,0.0374
601.0,0.0367
600.0,0.0356
