nm,Intensity
528.626,1863.65
528.711,1863.85
528.795,1861.8
528.879,1862.0
528.963,1862.7
529.048,1862.5
529.132,1863.3
529.216,1863.35
529.3,1864.45
529.385,1862.45
529.469,1862.4
529.553,1862.6
529.637,1863.35
529.721,1864.15
529.806,1862.6
529.89,1862.75
529.974,1863.2
530.058,1863.35
530.143,1862.85
530.227,1863.9
530.311,1862.8
530.395,1863.7
530.48,1862.25
530.564,1863.85
530.648,1864.55
530.732,1864.05
530.816,1864.45
530.901,1863.9
530.985,1864.7
531.069,1864.9
531.153,1865.8
531.237,1866.45
531.322,1868.7
531.406,1869.8
531.49,1872.55
531.574,1880.9
531.658,1912.0
531.743,2044.45
531.827,2561.05
531.911,3323.2
531.995,4163.0
532.079,4807.3
532.164,4449.0
532.248,3115.35
532.332,2179.25
532.416,1896.95
532.5,1868.2
532.585,1866.6
532.669,1864.3
532.753,1863.15
532.837,1865.35
532.921,1864.2
533.006,1865.75
533.09,1864.6
533.174,1864.15
533.258,1865.6
533.342,1866.35
533.426,1870.4
533.511,1884.5
533.595,1913.55
533.679,1970.3
533.763,2039.15
533.847,2110.6
533.931,2158.1
534.016,2190.15
534.1,2217.15
534.184,2251.0
534.268,2286.25
534.352,2320.85
534.436,2379.85
534.521,2425.95
534.605,2425.7
534.689,2390.25
534.773,2350.15
534.857,2316.6
534.941,2302.8
535.025,2293.25
535.11,2280.7
535.194,2288.0
535.278,2301.3
535.362,2318.45
535.446,2328.3
535.53,2321.4
535.614,2319.85
535.699,2315.4
535.783,2317.6
535.867,2307.85
535.951,2296.85
536.035,2302.15
536.119,2310.3
536.203,2316.55
536.287,2308.3
536.372,2306.85
536.456,2323.3
536.54,2338.9
536.624,2333.9
536.708,2343.65
536.792,2324.35
536.876,2319.35
536.96,2322.25
537.044,2321.35
537.129,2322.75
537.213,2330.15
537.297,2331.9
537.381,2335.85
537.465,2343.3
537.549,2354.0
537.633,2372.7
537.717,2388.45
537.801,2416.45
537.885,2419.35
537.97,2414.55
538.054,2411.4
538.138,2381.65
538.222,2386.05
538.306,2371.5
538.39,2369.2
538.474,2368.55
538.558,2374.2
538.642,2381.95
538.726,2378.75
538.81,2385.1
538.894,2391.15
538.979,2413.1
539.063,2433.8
539.147,2432.7
539.231,2412.6
539.315,2398.1
539.399,2373.25
539.483,2374.4
539.567,2342.2
539.651,2338.35
539.735,2330.35
539.819,2332.65
539.903,2321.45
539.987,2323.55
540.071,2329.65
540.155,2326.95
540.239,2327.8
540.324,2321.9
540.408,2312.7
540.492,2310.4
540.576,2316.0
540.66,2319.5
540.744,2339.15
540.828,2337.7
540.912,2344.3
540.996,2349.85
541.08,2341.25
541.164,2356.0
541.248,2362.7
541.332,2361.5
541.416,2352.15
541.5,2361.5
541.584,2379.2
541.668,2380.35
541.752,2386.0
541.836,2391.3
541.92,2383.75
542.004,2381.6
542.088,2391.45
542.172,2403.9
542.256,2400.35
542.34,2405.0
542.424,2391.15
542.508,2419.85
542.592,2424.1
542.676,2417.6
542.76,2394.7
542.844,2389.5
542.928,2391.35
543.012,2381.2
543.096,2397.95
543.18,2392.75
543.264,2384.7
543.348,2378.25
543.432,2384.05
543.516,2388.9
543.6,2407.2
543.684,2429.35
543.768,2444.25
543.852,2443.0
543.936,2454.9
544.02,2475.6
544.104,2487.65
544.188,2493.25
544.272,2514.55
544.356,2522.45
544.44,2555.65
544.524,2596.8
544.608,2590.4
544.692,2641.95
544.776,2684.95
544.86,2726.15
544.944,2726.55
545.028,2711.95
545.112,2669.6
545.196,2640.15
545.28,2611.3
545.364,2560.6
545.448,2536.4
545.532,2493.4
545.616,2496.6
545.7,2488.85
545.784,2473.15
545.867,2455.1
545.951,2444.6
546.035,2421.2
546.119,2405.8
546.203,2399.95
546.287,2394.35
546.371,2389.05
546.455,2387.0
546.539,2393.85
546.623,2407.4
546.707,2388.85
546.791,2399.4
546.875,2415.7
546.959,2412.65
547.043,2405.35
547.127,2398.35
547.21,2410.45
547.294,2417.35
547.378,2407.5
547.462,2403.75
547.546,2389.85
547.63,2389.5
547.714,2385.95
547.798,2403.1
547.882,2410.35
547.966,2422.55
548.05,2425.85
548.134,2435.75
548.217,2427.4
548.301,2439.1
548.385,2455.55
548.469,2445.0
548.553,2463.15
548.637,2459.55
548.721,2474.75
548.805,2468.8
548.889,2480.6
548.972,2504.9
549.056,2510.2
549.14,2531.0
549.224,2557.9
549.308,2577.95
549.392,2619.8
549.476,2670.05
549.56,2697.25
549.644,2684.85
549.727,2685.05
549.811,2648.25
549.895,2605.9
549.979,2573.7
550.063,2540.95
550.147,2506.45
550.231,2515.45
550.315,2511.6
550.398,2501.05
550.482,2488.9
550.566,2493.0
550.65,2485.6
550.734,2488.35
550.818,2488.5
550.902,2481.0
550.985,2490.15
551.069,2486.8
551.153,2484.1
551.237,2483.35
551.321,2479.6
551.405,2505.35
551.488,2512.3
551.572,2503.8
551.656,2501.2
551.74,2498.1
551.824,2492.75
551.908,2495.6
551.991,2492.85
552.075,2474.95
552.159,2479.85
552.243,2478.45
552.327,2456.35
552.411,2470.9
552.494,2468.5
552.578,2451.95
552.662,2431.4
552.746,2422.0
552.83,2419.8
552.914,2430.6
552.997,2458.6
553.081,2462.7
553.165,2450.5
553.249,2447.1
553.333,2445.65
553.416,2437.7
553.5,2434.45
553.584,2439.9
553.668,2441.2
553.752,2462.2
553.835,2460.6
553.919,2458.0
554.003,2461.2
554.087,2455.85
554.171,2471.9
554.254,2457.85
554.338,2458.35
554.422,2463.55
554.506,2459.75
554.589,2446.05
554.673,2471.75
554.757,2475.2
554.841,2487.75
554.925,2487.35
555.008,2464.65
555.092,2469.85
555.176,2468.4
555.26,2458.9
555.343,2463.05
555.427,2447.95
555.511,2450.65
555.595,2450.4
555.679,2457.0
555.762,2448.15
555.846,2460.6
555.93,2468.2
556.014,2465.0
556.097,2457.5
556.181,2459.5
556.265,2448.55
556.349,2459.35
556.432,2461.35
556.516,2459.0
556.6,2460.0
556.684,2463.6
556.767,2456.8
556.851,2451.05
556.935,2450.0
557.018,2437.2
557.102,2465.8
557.186,2450.4
557.27,2449.75
557.353,2442.2
557.437,2469.4
557.521,2468.15
557.605,2473.4
557.688,2475.6
557.772,2454.9
557.856,2472.2
557.939,2482.6
558.023,2480.2
558.107,2483.9
558.191,2477.85
558.274,2485.75
558.358,2477.1
558.442,2477.85
558.525,2481.2
558.609,2465.55
558.693,2455.95
558.776,2450.85
558.86,2456.5
558.944,2463.1
559.028,2481.1
559.111,2468.2
559.195,2473.8
559.279,2492.15
559.362,2484.6
559.446,2486.85
559.53,2494.05
559.613,2506.5
559.697,2505.05
559.781,2489.2
559.864,2474.35
559.948,2477.7
560.032,2472.7
560.115,2476.15
560.199,2483.45
560.283,2481.05
560.366,2509.8
560.45,2520.65
560.534,2525.45
560.617,2524.5
560.701,2526.9
560.785,2526.55
560.868,2524.65
560.952,2540.0
561.036,2548.35
561.119,2569.25
561.203,2560.7
561.287,2563.35
561.37,2560.9
561.454,2586.6
561.538,2609.95
561.621,2684.45
561.705,2765.15
561.789,2938.65
561.872,3297.0
561.956,3888.35
562.039,4787.75
562.123,5684.75
562.207,6166.5
562.29,5891.1
562.374,4814.35
562.458,3793.1
562.541,3140.45
562.625,2841.45
562.708,2709.4
562.792,2673.45
562.876,2647.45
562.959,2626.05
563.043,2606.55
563.127,2551.8
563.21,2571.75
563.294,2560.25
563.377,2548.85
563.461,2550.1
563.545,2540.15
563.628,2542.05
563.712,2543.75
563.795,2549.95
563.879,2562.65
563.963,2550.6
564.046,2566.0
564.13,2582.75
564.213,2573.1
564.297,2592.25
564.38,2590.3
564.464,2617.0
564.548,2647.9
564.631,2664.4
564.715,2691.5
564.798,2713.7
564.882,2765.0
564.966,2768.0
565.049,2767.15
565.133,2781.65
565.216,2764.1
565.3,2740.7
565.383,2701.05
565.467,2676.75
565.551,2659.9
565.634,2644.95
565.718,2634.45
565.801,2584.4
565.885,2586.35
565.968,2594.75
566.052,2607.05
566.135,2592.0
566.219,2565.0
566.302,2566.7
566.386,2584.3
566.47,2584.0
566.553,2555.35
566.637,2567.45
566.72,2590.35
566.804,2585.65
566.887,2603.1
566.971,2585.85
567.054,2595.75
567.138,2600.2
567.221,2622.85
567.305,2593.25
567.388,2589.5
567.472,2586.65
567.555,2575.35
567.639,2571.8
567.722,2567.75
567.806,2567.0
567.889,2557.35
567.973,2551.15
568.057,2553.85
568.14,2542.75
568.224,2556.65
568.307,2536.65
568.391,2543.15
568.474,2552.3
568.558,2527.65
568.641,2543.2
568.725,2534.95
568.808,2541.6
568.892,2546.65
568.975,2558.1
569.058,2544.55
569.142,2555.75
569.225,2548.0
569.309,2547.0
569.392,2556.05
569.476,2549.7
569.559,2572.75
569.643,2557.05
569.726,2549.3
569.81,2559.2
569.893,2566.85
569.977,2559.1
570.06,2542.25
570.144,2545.15
570.227,2538.05
570.311,2548.1
570.394,2552.6
570.477,2558.4
570.561,2550.65
570.644,2530.5
570.728,2533.9
570.811,2548.9
570.895,2541.85
570.978,2530.65
571.062,2517.65
571.145,2537.35
571.229,2535.95
571.312,2544.8
571.395,2551.3
571.479,2565.05
571.562,2570.45
571.646,2562.1
571.729,2552.15
571.813,2559.55
571.896,2553.75
571.979,2571.6
572.063,2579.15
572.146,2576.85
572.23,2587.1
572.313,2586.65
572.397,2592.45
572.48,2590.75
572.563,2572.65
572.647,2562.65
572.73,2568.7
572.814,2581.9
572.897,2572.85
572.98,2579.1
573.064,2578.0
573.147,2567.45
573.231,2566.85
573.314,2570.55
573.397,2583.5
573.481,2573.45
573.564,2579.9
573.648,2572.55
573.731,2588.35
573.814,2571.5
573.898,2565.9
573.981,2566.4
574.064,2568.55
574.148,2592.05
574.231,2579.85
574.315,2564.95
574.398,2580.9
574.481,2583.25
574.565,2577.9
574.648,2568.65
574.731,2554.0
574.815,2563.25
574.898,2565.35
574.982,2580.15
575.065,2568.2
575.148,2565.65
575.232,2566.4
575.315,2579.4
575.398,2565.85
575.482,2565.05
575.565,2552.85
575.648,2567.0
575.732,2602.2
575.815,2587.5
575.898,2600.05
575.982,2578.25
576.065,2566.5
576.148,2590.75
576.232,2571.2
576.315,2581.5
576.398,2568.7
576.482,2583.85
576.565,2587.95
576.648,2596.1
576.732,2603.6
576.815,2601.5
576.898,2597.3
576.982,2599.7
577.065,2587.25
577.148,2596.1
577.232,2582.5
577.315,2586.9
577.398,2571.65
577.481,2567.15
577.565,2566.45
577.648,2583.2
577.731,2590.0
577.815,2588.15
577.898,2585.85
577.981,2581.75
578.065,2564.8
578.148,2547.0
578.231,2570.35
578.314,2582.45
578.398,2575.95
578.481,2576.6
578.564,2562.6
578.648,2586.3
578.731,2588.3
578.814,2580.5
578.897,2568.35
578.981,2578.9
579.064,2581.35
579.147,2590.8
579.23,2616.85
579.314,2589.55
579.397,2582.2
579.48,2605.4
579.563,2597.85
579.647,2614.95
579.73,2601.4
579.813,2592.7
579.896,2592.9
579.98,2602.9
580.063,2591.65
580.146,2605.2
580.229,2606.6
580.313,2596.95
580.396,2591.1
580.479,2593.5
580.562,2595.75
580.646,2611.4
580.729,2613.6
580.812,2585.45
580.895,2600.6
580.979,2599.45
581.062,2604.5
581.145,2605.65
581.228,2606.4
581.311,2627.2
581.395,2615.8
581.478,2596.95
581.561,2602.6
581.644,2603.6
581.728,2611.2
581.811,2621.05
581.894,2614.25
581.977,2607.05
582.06,2610.15
582.144,2625.75
582.227,2595.95
582.31,2605.8
582.393,2607.65
582.476,2617.3
582.56,2606.35
582.643,2608.3
582.726,2626.55
582.809,2621.45
582.892,2642.3
582.975,2622.8
583.059,2617.4
583.142,2619.65
583.225,2617.35
583.308,2616.2
583.391,2602.3
583.475,2610.45
583.558,2632.4
583.641,2632.5
583.724,2622.35
583.807,2626.75
583.89,2633.85
583.973,2630.4
584.057,2633.55
584.14,2636.8
584.223,2630.2
584.306,2615.35
584.389,2629.15
584.472,2638.6
584.556,2652.9
584.639,2625.7
584.722,2605.85
584.805,2619.15
584.888,2607.45
584.971,2614.5
585.054,2609.15
585.138,2598.4
585.221,2593.3
585.304,2606.65
585.387,2595.35
585.47,2586.75
585.553,2594.3
585.636,2599.8
585.719,2599.6
585.802,2582.55
585.886,2587.1
585.969,2586.5
586.052,2603.45
586.135,2602.15
586.218,2587.25
586.301,2600.85
586.384,2633.85
586.467,2613.2
586.55,2610.2
586.634,2600.05
586.717,2604.65
586.8,2609.6
586.883,2613.6
586.966,2618.95
587.049,2609.35
587.132,2608.1
587.215,2628.35
587.298,2609.5
587.381,2594.05
587.464,2620.05
587.548,2627.0
587.631,2623.65
587.714,2606.75
587.797,2623.15
587.88,2598.9
587.963,2610.5
588.046,2620.1
588.129,2614.55
588.212,2599.8
588.295,2593.4
588.378,2606.1
588.461,2594.05
588.544,2614.1
588.627,2599.75
588.71,2586.1
588.793,2571.6
588.876,2551.05
588.96,2536.4
589.043,2538.15
589.126,2547.85
589.209,2550.75
589.292,2556.15
589.375,2554.8
589.458,2549.3
589.541,2568.45
589.624,2545.45
589.707,2539.6
589.79,2541.3
589.873,2560.3
589.956,2585.05
590.039,2595.0
590.122,2580.9
590.205,2585.4
590.288,2592.25
590.371,2604.3
590.454,2608.95
590.537,2586.25
590.62,2582.3
590.703,2601.0
590.786,2592.6
590.869,2599.15
590.952,2614.05
591.035,2600.9
591.118,2590.35
591.201,2589.5
591.284,2608.4
591.367,2600.05
591.45,2592.05
591.533,2591.35
591.616,2597.95
591.699,2604.55
591.782,2600.5
591.865,2603.05
591.948,2594.9
592.031,2574.85
592.114,2595.65
592.197,2601.4
592.28,2614.65
592.363,2595.45
592.446,2592.0
592.529,2613.0
592.611,2635.0
592.694,2613.6
592.777,2613.2
592.86,2616.75
592.943,2618.45
593.026,2610.05
593.109,2608.0
593.192,2604.55
593.275,2608.05
593.358,2610.5
593.441,2603.8
593.524,2595.55
593.607,2597.8
593.69,2602.35
593.773,2605.8
593.856,2611.4
593.939,2610.15
594.021,2592.45
594.104,2592.25
594.187,2575.6
594.27,2580.95
594.353,2590.35
594.436,2599.9
594.519,2600.95
594.602,2589.7
594.685,2584.95
594.768,2591.05
594.851,2593.45
594.933,2599.75
595.016,2603.0
595.099,2607.1
595.182,2603.2
595.265,2601.35
595.348,2612.85
595.431,2622.35
595.514,2604.15
595.597,2615.1
595.68,2609.65
595.762,2599.6
595.845,2601.0
595.928,2600.45
596.011,2598.55
596.094,2618.15
596.177,2625.0
596.26,2621.25
596.342,2614.55
596.425,2626.85
596.508,2620.3
596.591,2609.25
596.674,2594.0
596.757,2594.95
596.84,2621.85
596.923,2621.85
597.005,2628.65
597.088,2610.6
597.171,2630.05
597.254,2626.25
597.337,2621.5
597.42,2611.65
597.502,2603.6
597.585,2602.7
597.668,2609.1
597.751,2612.75
597.834,2617.85
597.917,2625.5
597.999,2623.5
598.082,2620.35
598.165,2613.15
598.248,2625.95
598.331,2611.75
598.414,2591.95
598.496,2599.7
598.579,2606.65
598.662,2623.4
598.745,2624.8
598.828,2629.1
598.91,2634.7
598.993,2623.25
599.076,2619.5
599.159,2612.9
599.242,2635.05
599.324,2642.45
599.407,2634.25
599.49,2623.3
599.573,2616.25
599.656,2628.5
599.738,2612.25
599.821,2613.2
599.904,2618.15
599.987,2652.0
600.069,2633.15
600.152,2631.55
600.235,2618.25
600.318,2618.0
600.401,2620.15
600.483,2638.7
600.566,2618.2
600.649,2621.8
600.732,2609.75
600.814,2612.3
600.897,2613.2
600.98,2607.05
601.063,2628.4
601.145,2643.2
601.228,2637.2
601.311,2619.9
601.394,2609.75
601.476,2609.75
601.559,2618.75
601.642,2616.6
601.725,2619.65
601.807,2618.25
601.89,2619.65
601.973,2623.9
602.055,2632.65
602.138,2630.65
602.221,2623.15
602.304,2628.35
602.386,2615.6
602.469,2618.25
602.552,2624.65
602.635,2625.4
602.717,2630.65
602.8,2635.5
602.883,2640.25
602.965,2637.9
603.048,2641.15
603.131,2637.0
603.213,2631.6
603.296,2649.3
603.379,2631.9
603.462,2615.3
603.544,2644.1
603.627,2634.0
603.71,2635.65
603.792,2655.05
603.875,2640.65
603.958,2636.85
604.04,2635.5
604.123,2634.05
604.206,2645.05
604.288,2633.8
604.371,2627.15
604.454,2644.35
604.536,2633.75
604.619,2637.8
604.702,2636.0
604.784,2636.2
604.867,2641.75
604.95,2647.95
605.032,2651.15
605.115,2636.25
605.198,2642.0
605.28,2640.85
605.363,2640.65
605.446,2641.8
605.528,2646.6
605.611,2633.2
605.693,2624.55
605.776,2634.7
605.859,2646.3
605.941,2643.1
606.024,2631.7
606.107,2637.7
606.189,2645.9
606.272,2656.7
606.354,2643.6
606.437,2626.3
606.52,2627.1
606.602,2623.1
606.685,2654.0
606.767,2661.95
606.85,2669.55
606.933,2657.4
607.015,2659.8
607.098,2657.85
607.181,2645.7
607.263,2643.8
607.346,2657.85
607.428,2641.9
607.511,2639.2
607.593,2646.8
607.676,2651.15
607.759,2630.05
607.841,2635.05
607.924,2647.25
608.006,2652.85
608.089,2641.7
608.172,2640.15
608.254,2630.65
608.337,2631.8
608.419,2641.1
608.502,2643.35
608.584,2638.7
608.667,2626.5
608.749,2635.95
608.832,2622.45
608.915,2639.15
608.997,2633.75
609.08,2629.85
609.162,2641.25
609.245,2641.05
609.327,2642.85
609.41,2646.3
609.492,2641.45
609.575,2636.25
609.657,2642.05
609.74,2653.0
609.823,2646.15
609.905,2645.0
609.988,2630.5
610.07,2639.2
610.153,2639.35
610.235,2630.15
610.318,2615.65
610.4,2631.3
610.483,2631.15
610.565,2638.15
610.648,2646.8
610.73,2644.4
610.813,2643.75
610.895,2641.2
610.978,2637.15
611.06,2642.15
611.143,2662.7
611.225,2646.5
611.308,2642.75
611.39,2638.05
611.473,2649.4
611.555,2637.4
611.638,2642.45
611.72,2634.8
611.803,2637.3
611.885,2631.25
611.968,2636.85
612.05,2640.05
612.133,2629.75
612.215,2615.8
612.297,2631.0
612.38,2630.05
612.462,2620.1
612.545,2632.5
612.627,2642.8
612.71,2634.35
612.792,2615.25
612.875,2605.9
612.957,2632.7
613.04,2638.3
613.122,2656.65
613.204,2630.6
613.287,2614.0
613.369,2625.95
613.452,2617.5
613.534,2624.35
613.617,2609.95
613.699,2615.5
613.781,2608.55
613.864,2611.75
613.946,2628.7
614.029,2634.35
614.111,2617.8
614.194,2610.3
614.276,2643.35
614.358,2627.0
614.441,2623.85
614.523,2632.55
614.606,2631.3
614.688,2636.05
614.77,2624.05
614.853,2615.75
614.935,2626.45
615.018,2627.6
615.1,2636.85
615.182,2607.05
615.265,2618.5
615.347,2601.8
615.43,2615.0
615.512,2622.4
615.594,2621.25
615.677,2623.75
615.759,2623.6
615.841,2627.45
615.924,2632.8
616.006,2614.6
616.089,2607.6
616.171,2588.0
616.253,2587.0
616.336,2604.1
616.418,2589.25
616.5,2619.65
616.583,2607.0
616.665,2623.9
616.747,2617.25
616.83,2602.75
616.912,2604.1
616.994,2585.25
617.077,2582.65
617.159,2621.75
617.242,2637.2
617.324,2612.3
617.406,2615.65
617.489,2624.6
617.571,2611.35
617.653,2623.7
617.735,2622.0
617.818,2620.0
617.9,2627.35
617.982,2635.15
618.065,2634.35
618.147,2641.05
618.229,2637.45
618.312,2644.4
618.394,2636.9
618.476,2629.75
618.559,2626.75
618.641,2635.7
618.723,2621.0
618.805,2613.75
618.888,2624.65
618.97,2613.45
619.052,2612.95
619.135,2613.65
619.217,2608.25
619.299,2607.35
619.381,2617.6
619.464,2623.2
619.546,2631.65
619.628,2635.6
619.711,2640.15
619.793,2632.55
619.875,2609.4
619.957,2634.7
620.04,2644.55
620.122,2637.8
620.204,2632.0
620.286,2621.6
620.369,2609.1
620.451,2602.85
620.533,2614.65
620.615,2619.75
620.698,2629.95
620.78,2635.3
620.862,2626.4
620.944,2644.1
621.027,2621.35
621.109,2600.9
621.191,2614.5
621.273,2624.1
621.356,2628.55
621.438,2619.4
621.52,2626.55
621.602,2627.75
621.684,2626.8
621.767,2609.4
621.849,2606.55
621.931,2613.9
622.013,2625.8
622.095,2615.8
622.178,2613.95
622.26,2617.5
622.342,2601.85
622.424,2594.3
622.506,2607.85
622.589,2632.65
622.671,2635.65
622.753,2629.0
622.835,2622.9
622.917,2614.15
623.0,2606.5
623.082,2598.85
623.164,2596.0
623.246,2582.55
623.328,2610.2
623.41,2613.55
623.493,2618.3
623.575,2621.35
623.657,2598.25
623.739,2607.2
623.821,2595.9
623.903,2613.45
623.986,2607.35
624.068,2606.3
624.15,2616.7
624.232,2615.2
624.314,2609.75
624.396,2606.65
624.478,2590.7
624.561,2604.2
624.643,2600.1
624.725,2597.65
624.807,2603.4
624.889,2620.7
624.971,2614.6
625.053,2616.6
625.136,2616.5
625.218,2599.6
625.3,2581.85
625.382,2583.8
625.464,2578.15
625.546,2594.9
625.628,2593.0
625.71,2572.1
625.792,2599.95
625.875,2603.1
625.957,2606.6
626.039,2598.4
626.121,2616.85
626.203,2603.4
626.285,2596.55
626.367,2597.7
626.449,2604.45
626.531,2607.0
626.613,2603.8
626.695,2590.6
626.778,2585.0
626.86,2587.0
626.942,2597.1
627.024,2592.85
627.106,2596.4
627.188,2605.35
627.27,2607.45
627.352,2599.25
627.434,2595.0
627.516,2591.15
627.598,2569.2
627.68,2545.3
627.762,2564.6
627.844,2544.2
627.926,2567.95
628.008,2575.3
628.09,2572.25
628.172,2579.3
628.255,2579.25
628.337,2590.6
628.419,2601.85
628.501,2620.05
628.583,2579.95
628.665,2592.75
628.747,2594.5
628.829,2617.15
628.911,2591.25
628.993,2576.75
629.075,2586.65
629.157,2582.7
629.239,2608.4
629.321,2592.15
629.403,2590.2
629.485,2581.6
629.567,2582.3
629.649,2584.65
629.731,2598.0
629.813,2592.85
629.895,2575.0
629.977,2567.85
630.059,2566.15
630.141,2553.5
630.223,2575.8
630.305,2576.1
630.387,2588.5
630.469,2594.0
630.551,2581.9
630.633,2573.7
630.715,2598.65
630.797,2585.65
630.878,2576.3
630.96,2591.6
631.042,2599.75
631.124,2593.85
631.206,2580.95
631.288,2587.05
631.37,2582.1
631.452,2583.35
631.534,2574.3
631.616,2573.95
631.698,2562.7
631.78,2553.9
631.862,2570.15
631.944,2577.2
632.026,2571.3
632.108,2579.6
632.19,2572.7
632.272,2592.85
632.353,2601.05
632.435,2598.7
632.517,2594.95
632.599,2590.3
632.681,2590.5
632.763,2583.55
632.845,2595.75
632.927,2606.35
633.009,2592.3
633.091,2598.35
633.173,2593.1
633.254,2600.65
633.336,2583.7
633.418,2573.45
633.5,2592.2
633.582,2603.7
633.664,2585.2
633.746,2595.9
633.828,2570.15
633.91,2575.55
633.991,2573.8
634.073,2593.2
634.155,2599.0
634.237,2581.0
634.319,2558.4
634.401,2583.0
634.483,2584.6
634.564,2577.2
634.646,2578.8
634.728,2577.7
634.81,2586.15
634.892,2584.9
634.974,2575.95
635.056,2592.7
635.137,2602.9
635.219,2600.6
635.301,2603.75
635.383,2599.3
635.465,2578.55
635.547,2568.5
635.628,2563.4
635.71,2553.55
635.792,2589.05
635.874,2575.35
635.956,2575.55
636.038,2572.8
636.119,2555.7
636.201,2569.9
636.283,2577.8
636.365,2586.15
636.447,2596.95
636.528,2583.4
636.61,2598.6
636.692,2594.05
636.774,2564.5
636.856,2571.1
636.937,2586.6
637.019,2586.8
637.101,2566.7
637.183,2588.5
637.265,2586.65
637.346,2611.45
637.428,2596.3
637.51,2604.75
637.592,2589.5
637.673,2600.0
637.755,2591.9
637.837,2580.2
637.919,2594.0
638.0,2601.7
638.082,2615.7
638.164,2619.9
638.246,2604.15
638.327,2600.9
638.409,2607.85
638.491,2606.4
638.573,2615.25
638.654,2600.7
638.736,2595.95
638.818,2601.75
638.9,2613.95
638.981,2585.65
639.063,2609.2
639.145,2597.8
639.227,2588.6
639.308,2583.05
639.39,2587.75
639.472,2614.5
639.553,2613.05
639.635,2615.75
639.717,2620.55
639.799,2615.05
639.88,2607.65
639.962,2597.3
640.044,2615.85
640.125,2609.15
640.207,2639.25
640.289,2636.9
640.37,2639.6
640.452,2636.25
640.534,2604.0
640.616,2616.7
640.697,2619.8
640.779,2620.6
640.861,2634.1
640.942,2630.85
641.024,2633.2
641.106,2650.05
641.187,2656.15
641.269,2657.3
641.351,2666.75
641.432,2660.25
641.514,2671.3
641.596,2686.5
641.677,2686.45
641.759,2681.15
641.84,2684.2
641.922,2693.55
642.004,2710.5
642.085,2709.45
642.167,2727.65
642.249,2722.4
642.33,2757.25
642.412,2754.0
642.494,2755.4
642.575,2793.05
642.657,2805.85
642.738,2805.65
642.82,2794.0
642.902,2792.25
642.983,2808.6
643.065,2837.0
643.147,2847.35
643.228,2848.75
643.31,2862.1
643.391,2888.8
643.473,2909.7
643.555,2928.9
643.636,2940.7
643.718,2940.95
643.799,2969.5
643.881,2989.0
643.963,3007.1
644.044,3067.9
644.126,3087.65
644.207,3092.15
644.289,3124.85
644.37,3135.85
644.452,3119.9
644.534,3148.6
644.615,3147.7
644.697,3138.5
644.778,3132.55
644.86,3102.85
644.941,3086.4
645.023,3089.2
645.104,3119.2
645.186,3114.85
645.268,3124.65
645.349,3109.8
645.431,3144.9
645.512,3110.3
645.594,3084.6
645.675,3080.2
645.757,3055.65
645.838,3085.0
645.92,3097.0
646.001,3088.65
646.083,3080.9
646.164,3080.3
646.246,3055.5
646.327,3034.8
646.409,3043.65
646.49,3069.95
646.572,3085.85
646.653,3086.8
646.735,3099.7
646.816,3096.4
646.898,3083.1
646.979,3095.25
647.061,3096.65
647.142,3099.75
647.224,3122.7
647.305,3144.9
647.387,3132.35
647.468,3088.9
647.55,3076.25
647.631,3070.3
647.713,3098.3
647.794,3082.05
647.876,3080.1
647.957,3092.55
648.039,3075.4
648.12,3073.15
648.202,3082.5
648.283,3070.0
648.365,3053.5
648.446,3035.45
648.527,3045.65
648.609,3064.55
648.69,3044.25
648.772,3062.35
648.853,3067.75
648.935,3045.8
649.016,3019.05
649.098,2998.0
649.179,2991.2
649.26,3012.45
649.342,2964.25
649.423,2935.15
649.505,2951.8
649.586,2972.15
649.667,2960.3
649.749,2976.05
649.83,2995.95
649.912,2975.7
649.993,2944.3
650.075,2974.95
650.156,2955.05
650.237,2918.35
650.319,2939.6
650.4,2941.1
650.482,2923.85
650.563,2892.35
650.644,2911.4
650.726,2883.0
650.807,2868.25
650.888,2856.2
650.97,2837.85
651.051,2815.8
651.133,2835.5
651.214,2823.8
651.295,2804.7
651.377,2786.8
651.458,2793.55
651.539,2759.7
651.621,2753.0
651.702,2751.75
651.783,2755.2
651.865,2753.8
651.946,2716.3
652.027,2717.65
652.109,2741.15
652.19,2768.6
652.271,2744.2
652.353,2721.65
652.434,2722.55
652.515,2737.4
652.597,2724.15
652.678,2729.85
652.759,2701.45
652.841,2680.65
652.922,2705.1
653.003,2715.85
653.085,2697.5
653.166,2709.95
653.247,2713.4
653.329,2687.9
653.41,2677.0
653.491,2661.45
653.573,2647.35
653.654,2645.75
653.735,2658.0
653.816,2668.65
653.898,2655.45
653.979,2653.95
654.06,2631.65
654.142,2621.0
654.223,2603.55
654.304,2582.2
654.385,2582.55
654.467,2589.15
654.548,2566.4
654.629,2554.05
654.71,2550.0
654.792,2537.9
654.873,2547.5
654.954,2554.9
655.035,2555.55
655.117,2535.0
655.198,2525.7
655.279,2525.3
655.36,2529.9
655.442,2506.8
655.523,2499.85
655.604,2500.95
655.685,2497.0
655.767,2471.3
655.848,2479.35
655.929,2458.3
656.01,2477.45
656.091,2462.35
656.173,2428.4
656.254,2395.6
656.335,2391.75
656.416,2397.95
656.498,2428.9
656.579,2437.0
656.66,2445.3
656.741,2441.85
656.822,2439.25
656.904,2438.9
656.985,2436.55
657.066,2408.05
657.147,2417.45
657.228,2412.7
657.309,2413.35
657.391,2413.85
657.472,2410.55
657.553,2395.15
657.634,2399.45
657.715,2410.7
657.796,2398.05
657.878,2393.55
657.959,2397.8
658.04,2386.05
658.121,2386.0
658.202,2393.5
658.283,2393.95
658.365,2382.15
658.446,2378.15
658.527,2364.65
658.608,2355.3
658.689,2375.85
658.77,2365.4
658.851,2368.3
658.933,2358.4
659.014,2360.0
659.095,2364.55
659.176,2343.95
659.257,2336.8
659.338,2334.9
659.419,2336.75
659.5,2354.6
659.581,2359.85
659.663,2348.95
659.744,2352.85
659.825,2342.2
659.906,2333.55
659.987,2329.7
660.068,2332.4
660.149,2336.3
660.23,2346.15
660.311,2343.8
660.392,2337.35
660.474,2324.65
660.555,2320.7
660.636,2318.35
660.717,2321.25
660.798,2312.6
660.879,2313.15
660.96,2329.9
661.041,2326.8
