cm-1,A
4000.0,0.0074
3999.0,0.0074
3998.0,0.0073
3997.0,0.0073
3996.0,0.0072
3995.0,0.0072
3994.0,0.0072
3993.0,0.0073
3992.0,0.0074
3991.0,0.0075
3990.0,0.0075
3989.0,0.0075
3988.0,0.0075
3987.0,0.0075
3986.0,0.0075
3985.0,0.0075
3984.0,0.0076
3983.0,0.0076
3982.0,0.0075
3981.0,0.0074
3980.0,0.0074
3979.0,0.0074
3978.0,0.0075
3977.0,0.0075
3976.0,0.0075
3975.0,0.0075
3974.0,0.0074
3973.0,0.0074
3972.0,0.0074
3971.0,0.0074
3970.0,0.0075
3969.0,0.0076
3968.0,0.0076
3967.0,0.0076
3966.0,0.0076
3965.0,0.0076
3964.0,0.0077
3963.0,0.0077
3962.0,0.0078
3961.0,0.0078
3960.0,0.0078
3959.0,0.0078
3958.0,0.0077
3957.0,0.0077
3956.0,0.0077
3955.0,0.0077
3954.0,0.0078
3953.0,0.0078
3952.0,0.0078
3951.0,0.0077
3950.0,0.0076
3949.0,0.0075
3948.0,0.0076
3947.0,0.0076
3946.0,0.0077
3945.0,0.0077
3944.0,0.0077
3943.0,0.0077
3942.0,0.0077
3941.0,0.0078
3940.0,0.0078
3939.0,0.0078
3938.0,0.0078
3937.0,0.0078
3936.0,0.0077
3935.0,0.0077
3934.0,0.0077
3933.0,0.0078
3932.0,0.0079
3931.0,0.0079
3930.0,0.0079
3929.0,0.0079
3928.0,0.0078
3927.0,0.0078
3926.0,0.0078
3925.0,0.0078
3924.0,0.0078
3923.0,0.0077
3922.0,0.0077
3921.0,0.0077
3920.0,0.0077
3919.0,0.0078
3918.0,0.0077
3917.0,0.0077
3916.0,0.0077
3915.0,0.0076
3914.0,0.0076
3913.0,0.0076
3912.0,0.0077
3911.0,0.0078
3910.0,0.0078
3909.0,0.0078
3908.0,0.0078
3907.0,0.0078
3906.0,0.0078
3905.0,0.0078
3904.0,0.0079
3903.0,0.008
3902.0,0.008
3901.0,0.0081
3900.0,0.0081
3899.0,0.0081
3898.0,0.0081
3897.0,0.008
3896.0,0.0079
3895.0,0.0079
3894.0,0.0079
3893.0,0.0079
3892.0,0.0079
3891.0,0.0079
3890.0,0.0079
3889.0,0.008
3888.0,0.008
3887.0,0.008
3886.0,0.008
3885.0,0.0081
3884.0,0.0082
3883.0,0.0082
3882.0,0.0081
3881.0,0.0079
3880.0,0.0079
3879.0,0.0079
3878.0,0.0081
3877.0,0.0082
3876.0,0.0082
3875.0,0.0081
3874.0,0.0081
3873.0,0.0082
3872.0,0.0083
3871.0,0.0083
3870.0,0.0082
3869.0,0.0082
3868.0,0.0082
3867.0,0.0082
3866.0,0.0081
3865.0,0.008
3864.0,0.008
3863.0,0.008
3862.0,0.0079
3861.0,0.0079
3860.0,0.0078
3859.0,0.0078
3858.0,0.0078
3857.0,0.0079
3856.0,0.008
3855.0,0.008
3854.0,0.008
3853.0,0.0081
3852.0,0.0083
3851.0,0.0084
3850.0,0.0083
3849.0,0.0083
3848.0,0.0082
3847.0,0.0081
3846.0,0.0081
3845.0,0.0081
3844.0,0.0082
3843.0,0.0083
3842.0,0.0084
3841.0,0.0086
3840.0,0.0086
3839.0,0.0087
3838.0,0.0086
3837.0,0.0086
3836.0,0.0085
3835.0,0.0085
3834.0,0.0084
3833.0,0.0084
3832.0,0.0083
3831.0,0.0082
3830.0,0.0081
3829.0,0.0081
3828.0,0.0082
3827.0,0.0082
3826.0,0.0083
3825.0,0.0084
3824.0,0.0085
3823.0,0.0086
3822.0,0.0085
3821.0,0.0084
3820.0,0.0085
3819.0,0.0085
3818.0,0.0084
3817.0,0.0083
3816.0,0.0083
3815.0,0.0083
3814.0,0.0084
3813.0,0.0084
3812.0,0.0083
3811.0,0.0083
3810.0,0.0084
3809.0,0.0085
3808.0,0.0086
3807.0,0.0086
3806.0,0.0087
3805.0,0.0088
3804.0,0.0088
3803.0,0.0087
3802.0,0.0086
3801.0,0.0085
3800.0,0.0085
3799.0,0.0085
3798.0,0.0084
3797.0,0.0083
3796.0,0.0082
3795.0,0.0083
3794.0,0.0083
3793.0,0.0082
3792.0,0.0082
3791.0,0.0082
3790.0,0.0082
3789.0,0.0082
3788.0,0.0083
3787.0,0.0083
3786.0,0.0083
3785.0,0.0083
3784.0,0.0083
3783.0,0.0083
3782.0,0.0084
3781.0,0.0084
3780.0,0.0084
3779.0,0.0085
3778.0,0.0084
3777.0,0.0083
3776.0,0.0082
3775.0,0.0082
3774.0,0.0082
3773.0,0.0083
3772.0,0.0084
3771.0,0.0085
3770.0,0.0085
3769.0,0.0086
3768.0,0.0086
3767.0,0.0086
3766.0,0.0085
3765.0,0.0084
3764.0,0.0085
3763.0,0.0085
3762.0,0.0085
3761.0,0.0085
3760.0,0.0086
3759.0,0.0086
3758.0,0.0086
3757.0,0.0085
3756.0,0.0085
3755.0,0.0085
3754.0,0.0084
3753.0,0.0082
3752.0,0.0081
3751.0,0.0082
3750.0,0.0083
3749.0,0.0084
3748.0,0.0084
3747.0,0.0085
3746.0,0.0084
3745.0,0.0083
3744.0,0.0083
3743.0,0.0083
3742.0,0.0083
3741.0,0.0083
3740.0,0.0083
3739.0,0.0083
3738.0,0.0083
3737.0,0.0081
3736.0,0.0079
3735.0,0.0078
3734.0,0.0077
3733.0,0.0077
3732.0,0.0077
3731.0,0.0076
3730.0,0.0076
3729.0,0.0076
3728.0,0.0076
3727.0,0.0077
3726.0,0.0078
3725.0,0.0079
3724.0,0.0079
3723.0,0.008
3722.0,0.008
3721.0,0.0081
3720.0,0.0081
3719.0,0.0081
3718.0,0.0082
3717.0,0.0082
3716.0,0.0083
3715.0,0.0083
3714.0,0.0083
3713.0,0.0081
3712.0,0.008
3711.0,0.008
3710.0,0.0081
3709.0,0.0081
3708.0,0.0081
3707.0,0.008
3706.0,0.008
3705.0,0.008
3704.0,0.0081
3703.0,0.0081
3702.0,0.0082
3701.0,0.0082
3700.0,0.0082
3699.0,0.0083
3698.0,0.0083
3697.0,0.0083
3696.0,0.0083
3695.0,0.0083
3694.0,0.0083
3693.0,0.0084
3692.0,0.0085
3691.0,0.0086
3690.0,0.0086
3689.0,0.0085
3688.0,0.0085
3687.0,0.0085
3686.0,0.0085
3685.0,0.0085
3684.0,0.0085
3683.0,0.0085
3682.0,0.0086
3681.0,0.0085
3680.0,0.0086
3679.0,0.0087
3678.0,0.0089
3677.0,0.0089
3676.0,0.0089
3675.0,0.0089
3674.0,0.0089
3673.0,0.0089
3672.0,0.0089
3671.0,0.0089
3670.0,0.0089
3669.0,0.009
3668.0,0.0089
3667.0,0.0088
3666.0,0.0087
3665.0,0.0087
3664.0,0.0086
3663.0,0.0086
3662.0,0.0086
3661.0,0.0086
3660.0,0.0087
3659.0,0.0089
3658.0,0.0089
3657.0,0.0089
3656.0,0.0088
3655.0,0.0087
3654.0,0.0087
3653.0,0.0088
3652.0,0.009
3651.0,0.0091
3650.0,0.0091
3649.0,0.0092
3648.0,0.0092
3647.0,0.0091
3646.0,0.0091
3645.0,0.009
3644.0,0.009
3643.0,0.0089
3642.0,0.0089
3641.0,0.0088
3640.0,0.0088
3639.0,0.0088
3638.0,0.0087
3637.0,0.0087
3636.0,0.0086
3635.0,0.0085
3634.0,0.0084
3633.0,0.0083
3632.0,0.0083
3631.0,0.0083
3630.0,0.0084
3629.0,0.0085
3628.0,0.0086
3627.0,0.0086
3626.0,0.0086
3625.0,0.0085
3624.0,0.0085
3623.0,0.0085
3622.0,0.0086
3621.0,0.0088
3620.0,0.009
3619.0,0.0092
3618.0,0.0093
3617.0,0.0093
3616.0,0.0093
3615.0,0.0093
3614.0,0.0093
3613.0,0.0093
3612.0,0.0092
3611.0,0.0091
3610.0,0.0089
3609.0,0.0089
3608.0,0.0089
3607.0,0.009
3606.0,0.009
3605.0,0.009
3604.0,0.0091
3603.0,0.0091
3602.0,0.0092
3601.0,0.0093
3600.0,0.0093
3599.0,0.0093
3598.0,0.0092
3597.0,0.0091
3596.0,0.009
3595.0,0.009
3594.0,0.0091
3593.0,0.0091
3592.0,0.0091
3591.0,0.0092
3590.0,0.0092
3589.0,0.0093
3588.0,0.0094
3587.0,0.0095
3586.0,0.0095
3585.0,0.0095
3584.0,0.0094
3583.0,0.0093
3582.0,0.0093
3581.0,0.0094
3580.0,0.0094
3579.0,0.0095
3578.0,0.0097
3577.0,0.0098
3576.0,0.0098
3575.0,0.0098
3574.0,0.0098
3573.0,0.0098
3572.0,0.0098
3571.0,0.0098
3570.0,0.0099
3569.0,0.0099
3568.0,0.0099
3567.0,0.01
3566.0,0.01
3565.0,0.0099
3564.0,0.0099
3563.0,0.0098
3562.0,0.0098
3561.0,0.0098
3560.0,0.0099
3559.0,0.0099
3558.0,0.0099
3557.0,0.0099
3556.0,0.0099
3555.0,0.01
3554.0,0.0101
3553.0,0.0101
3552.0,0.0101
3551.0,0.01
3550.0,0.0099
3549.0,0.0099
3548.0,0.0098
3547.0,0.0098
3546.0,0.0099
3545.0,0.0101
3544.0,0.0103
3543.0,0.0104
3542.0,0.0104
3541.0,0.0104
3540.0,0.0103
3539.0,0.0102
3538.0,0.0101
3537.0,0.01
3536.0,0.01
3535.0,0.01
3534.0,0.01
3533.0,0.0101
3532.0,0.0101
3531.0,0.0102
3530.0,0.0103
3529.0,0.0103
3528.0,0.0104
3527.0,0.0104
3526.0,0.0105
3525.0,0.0105
3524.0,0.0106
3523.0,0.0106
3522.0,0.0106
3521.0,0.0105
3520.0,0.0104
3519.0,0.0103
3518.0,0.0102
3517.0,0.0102
3516.0,0.0102
3515.0,0.0103
3514.0,0.0104
3513.0,0.0106
3512.0,0.0107
3511.0,0.0107
3510.0,0.0107
3509.0,0.0106
3508.0,0.0105
3507.0,0.0105
3506.0,0.0106
3505.0,0.0106
3504.0,0.0106
3503.0,0.0106
3502.0,0.0106
3501.0,0.0106
3500.0,0.0106
3499.0,0.0106
3498.0,0.0106
3497.0,0.0105
3496.0,0.0105
3495.0,0.0105
3494.0,0.0105
3493.0,0.0105
3492.0,0.0105
3491.0,0.0105
3490.0,0.0105
3489.0,0.0105
3488.0,0.0104
3487.0,0.0104
3486.0,0.0105
3485.0,0.0106
3484.0,0.0106
3483.0,0.0106
3482.0,0.0107
3481.0,0.0108
3480.0,0.011
3479.0,0.0111
3478.0,0.0112
3477.0,0.0111
3476.0,0.011
3475.0,0.0108
3474.0,0.0108
3473.0,0.0108
3472.0,0.0109
3471.0,0.0109
3470.0,0.0109
3469.0,0.0109
3468.0,0.0108
3467.0,0.0108
3466.0,0.0108
3465.0,0.0108
3464.0,0.0108
3463.0,0.0108
3462.0,0.0108
3461.0,0.0108
3460.0,0.0108
3459.0,0.0108
3458.0,0.0108
3457.0,0.0108
3456.0,0.0108
3455.0,0.0108
3454.0,0.0108
3453.0,0.0108
3452.0,0.0108
3451.0,0.0109
3450.0,0.0109
3449.0,0.011
3448.0,0.011
3447.0,0.011
3446.0,0.0109
3445.0,0.0109
3444.0,0.0109
3443.0,0.0109
3442.0,0.011
3441.0,0.011
3440.0,0.0111
3439.0,0.0112
3438.0,0.0111
3437.0,0.0111
3436.0,0.0111
3435.0,0.0111
3434.0,0.0111
3433.0,0.0112
3432.0,0.0113
3431.0,0.0114
3430.0,0.0114
3429.0,0.0114
3428.0,0.0113
3427.0,0.0112
3426.0,0.0112
3425.0,0.0111
3424.0,0.0111
3423.0,0.0111
3422.0,0.011
3421.0,0.011
3420.0,0.011
3419.0,0.011
3418.0,0.0109
3417.0,0.0109
3416.0,0.0109
3415.0,0.011
3414.0,0.011
3413.0,0.011
3412.0,0.011
3411.0,0.011
3410.0,0.011
3409.0,0.0111
3408.0,0.0112
3407.0,0.0112
3406.0,0.0111
3405.0,0.0111
3404.0,0.011
3403.0,0.011
3402.0,0.0111
3401.0,0.0112
3400.0,0.0113
3399.0,0.0113
3398.0,0.0113
3397.0,0.0112
3396.0,0.0112
3395.0,0.0111
3394.0,0.0111
3393.0,0.0111
3392.0,0.011
3391.0,0.011
3390.0,0.011
3389.0,0.011
3388.0,0.0111
3387.0,0.0111
3386.0,0.0111
3385.0,0.0111
3384.0,0.0111
3383.0,0.0112
3382.0,0.0112
3381.0,0.0112
3380.0,0.0111
3379.0,0.0111
3378.0,0.0111
3377.0,0.0111
3376.0,0.0111
3375.0,0.0111
3374.0,0.0111
3373.0,0.0111
3372.0,0.0111
3371.0,0.0111
3370.0,0.0111
3369.0,0.0111
3368.0,0.0111
3367.0,0.0111
3366.0,0.0111
3365.0,0.0111
3364.0,0.0111
3363.0,0.0111
3362.0,0.0112
3361.0,0.0112
3360.0,0.0111
3359.0,0.0111
3358.0,0.011
3357.0,0.011
3356.0,0.011
3355.0,0.011
3354.0,0.011
3353.0,0.011
3352.0,0.011
3351.0,0.011
3350.0,0.0111
3349.0,0.0111
3348.0,0.0111
3347.0,0.0111
3346.0,0.0111
3345.0,0.0111
3344.0,0.011
3343.0,0.011
3342.0,0.0109
3341.0,0.0109
3340.0,0.0109
3339.0,0.011
3338.0,0.0111
3337.0,0.0111
3336.0,0.011
3335.0,0.0109
3334.0,0.0108
3333.0,0.0108
3332.0,0.0108
3331.0,0.0109
3330.0,0.0109
3329.0,0.0109
3328.0,0.0108
3327.0,0.0108
3326.0,0.0108
3325.0,0.0108
3324.0,0.0108
3323.0,0.0108
3322.0,0.0108
3321.0,0.0108
3320.0,0.0108
3319.0,0.0108
3318.0,0.0108
3317.0,0.0108
3316.0,0.0108
3315.0,0.0108
3314.0,0.0108
3313.0,0.0108
3312.0,0.0108
3311.0,0.0108
3310.0,0.0108
3309.0,0.0107
3308.0,0.0107
3307.0,0.0107
3306.0,0.0107
3305.0,0.0106
3304.0,0.0107
3303.0,0.0107
3302.0,0.0107
3301.0,0.0108
3300.0,0.0108
3299.0,0.0108
3298.0,0.0108
3297.0,0.0107
3296.0,0.0107
3295.0,0.0106
3294.0,0.0106
3293.0,0.0106
3292.0,0.0106
3291.0,0.0106
3290.0,0.0106
3289.0,0.0106
3288.0,0.0106
3287.0,0.0106
3286.0,0.0106
3285.0,0.0106
3284.0,0.0107
3283.0,0.0107
3282.0,0.0106
3281.0,0.0106
3280.0,0.0105
3279.0,0.0105
3278.0,0.0105
3277.0,0.0105
3276.0,0.0104
3275.0,0.0104
3274.0,0.0104
3273.0,0.0103
3272.0,0.0103
3271.0,0.0103
3270.0,0.0103
3269.0,0.0104
3268.0,0.0104
3267.0,0.0104
3266.0,0.0103
3265.0,0.0103
3264.0,0.0103
3263.0,0.0102
3262.0,0.0102
3261.0,0.0102
3260.0,0.0102
3259.0,0.0103
3258.0,0.0103
3257.0,0.0103
3256.0,0.0103
3255.0,0.0102
3254.0,0.0102
3253.0,0.0102
3252.0,0.0102
3251.0,0.0102
3250.0,0.0102
3249.0,0.0102
3248.0,0.0102
3247.0,0.0102
3246.0,0.0102
3245.0,0.0102
3244.0,0.0101
3243.0,0.0101
3242.0,0.01
3241.0,0.01
3240.0,0.0101
3239.0,0.0101
3238.0,0.0101
3237.0,0.01
3236.0,0.0099
3235.0,0.0099
3234.0,0.0098
3233.0,0.0099
3232.0,0.0099
3231.0,0.0099
3230.0,0.0099
3229.0,0.0099
3228.0,0.0099
3227.0,0.0098
3226.0,0.0098
3225.0,0.0097
3224.0,0.0097
3223.0,0.0097
3222.0,0.0098
3221.0,0.0098
3220.0,0.0098
3219.0,0.0098
3218.0,0.0097
3217.0,0.0096
3216.0,0.0095
3215.0,0.0094
3214.0,0.0094
3213.0,0.0094
3212.0,0.0095
3211.0,0.0096
3210.0,0.0096
3209.0,0.0096
3208.0,0.0096
3207.0,0.0095
3206.0,0.0095
3205.0,0.0096
3204.0,0.0096
3203.0,0.0097
3202.0,0.0097
3201.0,0.0096
3200.0,0.0095
3199.0,0.0094
3198.0,0.0093
3197.0,0.0092
3196.0,0.0093
3195.0,0.0094
3194.0,0.0094
3193.0,0.0094
3192.0,0.0094
3191.0,0.0093
3190.0,0.0092
3189.0,0.0091
3188.0,0.0091
3187.0,0.0091
3186.0,0.0091
3185.0,0.0091
3184.0,0.0091
3183.0,0.0091
3182.0,0.0091
3181.0,0.0091
3180.0,0.009
3179.0,0.009
3178.0,0.0089
3177.0,0.0089
3176.0,0.0088
3175.0,0.0088
3174.0,0.0088
3173.0,0.0088
3172.0,0.0088
3171.0,0.0088
3170.0,0.0088
3169.0,0.0089
3168.0,0.0089
3167.0,0.0089
3166.0,0.0089
3165.0,0.0089
3164.0,0.0088
3163.0,0.0087
3162.0,0.0086
3161.0,0.0086
3160.0,0.0086
3159.0,0.0086
3158.0,0.0085
3157.0,0.0085
3156.0,0.0085
3155.0,0.0086
3154.0,0.0086
3153.0,0.0085
3152.0,0.0085
3151.0,0.0085
3150.0,0.0085
3149.0,0.0085
3148.0,0.0086
3147.0,0.0085
3146.0,0.0085
3145.0,0.0084
3144.0,0.0084
3143.0,0.0083
3142.0,0.0083
3141.0,0.0082
3140.0,0.0082
3139.0,0.0082
3138.0,0.0082
3137.0,0.0082
3136.0,0.0082
3135.0,0.0082
3134.0,0.0082
3133.0,0.0082
3132.0,0.0081
3131.0,0.008
3130.0,0.008
3129.0,0.0079
3128.0,0.0079
3127.0,0.0079
3126.0,0.0079
3125.0,0.0079
3124.0,0.0079
3123.0,0.0079
3122.0,0.0079
3121.0,0.0079
3120.0,0.0079
3119.0,0.0079
3118.0,0.0078
3117.0,0.0077
3116.0,0.0077
3115.0,0.0077
3114.0,0.0077
3113.0,0.0076
3112.0,0.0075
3111.0,0.0074
3110.0,0.0074
3109.0,0.0074
3108.0,0.0075
3107.0,0.0075
3106.0,0.0075
3105.0,0.0075
3104.0,0.0074
3103.0,0.0074
3102.0,0.0073
3101.0,0.0073
3100.0,0.0073
3099.0,0.0072
3098.0,0.0072
3097.0,0.0071
3096.0,0.0071
3095.0,0.0071
3094.0,0.0071
3093.0,0.0071
3092.0,0.0072
3091.0,0.0073
3090.0,0.0073
3089.0,0.0072
3088.0,0.0072
3087.0,0.0071
3086.0,0.0072
3085.0,0.0072
3084.0,0.0072
3083.0,0.0071
3082.0,0.0071
3081.0,0.007
3080.0,0.0069
3079.0,0.0069
3078.0,0.0068
3077.0,0.0068
3076.0,0.0067
3075.0,0.0067
3074.0,0.0067
3073.0,0.0067
3072.0,0.0067
3071.0,0.0067
3070.0,0.0067
3069.0,0.0068
3068.0,0.0068
3067.0,0.0067
3066.0,0.0067
3065.0,0.0066
3064.0,0.0066
3063.0,0.0066
3062.0,0.0066
3061.0,0.0064
3060.0,0.0063
3059.0,0.0062
3058.0,0.0061
3057.0,0.0061
3056.0,0.0061
3055.0,0.0061
3054.0,0.0061
3053.0,0.0061
3052.0,0.0061
3051.0,0.0061
3050.0,0.006
3049.0,0.0059
3048.0,0.0058
3047.0,0.0057
3046.0,0.0056
3045.0,0.0056
3044.0,0.0055
3043.0,0.0055
3042.0,0.0055
3041.0,0.0055
3040.0,0.0055
3039.0,0.0055
3038.0,0.0055
3037.0,0.0055
3036.0,0.0056
3035.0,0.0055
3034.0,0.0055
3033.0,0.0054
3032.0,0.0054
3031.0,0.0053
3030.0,0.0052
3029.0,0.0051
3028.0,0.005
3027.0,0.005
3026.0,0.0049
3025.0,0.0048
3024.0,0.0048
3023.0,0.0047
3022.0,0.0047
3021.0,0.0047
3020.0,0.0047
3019.0,0.0046
3018.0,0.0046
3017.0,0.0045
3016.0,0.0045
3015.0,0.0044
3014.0,0.0042
3013.0,0.0041
3012.0,0.004
3011.0,0.0039
3010.0,0.0038
3009.0,0.0038
3008.0,0.0038
3007.0,0.0037
3006.0,0.0036
3005.0,0.0035
3004.0,0.0034
3003.0,0.0034
3002.0,0.0033
3001.0,0.0033
3000.0,0.0032
2999.0,0.0031
2998.0,0.003
2997.0,0.003
2996.0,0.003
2995.0,0.003
2994.0,0.0029
2993.0,0.0027
2992.0,0.0026
2991.0,0.0025
2990.0,0.0024
2989.0,0.0024
2988.0,0.0023
2987.0,0.0023
2986.0,0.0022
2985.0,0.0021
2984.0,0.0021
2983.0,0.0021
2982.0,0.002
2981.0,0.002
2980.0,0.0019
2979.0,0.0018
2978.0,0.0018
2977.0,0.0018
2976.0,0.0018
2975.0,0.0018
2974.0,0.0018
2973.0,0.0019
2972.0,0.0019
2971.0,0.002
2970.0,0.0021
2969.0,0.0022
2968.0,0.0023
2967.0,0.0024
2966.0,0.0025
2965.0,0.0027
2964.0,0.0028
2963.0,0.0031
2962.0,0.0033
2961.0,0.0036
2960.0,0.0037
2959.0,0.0038
2958.0,0.004
2957.0,0.0041
2956.0,0.0044
2955.0,0.0047
2954.0,0.0049
2953.0,0.0052
2952.0,0.0054
2951.0,0.0057
2950.0,0.0059
2949.0,0.0063
2948.0,0.0068
2947.0,0.0075
2946.0,0.0083
2945.0,0.0093
2944.0,0.0104
2943.0,0.0116
2942.0,0.0131
2941.0,0.0148
2940.0,0.0167
2939.0,0.0188
2938.0,0.0211
2937.0,0.0235
2936.0,0.0262
2935.0,0.0291
2934.0,0.0323
2933.0,0.0358
2932.0,0.0397
2931.0,0.0439
2930.0,0.0486
2929.0,0.0538
2928.0,0.0595
2927.0,0.066
2926.0,0.0733
2925.0,0.0816
2924.0,0.091
2923.0,0.1016
2922.0,0.1133
2921.0,0.1259
2920.0,0.1391
2919.0,0.1523
2918.0,0.1644
2917.0,0.1739
2916.0,0.1793
2915.0,0.1798
2914.0,0.1756
2913.0,0.168
2912.0,0.1584
2911.0,0.1486
2910.0,0.1393
2909.0,0.131
2908.0,0.1237
2907.0,0.1175
2906.0,0.1122
2905.0,0.1076
2904.0,0.1037
2903.0,0.1002
2902.0,0.0972
2901.0,0.0946
2900.0,0.0923
2899.0,0.0901
2898.0,0.0882
2897.0,0.0863
2896.0,0.0845
2895.0,0.0826
2894.0,0.0807
2893.0,0.0788
2892.0,0.0769
2891.0,0.0751
2890.0,0.0732
2889.0,0.0713
2888.0,0.0693
2887.0,0.0673
2886.0,0.0653
2885.0,0.0632
2884.0,0.0612
2883.0,0.0591
2882.0,0.057
2881.0,0.0548
2880.0,0.0526
2879.0,0.0503
2878.0,0.0481
2877.0,0.046
2876.0,0.044
2875.0,0.0421
2874.0,0.0403
2873.0,0.0387
2872.0,0.0372
2871.0,0.0358
2870.0,0.0346
2869.0,0.0336
2868.0,0.0327
2867.0,0.032
2866.0,0.0316
2865.0,0.0315
2864.0,0.0319
2863.0,0.0326
2862.0,0.0339
2861.0,0.0358
2860.0,0.0386
2859.0,0.0423
2858.0,0.0472
2857.0,0.0534
2856.0,0.0613
2855.0,0.0714
2854.0,0.0841
2853.0,0.0994
2852.0,0.1172
2851.0,0.136
2850.0,0.1533
2849.0,0.1658
2848.0,0.1708
2847.0,0.168
2846.0,0.1589
2845.0,0.1465
2844.0,0.1334
2843.0,0.1211
2842.0,0.1103
2841.0,0.1011
2840.0,0.0933
2839.0,0.0867
2838.0,0.0811
2837.0,0.0764
2836.0,0.0723
2835.0,0.0689
2834.0,0.0658
2833.0,0.0632
2832.0,0.0608
2831.0,0.0587
2830.0,0.0568
2829.0,0.055
2828.0,0.0534
2827.0,0.0519
2826.0,0.0506
2825.0,0.0494
2824.0,0.0484
2823.0,0.0474
2822.0,0.0464
2821.0,0.0455
2820.0,0.0447
2819.0,0.0439
2818.0,0.0431
2817.0,0.0425
2816.0,0.0418
2815.0,0.0412
2814.0,0.0407
2813.0,0.0401
2812.0,0.0396
2811.0,0.0391
2810.0,0.0386
2809.0,0.0382
2808.0,0.0378
2807.0,0.0373
2806.0,0.0369
2805.0,0.0365
2804.0,0.0361
2803.0,0.0357
2802.0,0.0354
2801.0,0.0351
2800.0,0.0348
2799.0,0.0345
2798.0,0.0343
2797.0,0.034
2796.0,0.0337
2795.0,0.0334
2794.0,0.033
2793.0,0.0327
2792.0,0.0325
2791.0,0.0322
2790.0,0.0319
2789.0,0.0317
2788.0,0.0314
2787.0,0.0312
2786.0,0.031
2785.0,0.0308
2784.0,0.0306
2783.0,0.0303
2782.0,0.0301
2781.0,0.0299
2780.0,0.0297
2779.0,0.0295
2778.0,0.0293
2777.0,0.0291
2776.0,0.029
2775.0,0.0288
2774.0,0.0286
2773.0,0.0284
2772.0,0.0283
2771.0,0.0282
2770.0,0.028
2769.0,0.0279
2768.0,0.0278
2767.0,0.0276
2766.0,0.0275
2765.0,0.0273
2764.0,0.0272
2763.0,0.027
2762.0,0.0269
2761.0,0.0268
2760.0,0.0267
2759.0,0.0266
2758.0,0.0265
2757.0,0.0263
2756.0,0.0262
2755.0,0.0261
2754.0,0.026
2753.0,0.026
2752.0,0.026
2751.0,0.0259
2750.0,0.0258
2749.0,0.0257
2748.0,0.0256
2747.0,0.0254
2746.0,0.0254
2745.0,0.0253
2744.0,0.0252
2743.0,0.0252
2742.0,0.025
2741.0,0.0249
2740.0,0.0248
2739.0,0.0248
2738.0,0.0247
2737.0,0.0247
2736.0,0.0246
2735.0,0.0246
2734.0,0.0246
2733.0,0.0245
2732.0,0.0245
2731.0,0.0244
2730.0,0.0243
2729.0,0.0242
2728.0,0.0241
2727.0,0.024
2726.0,0.0239
2725.0,0.0239
2724.0,0.0239
2723.0,0.0239
2722.0,0.0239
2721.0,0.0238
2720.0,0.0237
2719.0,0.0235
2718.0,0.0234
2717.0,0.0234
2716.0,0.0233
2715.0,0.0234
2714.0,0.0234
2713.0,0.0233
2712.0,0.0232
2711.0,0.0231
2710.0,0.0231
2709.0,0.023
2708.0,0.023
2707.0,0.023
2706.0,0.023
2705.0,0.0229
2704.0,0.0229
2703.0,0.0229
2702.0,0.0228
2701.0,0.0228
2700.0,0.0228
2699.0,0.0227
2698.0,0.0225
2697.0,0.0225
2696.0,0.0224
2695.0,0.0223
2694.0,0.0223
2693.0,0.0222
2692.0,0.0221
2691.0,0.0221
2690.0,0.022
2689.0,0.0219
2688.0,0.0219
2687.0,0.0219
2686.0,0.0219
2685.0,0.0219
2684.0,0.0219
2683.0,0.0218
2682.0,0.0218
2681.0,0.0218
2680.0,0.0217
2679.0,0.0217
2678.0,0.0217
2677.0,0.0217
2676.0,0.0217
2675.0,0.0217
2674.0,0.0217
2673.0,0.0216
2672.0,0.0216
2671.0,0.0216
2670.0,0.0217
2669.0,0.0217
2668.0,0.0217
2667.0,0.0217
2666.0,0.0217
2665.0,0.0217
2664.0,0.0218
2663.0,0.0219
2662.0,0.0219
2661.0,0.0219
2660.0,0.0219
2659.0,0.0218
2658.0,0.0217
2657.0,0.0217
2656.0,0.0217
2655.0,0.0217
2654.0,0.0217
2653.0,0.0217
2652.0,0.0217
2651.0,0.0217
2650.0,0.0216
2649.0,0.0216
2648.0,0.0215
2647.0,0.0214
2646.0,0.0214
2645.0,0.0214
2644.0,0.0214
2643.0,0.0214
2642.0,0.0214
2641.0,0.0214
2640.0,0.0214
2639.0,0.0214
2638.0,0.0214
2637.0,0.0215
2636.0,0.0215
2635.0,0.0215
2634.0,0.0215
2633.0,0.0214
2632.0,0.0213
2631.0,0.0213
2630.0,0.0213
2629.0,0.0212
2628.0,0.0212
2627.0,0.0212
2626.0,0.0212
2625.0,0.0211
2624.0,0.0211
2623.0,0.021
2622.0,0.021
2621.0,0.0209
2620.0,0.0208
2619.0,0.0207
2618.0,0.0207
2617.0,0.0206
2616.0,0.0206
2615.0,0.0206
2614.0,0.0206
2613.0,0.0207
2612.0,0.0207
2611.0,0.0206
2610.0,0.0206
2609.0,0.0205
2608.0,0.0205
2607.0,0.0205
2606.0,0.0205
2605.0,0.0205
2604.0,0.0204
2603.0,0.0203
2602.0,0.0203
2601.0,0.0202
2600.0,0.0202
2599.0,0.0202
2598.0,0.0201
2597.0,0.0201
2596.0,0.0201
2595.0,0.0201
2594.0,0.02
2593.0,0.02
2592.0,0.02
2591.0,0.02
2590.0,0.0199
2589.0,0.0199
2588.0,0.0198
2587.0,0.0198
2586.0,0.0197
2585.0,0.0197
2584.0,0.0197
2583.0,0.0197
2582.0,0.0197
2581.0,0.0197
2580.0,0.0197
2579.0,0.0197
2578.0,0.0196
2577.0,0.0196
2576.0,0.0196
2575.0,0.0196
2574.0,0.0195
2573.0,0.0194
2572.0,0.0194
2571.0,0.0193
2570.0,0.0194
2569.0,0.0194
2568.0,0.0194
2567.0,0.0194
2566.0,0.0193
2565.0,0.0192
2564.0,0.0191
2563.0,0.019
2562.0,0.019
2561.0,0.019
2560.0,0.0191
2559.0,0.0191
2558.0,0.0191
2557.0,0.0191
2556.0,0.0191
2555.0,0.0191
2554.0,0.0191
2553.0,0.0192
2552.0,0.0192
2551.0,0.0192
2550.0,0.0192
2549.0,0.0191
2548.0,0.0191
2547.0,0.0191
2546.0,0.019
2545.0,0.0189
2544.0,0.0189
2543.0,0.0188
2542.0,0.0188
2541.0,0.0187
2540.0,0.0187
2539.0,0.0187
2538.0,0.0187
2537.0,0.0187
2536.0,0.0187
2535.0,0.0187
2534.0,0.0187
2533.0,0.0187
2532.0,0.0187
2531.0,0.0186
2530.0,0.0186
2529.0,0.0187
2528.0,0.0186
2527.0,0.0186
2526.0,0.0186
2525.0,0.0186
2524.0,0.0186
2523.0,0.0186
2522.0,0.0186
2521.0,0.0186
2520.0,0.0186
2519.0,0.0185
2518.0,0.0185
2517.0,0.0184
2516.0,0.0183
2515.0,0.0183
2514.0,0.0184
2513.0,0.0184
2512.0,0.0184
2511.0,0.0184
2510.0,0.0183
2509.0,0.0183
2508.0,0.0183
2507.0,0.0183
2506.0,0.0183
2505.0,0.0183
2504.0,0.0184
2503.0,0.0184
2502.0,0.0184
2501.0,0.0183
2500.0,0.0183
2499.0,0.0182
2498.0,0.0182
2497.0,0.0182
2496.0,0.0183
2495.0,0.0183
2494.0,0.0183
2493.0,0.0183
2492.0,0.0182
2491.0,0.0182
2490.0,0.0181
2489.0,0.018
2488.0,0.018
2487.0,0.0179
2486.0,0.018
2485.0,0.018
2484.0,0.0181
2483.0,0.0181
2482.0,0.0181
2481.0,0.0182
2480.0,0.0182
2479.0,0.0182
2478.0,0.0181
2477.0,0.018
2476.0,0.018
2475.0,0.018
2474.0,0.018
2473.0,0.018
2472.0,0.018
2471.0,0.018
2470.0,0.018
2469.0,0.018
2468.0,0.018
2467.0,0.0179
2466.0,0.0179
2465.0,0.0179
2464.0,0.0179
2463.0,0.0178
2462.0,0.0178
2461.0,0.0178
2460.0,0.0179
2459.0,0.0179
2458.0,0.018
2457.0,0.0179
2456.0,0.0179
2455.0,0.0179
2454.0,0.0179
2453.0,0.0179
2452.0,0.0179
2451.0,0.0178
2450.0,0.0178
2449.0,0.0178
2448.0,0.0177
2447.0,0.0177
2446.0,0.0177
2445.0,0.0177
2444.0,0.0177
2443.0,0.0177
2442.0,0.0177
2441.0,0.0177
2440.0,0.0177
2439.0,0.0177
2438.0,0.0177
2437.0,0.0177
2436.0,0.0176
2435.0,0.0176
2434.0,0.0176
2433.0,0.0176
2432.0,0.0176
2431.0,0.0176
2430.0,0.0175
2429.0,0.0175
2428.0,0.0175
2427.0,0.0175
2426.0,0.0176
2425.0,0.0176
2424.0,0.0176
2423.0,0.0176
2422.0,0.0176
2421.0,0.0176
2420.0,0.0176
2419.0,0.0176
2418.0,0.0176
2417.0,0.0175
2416.0,0.0175
2415.0,0.0175
2414.0,0.0175
2413.0,0.0175
2412.0,0.0175
2411.0,0.0175
2410.0,0.0175
2409.0,0.0176
2408.0,0.0177
2407.0,0.0177
2406.0,0.0176
2405.0,0.0176
2404.0,0.0175
2403.0,0.0175
2402.0,0.0175
2401.0,0.0175
2400.0,0.0175
2399.0,0.0175
2398.0,0.0175
2397.0,0.0175
2396.0,0.0175
2395.0,0.0175
2394.0,0.0174
2393.0,0.0174
2392.0,0.0173
2391.0,0.0172
2390.0,0.0172
2389.0,0.0171
2388.0,0.017
2387.0,0.0169
2386.0,0.0167
2385.0,0.0165
2384.0,0.0164
2383.0,0.0162
2382.0,0.0161
2381.0,0.0161
2380.0,0.016
2379.0,0.016
2378.0,0.0159
2377.0,0.0158
2376.0,0.0156
2375.0,0.0153
2374.0,0.0149
2373.0,0.0147
2372.0,0.0148
2371.0,0.015
2370.0,0.0154
2369.0,0.016
2368.0,0.0164
2367.0,0.0161
2366.0,0.015
2365.0,0.0137
2364.0,0.0135
2363.0,0.0144
2362.0,0.0157
2361.0,0.0162
2360.0,0.0151
2359.0,0.0131
2358.0,0.0115
2357.0,0.0109
2356.0,0.011
2355.0,0.0116
2354.0,0.0127
2353.0,0.0139
2352.0,0.0146
2351.0,0.0145
2350.0,0.0141
2349.0,0.0139
2348.0,0.0138
2347.0,0.0139
2346.0,0.0141
2345.0,0.0144
2344.0,0.0146
2343.0,0.0144
2342.0,0.0143
2341.0,0.0145
2340.0,0.0146
2339.0,0.0144
2338.0,0.0139
2337.0,0.0136
2336.0,0.0133
2335.0,0.0131
2334.0,0.0132
2333.0,0.0138
2332.0,0.0144
2331.0,0.0146
2330.0,0.0143
2329.0,0.0139
2328.0,0.0135
2327.0,0.0135
2326.0,0.0138
2325.0,0.0143
2324.0,0.0147
2323.0,0.0149
2322.0,0.015
2321.0,0.0152
2320.0,0.0155
2319.0,0.0157
2318.0,0.0158
2317.0,0.0158
2316.0,0.0158
2315.0,0.0157
2314.0,0.0155
2313.0,0.0153
2312.0,0.0151
2311.0,0.0149
2310.0,0.0148
2309.0,0.0149
2308.0,0.0152
2307.0,0.0154
2306.0,0.0157
2305.0,0.0158
2304.0,0.0159
2303.0,0.0159
2302.0,0.0158
2301.0,0.0158
2300.0,0.0159
2299.0,0.0159
2298.0,0.016
2297.0,0.016
2296.0,0.0161
2295.0,0.0162
2294.0,0.0163
2293.0,0.0164
2292.0,0.0165
2291.0,0.0166
2290.0,0.0166
2289.0,0.0166
2288.0,0.0167
2287.0,0.0168
2286.0,0.0169
2285.0,0.017
2284.0,0.017
2283.0,0.017
2282.0,0.017
2281.0,0.017
2280.0,0.0169
2279.0,0.0169
2278.0,0.0169
2277.0,0.0169
2276.0,0.0168
2275.0,0.0168
2274.0,0.0167
2273.0,0.0168
2272.0,0.0168
2271.0,0.0169
2270.0,0.017
2269.0,0.017
2268.0,0.017
2267.0,0.017
2266.0,0.0169
2265.0,0.0169
2264.0,0.0169
2263.0,0.0169
2262.0,0.0169
2261.0,0.0169
2260.0,0.0169
2259.0,0.017
2258.0,0.017
2257.0,0.017
2256.0,0.017
2255.0,0.017
2254.0,0.017
2253.0,0.0171
2252.0,0.0171
2251.0,0.0171
2250.0,0.0171
2249.0,0.0171
2248.0,0.0171
2247.0,0.0171
2246.0,0.0171
2245.0,0.0171
2244.0,0.0172
2243.0,0.0172
2242.0,0.0172
2241.0,0.0172
2240.0,0.0172
2239.0,0.0173
2238.0,0.0173
2237.0,0.0172
2236.0,0.0172
2235.0,0.0172
2234.0,0.0172
2233.0,0.0172
2232.0,0.0172
2231.0,0.0171
2230.0,0.0171
2229.0,0.0171
2228.0,0.0171
2227.0,0.0171
2226.0,0.0171
2225.0,0.0172
2224.0,0.0172
2223.0,0.0172
2222.0,0.0172
2221.0,0.0172
2220.0,0.0172
2219.0,0.0172
2218.0,0.0172
2217.0,0.0172
2216.0,0.0172
2215.0,0.0172
2214.0,0.0172
2213.0,0.0172
2212.0,0.0172
2211.0,0.0172
2210.0,0.0172
2209.0,0.0172
2208.0,0.0172
2207.0,0.0172
2206.0,0.0173
2205.0,0.0173
2204.0,0.0173
2203.0,0.0174
2202.0,0.0174
2201.0,0.0174
2200.0,0.0173
2199.0,0.0173
2198.0,0.0172
2197.0,0.0172
2196.0,0.0173
2195.0,0.0173
2194.0,0.0173
2193.0,0.0172
2192.0,0.0172
2191.0,0.0171
2190.0,0.0171
2189.0,0.0171
2188.0,0.0172
2187.0,0.0172
2186.0,0.0172
2185.0,0.0172
2184.0,0.0173
2183.0,0.0173
2182.0,0.0173
2181.0,0.0173
2180.0,0.0173
2179.0,0.0173
2178.0,0.0173
2177.0,0.0173
2176.0,0.0173
2175.0,0.0173
2174.0,0.0173
2173.0,0.0173
2172.0,0.0173
2171.0,0.0173
2170.0,0.0173
2169.0,0.0173
2168.0,0.0173
2167.0,0.0172
2166.0,0.0172
2165.0,0.0172
2164.0,0.0173
2163.0,0.0174
2162.0,0.0174
2161.0,0.0174
2160.0,0.0174
2159.0,0.0174
2158.0,0.0173
2157.0,0.0173
2156.0,0.0172
2155.0,0.0172
2154.0,0.0172
2153.0,0.0172
2152.0,0.0172
2151.0,0.0172
2150.0,0.0172
2149.0,0.0172
2148.0,0.0172
2147.0,0.0172
2146.0,0.0173
2145.0,0.0174
2144.0,0.0174
2143.0,0.0174
2142.0,0.0174
2141.0,0.0174
2140.0,0.0174
2139.0,0.0174
2138.0,0.0174
2137.0,0.0173
2136.0,0.0173
2135.0,0.0173
2134.0,0.0173
2133.0,0.0173
2132.0,0.0173
2131.0,0.0173
2130.0,0.0173
2129.0,0.0173
2128.0,0.0173
2127.0,0.0173
2126.0,0.0173
2125.0,0.0173
2124.0,0.0173
2123.0,0.0173
2122.0,0.0173
2121.0,0.0173
2120.0,0.0173
2119.0,0.0173
2118.0,0.0172
2117.0,0.0172
2116.0,0.0172
2115.0,0.0172
2114.0,0.0172
2113.0,0.0172
2112.0,0.0172
2111.0,0.0172
2110.0,0.0173
2109.0,0.0173
2108.0,0.0173
2107.0,0.0173
2106.0,0.0172
2105.0,0.0172
2104.0,0.0172
2103.0,0.0172
2102.0,0.0172
2101.0,0.0172
2100.0,0.0172
2099.0,0.0173
2098.0,0.0173
2097.0,0.0173
2096.0,0.0173
2095.0,0.0173
2094.0,0.0173
2093.0,0.0173
2092.0,0.0173
2091.0,0.0173
2090.0,0.0173
2089.0,0.0173
2088.0,0.0173
2087.0,0.0173
2086.0,0.0173
2085.0,0.0173
2084.0,0.0173
2083.0,0.0173
2082.0,0.0172
2081.0,0.0172
2080.0,0.0172
2079.0,0.0172
2078.0,0.0173
2077.0,0.0174
2076.0,0.0175
2075.0,0.0175
2074.0,0.0175
2073.0,0.0174
2072.0,0.0174
2071.0,0.0174
2070.0,0.0174
2069.0,0.0174
2068.0,0.0174
2067.0,0.0174
2066.0,0.0174
2065.0,0.0174
2064.0,0.0174
2063.0,0.0174
2062.0,0.0174
2061.0,0.0174
2060.0,0.0174
2059.0,0.0174
2058.0,0.0173
2057.0,0.0173
2056.0,0.0173
2055.0,0.0173
2054.0,0.0173
2053.0,0.0174
2052.0,0.0174
2051.0,0.0173
2050.0,0.0173
2049.0,0.0173
2048.0,0.0173
2047.0,0.0174
2046.0,0.0174
2045.0,0.0174
2044.0,0.0174
2043.0,0.0173
2042.0,0.0173
2041.0,0.0174
2040.0,0.0174
2039.0,0.0175
2038.0,0.0175
2037.0,0.0175
2036.0,0.0175
2035.0,0.0175
2034.0,0.0175
2033.0,0.0175
2032.0,0.0175
2031.0,0.0175
2030.0,0.0175
2029.0,0.0176
2028.0,0.0176
2027.0,0.0176
2026.0,0.0176
2025.0,0.0176
2024.0,0.0176
2023.0,0.0176
2022.0,0.0176
2021.0,0.0176
2020.0,0.0176
2019.0,0.0176
2018.0,0.0176
2017.0,0.0176
2016.0,0.0176
2015.0,0.0176
2014.0,0.0176
2013.0,0.0176
2012.0,0.0176
2011.0,0.0176
2010.0,0.0175
2009.0,0.0175
2008.0,0.0175
2007.0,0.0175
2006.0,0.0175
2005.0,0.0175
2004.0,0.0174
2003.0,0.0174
2002.0,0.0174
2001.0,0.0174
2000.0,0.0174
1999.0,0.0174
1998.0,0.0174
1997.0,0.0174
1996.0,0.0174
1995.0,0.0174
1994.0,0.0174
1993.0,0.0174
1992.0,0.0174
1991.0,0.0174
1990.0,0.0174
1989.0,0.0173
1988.0,0.0173
1987.0,0.0174
1986.0,0.0174
1985.0,0.0174
1984.0,0.0174
1983.0,0.0174
1982.0,0.0174
1981.0,0.0174
1980.0,0.0174
1979.0,0.0175
1978.0,0.0175
1977.0,0.0175
1976.0,0.0175
1975.0,0.0175
1974.0,0.0175
1973.0,0.0174
1972.0,0.0174
1971.0,0.0174
1970.0,0.0174
1969.0,0.0175
1968.0,0.0175
1967.0,0.0175
1966.0,0.0175
1965.0,0.0175
1964.0,0.0175
1963.0,0.0175
1962.0,0.0175
1961.0,0.0175
1960.0,0.0175
1959.0,0.0175
1958.0,0.0175
1957.0,0.0175
1956.0,0.0175
1955.0,0.0174
1954.0,0.0174
1953.0,0.0174
1952.0,0.0175
1951.0,0.0175
1950.0,0.0175
1949.0,0.0175
1948.0,0.0175
1947.0,0.0175
1946.0,0.0175
1945.0,0.0175
1944.0,0.0175
1943.0,0.0175
1942.0,0.0175
1941.0,0.0175
1940.0,0.0174
1939.0,0.0174
1938.0,0.0174
1937.0,0.0174
1936.0,0.0175
1935.0,0.0175
1934.0,0.0175
1933.0,0.0175
1932.0,0.0175
1931.0,0.0175
1930.0,0.0175
1929.0,0.0175
1928.0,0.0174
1927.0,0.0174
1926.0,0.0175
1925.0,0.0175
1924.0,0.0176
1923.0,0.0176
1922.0,0.0177
1921.0,0.0177
1920.0,0.0176
1919.0,0.0176
1918.0,0.0176
1917.0,0.0176
1916.0,0.0176
1915.0,0.0176
1914.0,0.0176
1913.0,0.0176
1912.0,0.0176
1911.0,0.0176
1910.0,0.0175
1909.0,0.0175
1908.0,0.0176
1907.0,0.0176
1906.0,0.0176
1905.0,0.0176
1904.0,0.0177
1903.0,0.0177
1902.0,0.0177
1901.0,0.0178
1900.0,0.0178
1899.0,0.0179
1898.0,0.0179
1897.0,0.0179
1896.0,0.0179
1895.0,0.0179
1894.0,0.0178
1893.0,0.0178
1892.0,0.0178
1891.0,0.0178
1890.0,0.0178
1889.0,0.0177
1888.0,0.0177
1887.0,0.0177
1886.0,0.0177
1885.0,0.0177
1884.0,0.0177
1883.0,0.0177
1882.0,0.0177
1881.0,0.0177
1880.0,0.0177
1879.0,0.0176
1878.0,0.0176
1877.0,0.0176
1876.0,0.0176
1875.0,0.0175
1874.0,0.0175
1873.0,0.0176
1872.0,0.0176
1871.0,0.0176
1870.0,0.0176
1869.0,0.0177
1868.0,0.0177
1867.0,0.0177
1866.0,0.0177
1865.0,0.0176
1864.0,0.0176
1863.0,0.0176
1862.0,0.0176
1861.0,0.0176
1860.0,0.0176
1859.0,0.0176
1858.0,0.0176
1857.0,0.0176
1856.0,0.0176
1855.0,0.0175
1854.0,0.0175
1853.0,0.0175
1852.0,0.0175
1851.0,0.0175
1850.0,0.0174
1849.0,0.0174
1848.0,0.0174
1847.0,0.0174
1846.0,0.0174
1845.0,0.0174
1844.0,0.0175
1843.0,0.0175
1842.0,0.0175
1841.0,0.0175
1840.0,0.0174
1839.0,0.0174
1838.0,0.0174
1837.0,0.0174
1836.0,0.0175
1835.0,0.0175
1834.0,0.0176
1833.0,0.0176
1832.0,0.0176
1831.0,0.0175
1830.0,0.0175
1829.0,0.0175
1828.0,0.0175
1827.0,0.0175
1826.0,0.0176
1825.0,0.0176
1824.0,0.0176
1823.0,0.0176
1822.0,0.0176
1821.0,0.0175
1820.0,0.0175
1819.0,0.0175
1818.0,0.0175
1817.0,0.0175
1816.0,0.0175
1815.0,0.0175
1814.0,0.0175
1813.0,0.0176
1812.0,0.0176
1811.0,0.0176
1810.0,0.0176
1809.0,0.0176
1808.0,0.0176
1807.0,0.0176
1806.0,0.0176
1805.0,0.0177
1804.0,0.0177
1803.0,0.0176
1802.0,0.0176
1801.0,0.0177
1800.0,0.0177
1799.0,0.0176
1798.0,0.0176
1797.0,0.0175
1796.0,0.0175
1795.0,0.0176
1794.0,0.0176
1793.0,0.0176
1792.0,0.0176
1791.0,0.0176
1790.0,0.0175
1789.0,0.0175
1788.0,0.0175
1787.0,0.0175
1786.0,0.0176
1785.0,0.0176
1784.0,0.0176
1783.0,0.0176
1782.0,0.0176
1781.0,0.0176
1780.0,0.0177
1779.0,0.0177
1778.0,0.0176
1777.0,0.0176
1776.0,0.0176
1775.0,0.0176
1774.0,0.0176
1773.0,0.0176
1772.0,0.0177
1771.0,0.0177
1770.0,0.0177
1769.0,0.0177
1768.0,0.0176
1767.0,0.0176
1766.0,0.0176
1765.0,0.0176
1764.0,0.0177
1763.0,0.0177
1762.0,0.0177
1761.0,0.0177
1760.0,0.0178
1759.0,0.0178
1758.0,0.0179
1757.0,0.0179
1756.0,0.0179
1755.0,0.0179
1754.0,0.018
1753.0,0.018
1752.0,0.0181
1751.0,0.0182
1750.0,0.0183
1749.0,0.0184
1748.0,0.0185
1747.0,0.0186
1746.0,0.0185
1745.0,0.0185
1744.0,0.0185
1743.0,0.0186
1742.0,0.0185
1741.0,0.0186
1740.0,0.0186
1739.0,0.0186
1738.0,0.0186
1737.0,0.0186
1736.0,0.0185
1735.0,0.0184
1734.0,0.0183
1733.0,0.0183
1732.0,0.0183
1731.0,0.0183
1730.0,0.0184
1729.0,0.0184
1728.0,0.0184
1727.0,0.0184
1726.0,0.0184
1725.0,0.0184
1724.0,0.0184
1723.0,0.0184
1722.0,0.0184
1721.0,0.0184
1720.0,0.0183
1719.0,0.0182
1718.0,0.018
1717.0,0.018
1716.0,0.0181
1715.0,0.0183
1714.0,0.0184
1713.0,0.0184
1712.0,0.0184
1711.0,0.0184
1710.0,0.0185
1709.0,0.0185
1708.0,0.0185
1707.0,0.0185
1706.0,0.0184
1705.0,0.0184
1704.0,0.0184
1703.0,0.0184
1702.0,0.0184
1701.0,0.0183
1700.0,0.0183
1699.0,0.0183
1698.0,0.0183
1697.0,0.0185
1696.0,0.0186
1695.0,0.0185
1694.0,0.0185
1693.0,0.0186
1692.0,0.0186
1691.0,0.0187
1690.0,0.0187
1689.0,0.0187
1688.0,0.0188
1687.0,0.0188
1686.0,0.0188
1685.0,0.0189
1684.0,0.0191
1683.0,0.0191
1682.0,0.0191
1681.0,0.0191
1680.0,0.0192
1679.0,0.0192
1678.0,0.0192
1677.0,0.0192
1676.0,0.0192
1675.0,0.0192
1674.0,0.0193
1673.0,0.0194
1672.0,0.0194
1671.0,0.0195
1670.0,0.0196
1669.0,0.0196
1668.0,0.0196
1667.0,0.0196
1666.0,0.0196
1665.0,0.0196
1664.0,0.0196
1663.0,0.0197
1662.0,0.0197
1661.0,0.0197
1660.0,0.0197
1659.0,0.0197
1658.0,0.0197
1657.0,0.0197
1656.0,0.0197
1655.0,0.0197
1654.0,0.0196
1653.0,0.0196
1652.0,0.0196
1651.0,0.0195
1650.0,0.0196
1649.0,0.0197
1648.0,0.0197
1647.0,0.0197
1646.0,0.0198
1645.0,0.0198
1644.0,0.0198
1643.0,0.0198
1642.0,0.0199
1641.0,0.0199
1640.0,0.0199
1639.0,0.0199
1638.0,0.0198
1637.0,0.0198
1636.0,0.0199
1635.0,0.0199
1634.0,0.0199
1633.0,0.0199
1632.0,0.0199
1631.0,0.0198
1630.0,0.0198
1629.0,0.0197
1628.0,0.0197
1627.0,0.0196
1626.0,0.0196
1625.0,0.0196
1624.0,0.0196
1623.0,0.0196
1622.0,0.0196
1621.0,0.0196
1620.0,0.0196
1619.0,0.0196
1618.0,0.0196
1617.0,0.0195
1616.0,0.0195
1615.0,0.0194
1614.0,0.0194
1613.0,0.0194
1612.0,0.0194
1611.0,0.0194
1610.0,0.0194
1609.0,0.0194
1608.0,0.0194
1607.0,0.0193
1606.0,0.0193
1605.0,0.0193
1604.0,0.0193
1603.0,0.0193
1602.0,0.0193
1601.0,0.0193
1600.0,0.0193
1599.0,0.0193
1598.0,0.0192
1597.0,0.0191
1596.0,0.0191
1595.0,0.0191
1594.0,0.0191
1593.0,0.0191
1592.0,0.0191
1591.0,0.0191
1590.0,0.0192
1589.0,0.0192
1588.0,0.0192
1587.0,0.0192
1586.0,0.0192
1585.0,0.0192
1584.0,0.0192
1583.0,0.0192
1582.0,0.0192
1581.0,0.0192
1580.0,0.0193
1579.0,0.0193
1578.0,0.0193
1577.0,0.0192
1576.0,0.0192
1575.0,0.0192
1574.0,0.0191
1573.0,0.0191
1572.0,0.0191
1571.0,0.0191
1570.0,0.0191
1569.0,0.0192
1568.0,0.0192
1567.0,0.0191
1566.0,0.0189
1565.0,0.0188
1564.0,0.0188
1563.0,0.0188
1562.0,0.0189
1561.0,0.0189
1560.0,0.0188
1559.0,0.0189
1558.0,0.0188
1557.0,0.0186
1556.0,0.0186
1555.0,0.0187
1554.0,0.0187
1553.0,0.0187
1552.0,0.0188
1551.0,0.0188
1550.0,0.0187
1549.0,0.0188
1548.0,0.0188
1547.0,0.0188
1546.0,0.0188
1545.0,0.0187
1544.0,0.0187
1543.0,0.0187
1542.0,0.0185
1541.0,0.0185
1540.0,0.0187
1539.0,0.0188
1538.0,0.0186
1537.0,0.0186
1536.0,0.0186
1535.0,0.0186
1534.0,0.0185
1533.0,0.0184
1532.0,0.0183
1531.0,0.0182
1530.0,0.0182
1529.0,0.0181
1528.0,0.0182
1527.0,0.0181
1526.0,0.0181
1525.0,0.018
1524.0,0.0181
1523.0,0.018
1522.0,0.0179
1521.0,0.018
1520.0,0.0179
1519.0,0.0178
1518.0,0.0177
1517.0,0.0177
1516.0,0.0177
1515.0,0.0176
1514.0,0.0174
1513.0,0.0174
1512.0,0.0173
1511.0,0.0173
1510.0,0.0172
1509.0,0.0173
1508.0,0.0174
1507.0,0.0175
1506.0,0.0173
1505.0,0.017
1504.0,0.017
1503.0,0.017
1502.0,0.0169
1501.0,0.0169
1500.0,0.017
1499.0,0.0168
1498.0,0.0166
1497.0,0.0165
1496.0,0.0164
1495.0,0.0162
1494.0,0.0161
1493.0,0.016
1492.0,0.016
1491.0,0.0159
1490.0,0.0157
1489.0,0.0157
1488.0,0.0157
1487.0,0.0155
1486.0,0.0151
1485.0,0.0149
1484.0,0.0148
1483.0,0.0146
1482.0,0.0145
1481.0,0.0145
1480.0,0.0148
1479.0,0.0154
1478.0,0.0176
1477.0,0.0227
1476.0,0.0316
1475.0,0.0441
1474.0,0.0588
1473.0,0.0709
1472.0,0.0742
1471.0,0.0706
1470.0,0.0663
1469.0,0.0632
1468.0,0.0614
1467.0,0.0614
1466.0,0.0653
1465.0,0.0745
1464.0,0.085
1463.0,0.091
1462.0,0.0909
1461.0,0.0857
1460.0,0.077
1459.0,0.0665
1458.0,0.0565
1457.0,0.0494
1456.0,0.0458
1455.0,0.0438
1454.0,0.0423
1453.0,0.0408
1452.0,0.0391
1451.0,0.0378
1450.0,0.0367
1449.0,0.0358
1448.0,0.0349
1447.0,0.0342
1446.0,0.0338
1445.0,0.0333
1444.0,0.0329
1443.0,0.0325
1442.0,0.0322
1441.0,0.0319
1440.0,0.0315
1439.0,0.0312
1438.0,0.0308
1437.0,0.0304
1436.0,0.0301
1435.0,0.03
1434.0,0.0298
1433.0,0.0295
1432.0,0.0291
1431.0,0.0287
1430.0,0.0283
1429.0,0.0279
1428.0,0.0275
1427.0,0.0272
1426.0,0.0269
1425.0,0.0265
1424.0,0.0262
1423.0,0.026
1422.0,0.0258
1421.0,0.0256
1420.0,0.0254
1419.0,0.0253
1418.0,0.0252
1417.0,0.0251
1416.0,0.0249
1415.0,0.0248
1414.0,0.0246
1413.0,0.0245
1412.0,0.0244
1411.0,0.0243
1410.0,0.0242
1409.0,0.0241
1408.0,0.024
1407.0,0.0239
1406.0,0.0239
1405.0,0.0238
1404.0,0.0237
1403.0,0.0236
1402.0,0.0235
1401.0,0.0234
1400.0,0.0233
1399.0,0.0232
1398.0,0.0232
1397.0,0.0232
1396.0,0.0231
1395.0,0.0231
1394.0,0.0231
1393.0,0.0231
1392.0,0.023
1391.0,0.023
1390.0,0.023
1389.0,0.023
1388.0,0.023
1387.0,0.023
1386.0,0.0231
1385.0,0.0231
1384.0,0.0231
1383.0,0.0232
1382.0,0.0234
1381.0,0.0237
1380.0,0.024
1379.0,0.0242
1378.0,0.0244
1377.0,0.0244
1376.0,0.0243
1375.0,0.0243
1374.0,0.0244
1373.0,0.0246
1372.0,0.0247
1371.0,0.0248
1370.0,0.0249
1369.0,0.0249
1368.0,0.025
1367.0,0.0249
1366.0,0.0248
1365.0,0.0247
1364.0,0.0246
1363.0,0.0245
1362.0,0.0245
1361.0,0.0244
1360.0,0.0243
1359.0,0.0242
1358.0,0.0242
1357.0,0.0241
1356.0,0.0241
1355.0,0.0241
1354.0,0.0241
1353.0,0.0241
1352.0,0.0241
1351.0,0.0241
1350.0,0.0241
1349.0,0.024
1348.0,0.0239
1347.0,0.0238
1346.0,0.0238
1345.0,0.0237
1344.0,0.0236
1343.0,0.0235
1342.0,0.0234
1341.0,0.0233
1340.0,0.0233
1339.0,0.0232
1338.0,0.0232
1337.0,0.0231
1336.0,0.0229
1335.0,0.0229
1334.0,0.0228
1333.0,0.0228
1332.0,0.0227
1331.0,0.0227
1330.0,0.0227
1329.0,0.0226
1328.0,0.0226
1327.0,0.0227
1326.0,0.0227
1325.0,0.0228
1324.0,0.0228
1323.0,0.0228
1322.0,0.0229
1321.0,0.0229
1320.0,0.0229
1319.0,0.0229
1318.0,0.023
1317.0,0.023
1316.0,0.0231
1315.0,0.0231
1314.0,0.0232
1313.0,0.0233
1312.0,0.0234
1311.0,0.0234
1310.0,0.0234
1309.0,0.0234
1308.0,0.0234
1307.0,0.0235
1306.0,0.0235
1305.0,0.0236
1304.0,0.0236
1303.0,0.0236
1302.0,0.0236
1301.0,0.0236
1300.0,0.0236
1299.0,0.0236
1298.0,0.0236
1297.0,0.0235
1296.0,0.0235
1295.0,0.0235
1294.0,0.0235
1293.0,0.0235
1292.0,0.0234
1291.0,0.0234
1290.0,0.0233
1289.0,0.0233
1288.0,0.0232
1287.0,0.0232
1286.0,0.0232
1285.0,0.0231
1284.0,0.023
1283.0,0.0229
1282.0,0.0229
1281.0,0.0228
1280.0,0.0229
1279.0,0.0229
1278.0,0.023
1277.0,0.023
1276.0,0.023
1275.0,0.023
1274.0,0.0229
1273.0,0.0229
1272.0,0.0229
1271.0,0.023
1270.0,0.023
1269.0,0.023
1268.0,0.023
1267.0,0.023
1266.0,0.0231
1265.0,0.0231
1264.0,0.0232
1263.0,0.0232
1262.0,0.0232
1261.0,0.0231
1260.0,0.0231
1259.0,0.0231
1258.0,0.0232
1257.0,0.0232
1256.0,0.0231
1255.0,0.0231
1254.0,0.0231
1253.0,0.0231
1252.0,0.023
1251.0,0.023
1250.0,0.023
1249.0,0.023
1248.0,0.023
1247.0,0.023
1246.0,0.0229
1245.0,0.0229
1244.0,0.0229
1243.0,0.0229
1242.0,0.0229
1241.0,0.0229
1240.0,0.0229
1239.0,0.0229
1238.0,0.0229
1237.0,0.0229
1236.0,0.0229
1235.0,0.0229
1234.0,0.0229
1233.0,0.0229
1232.0,0.0229
1231.0,0.0229
1230.0,0.0228
1229.0,0.0228
1228.0,0.0227
1227.0,0.0227
1226.0,0.0228
1225.0,0.0228
1224.0,0.0228
1223.0,0.0228
1222.0,0.0228
1221.0,0.0228
1220.0,0.0228
1219.0,0.0227
1218.0,0.0226
1217.0,0.0226
1216.0,0.0226
1215.0,0.0227
1214.0,0.0227
1213.0,0.0228
1212.0,0.0228
1211.0,0.0228
1210.0,0.0228
1209.0,0.0228
1208.0,0.0229
1207.0,0.023
1206.0,0.023
1205.0,0.0231
1204.0,0.0231
1203.0,0.0231
1202.0,0.0231
1201.0,0.0231
1200.0,0.0231
1199.0,0.0231
1198.0,0.0231
1197.0,0.0231
1196.0,0.0232
1195.0,0.0232
1194.0,0.0233
1193.0,0.0233
1192.0,0.0233
1191.0,0.0233
1190.0,0.0233
1189.0,0.0232
1188.0,0.0233
1187.0,0.0233
1186.0,0.0234
1185.0,0.0234
1184.0,0.0235
1183.0,0.0236
1182.0,0.0237
1181.0,0.0238
1180.0,0.0239
1179.0,0.024
1178.0,0.0241
1177.0,0.0241
1176.0,0.0242
1175.0,0.0243
1174.0,0.0243
1173.0,0.0244
1172.0,0.0245
1171.0,0.0245
1170.0,0.0245
1169.0,0.0246
1168.0,0.0246
1167.0,0.0246
1166.0,0.0246
1165.0,0.0246
1164.0,0.0245
1163.0,0.0245
1162.0,0.0245
1161.0,0.0245
1160.0,0.0244
1159.0,0.0243
1158.0,0.0243
1157.0,0.0243
1156.0,0.0243
1155.0,0.0243
1154.0,0.0243
1153.0,0.0243
1152.0,0.0243
1151.0,0.0243
1150.0,0.0243
1149.0,0.0243
1148.0,0.0242
1147.0,0.0241
1146.0,0.024
1145.0,0.024
1144.0,0.024
1143.0,0.0239
1142.0,0.0239
1141.0,0.0239
1140.0,0.0239
1139.0,0.024
1138.0,0.024
1137.0,0.024
1136.0,0.0239
1135.0,0.0239
1134.0,0.0239
1133.0,0.0239
1132.0,0.0239
1131.0,0.0239
1130.0,0.0238
1129.0,0.0239
1128.0,0.0239
1127.0,0.0239
1126.0,0.0239
1125.0,0.0239
1124.0,0.0238
1123.0,0.0238
1122.0,0.0238
1121.0,0.0238
1120.0,0.0238
1119.0,0.0238
1118.0,0.0238
1117.0,0.0238
1116.0,0.0239
1115.0,0.024
1114.0,0.024
1113.0,0.024
1112.0,0.0241
1111.0,0.0241
1110.0,0.0241
1109.0,0.0242
1108.0,0.0242
1107.0,0.0242
1106.0,0.0241
1105.0,0.0241
1104.0,0.0241
1103.0,0.0241
1102.0,0.0242
1101.0,0.0242
1100.0,0.0242
1099.0,0.0243
1098.0,0.0243
1097.0,0.0243
1096.0,0.0243
1095.0,0.0242
1094.0,0.0242
1093.0,0.0242
1092.0,0.0242
1091.0,0.0242
1090.0,0.0243
1089.0,0.0244
1088.0,0.0244
1087.0,0.0245
1086.0,0.0245
1085.0,0.0245
1084.0,0.0245
1083.0,0.0245
1082.0,0.0246
1081.0,0.0246
1080.0,0.0247
1079.0,0.0247
1078.0,0.0246
1077.0,0.0246
1076.0,0.0245
1075.0,0.0245
1074.0,0.0246
1073.0,0.0246
1072.0,0.0247
1071.0,0.0247
1070.0,0.0247
1069.0,0.0246
1068.0,0.0246
1067.0,0.0247
1066.0,0.0247
1065.0,0.0247
1064.0,0.0247
1063.0,0.0247
1062.0,0.0247
1061.0,0.0248
1060.0,0.0248
1059.0,0.0247
1058.0,0.0247
1057.0,0.0247
1056.0,0.0248
1055.0,0.0248
1054.0,0.0248
1053.0,0.0249
1052.0,0.0249
1051.0,0.0249
1050.0,0.0249
1049.0,0.0249
1048.0,0.0249
1047.0,0.0249
1046.0,0.025
1045.0,0.025
1044.0,0.0249
1043.0,0.0249
1042.0,0.0248
1041.0,0.0247
1040.0,0.0247
1039.0,0.0248
1038.0,0.0248
1037.0,0.0249
1036.0,0.0249
1035.0,0.0249
1034.0,0.0249
1033.0,0.025
1032.0,0.025
1031.0,0.0251
1030.0,0.0251
1029.0,0.0251
1028.0,0.025
1027.0,0.025
1026.0,0.025
1025.0,0.025
1024.0,0.025
1023.0,0.025
1022.0,0.0251
1021.0,0.0251
1020.0,0.0251
1019.0,0.0251
1018.0,0.0252
1017.0,0.0252
1016.0,0.0252
1015.0,0.0252
1014.0,0.0252
1013.0,0.0252
1012.0,0.0251
1011.0,0.0251
1010.0,0.0251
1009.0,0.025
1008.0,0.025
1007.0,0.0249
1006.0,0.0249
1005.0,0.0249
1004.0,0.0249
1003.0,0.0248
1002.0,0.0248
1001.0,0.0247
1000.0,0.0246
999.0,0.0245
998.0,0.0245
997.0,0.0245
996.0,0.0245
995.0,0.0245
994.0,0.0245
993.0,0.0246
992.0,0.0246
991.0,0.0247
990.0,0.0246
989.0,0.0246
988.0,0.0246
987.0,0.0245
986.0,0.0245
985.0,0.0245
984.0,0.0245
983.0,0.0245
982.0,0.0245
981.0,0.0245
980.0,0.0245
979.0,0.0244
978.0,0.0244
977.0,0.0244
976.0,0.0244
975.0,0.0244
974.0,0.0246
973.0,0.0247
972.0,0.0248
971.0,0.0248
970.0,0.0248
969.0,0.0247
968.0,0.0247
967.0,0.0247
966.0,0.0247
965.0,0.0248
964.0,0.0248
963.0,0.0248
962.0,0.0248
961.0,0.0248
960.0,0.0248
959.0,0.0248
958.0,0.0249
957.0,0.0249
956.0,0.0248
955.0,0.0248
954.0,0.0248
953.0,0.0247
952.0,0.0247
951.0,0.0247
950.0,0.0247
949.0,0.0246
948.0,0.0246
947.0,0.0246
946.0,0.0247
945.0,0.0247
944.0,0.0246
943.0,0.0246
942.0,0.0246
941.0,0.0246
940.0,0.0246
939.0,0.0246
938.0,0.0246
937.0,0.0247
936.0,0.0248
935.0,0.0248
934.0,0.0248
933.0,0.0247
932.0,0.0246
931.0,0.0246
930.0,0.0246
929.0,0.0247
928.0,0.0247
927.0,0.0247
926.0,0.0247
925.0,0.0247
924.0,0.0247
923.0,0.0247
922.0,0.0247
921.0,0.0247
920.0,0.0246
919.0,0.0246
918.0,0.0246
917.0,0.0247
916.0,0.0248
915.0,0.0249
914.0,0.0249
913.0,0.0248
912.0,0.0248
911.0,0.0247
910.0,0.0247
909.0,0.0247
908.0,0.0248
907.0,0.0248
906.0,0.0249
905.0,0.025
904.0,0.025
903.0,0.025
902.0,0.0251
901.0,0.0251
900.0,0.025
899.0,0.025
898.0,0.025
897.0,0.0249
896.0,0.0249
895.0,0.025
894.0,0.0251
893.0,0.0251
892.0,0.0251
891.0,0.0251
890.0,0.0251
889.0,0.0251
888.0,0.0251
887.0,0.0251
886.0,0.0251
885.0,0.0251
884.0,0.0251
883.0,0.0251
882.0,0.0251
881.0,0.0251
880.0,0.025
879.0,0.0249
878.0,0.0249
877.0,0.025
876.0,0.0251
875.0,0.0252
874.0,0.0252
873.0,0.0252
872.0,0.0251
871.0,0.0251
870.0,0.0251
869.0,0.0251
868.0,0.0251
867.0,0.025
866.0,0.0249
865.0,0.0248
864.0,0.0248
863.0,0.0248
862.0,0.0248
861.0,0.0248
860.0,0.0248
859.0,0.0247
858.0,0.0246
857.0,0.0246
856.0,0.0246
855.0,0.0246
854.0,0.0247
853.0,0.0247
852.0,0.0246
851.0,0.0246
850.0,0.0246
849.0,0.0247
848.0,0.0247
847.0,0.0248
846.0,0.0247
845.0,0.0246
844.0,0.0246
843.0,0.0246
842.0,0.0247
841.0,0.0248
840.0,0.0249
839.0,0.0249
838.0,0.0249
837.0,0.0248
836.0,0.0246
835.0,0.0245
834.0,0.0244
833.0,0.0243
832.0,0.0242
831.0,0.0241
830.0,0.024
829.0,0.024
828.0,0.024
827.0,0.024
826.0,0.0241
825.0,0.0241
824.0,0.0242
823.0,0.0243
822.0,0.0243
821.0,0.0243
820.0,0.0242
819.0,0.0241
818.0,0.024
817.0,0.0239
816.0,0.024
815.0,0.0241
814.0,0.0242
813.0,0.0243
812.0,0.0243
811.0,0.0242
810.0,0.0242
809.0,0.0241
808.0,0.0241
807.0,0.0242
806.0,0.0242
805.0,0.0242
804.0,0.0242
803.0,0.0242
802.0,0.0242
801.0,0.0242
800.0,0.0242
799.0,0.0242
798.0,0.0242
797.0,0.0242
796.0,0.0242
795.0,0.0241
794.0,0.024
793.0,0.0239
792.0,0.0238
791.0,0.0238
790.0,0.0238
789.0,0.0238
788.0,0.0237
787.0,0.0237
786.0,0.0237
785.0,0.0237
784.0,0.0237
783.0,0.0237
782.0,0.0236
781.0,0.0236
780.0,0.0237
779.0,0.0237
778.0,0.0237
777.0,0.0238
776.0,0.0237
775.0,0.0237
774.0,0.0235
773.0,0.0234
772.0,0.0233
771.0,0.0233
770.0,0.0233
769.0,0.0234
768.0,0.0235
767.0,0.0235
766.0,0.0233
765.0,0.0231
764.0,0.0228
763.0,0.0226
762.0,0.0225
761.0,0.0226
760.0,0.0227
759.0,0.0226
758.0,0.0225
757.0,0.0223
756.0,0.022
755.0,0.022
754.0,0.022
753.0,0.0221
752.0,0.0221
751.0,0.022
750.0,0.0218
749.0,0.0217
748.0,0.0217
747.0,0.0214
746.0,0.0212
745.0,0.021
744.0,0.0207
743.0,0.0204
742.0,0.0201
741.0,0.0198
740.0,0.0197
739.0,0.0196
738.0,0.0199
737.0,0.0207
736.0,0.0225
735.0,0.0265
734.0,0.0345
733.0,0.0479
732.0,0.0652
731.0,0.0814
730.0,0.0905
729.0,0.0902
728.0,0.0832
727.0,0.0746
726.0,0.0681
725.0,0.0652
724.0,0.0663
723.0,0.0723
722.0,0.0846
721.0,0.1025
720.0,0.12
719.0,0.1281
718.0,0.1236
717.0,0.111
716.0,0.0963
715.0,0.0831
714.0,0.0727
713.0,0.0649
712.0,0.0593
711.0,0.0552
710.0,0.0522
709.0,0.0498
708.0,0.0477
707.0,0.0459
706.0,0.0445
705.0,0.0432
704.0,0.042
703.0,0.041
702.0,0.0399
701.0,0.0389
700.0,0.0381
699.0,0.0376
698.0,0.0374
697.0,0.037
696.0,0.0364
695.0,0.0359
694.0,0.0353
693.0,0.0349
692.0,0.0346
691.0,0.0345
690.0,0.0343
689.0,0.0336
688.0,0.0329
687.0,0.0326
686.0,0.0326
685.0,0.0328
684.0,0.0328
683.0,0.0325
682.0,0.032
681.0,0.0315
680.0,0.0315
679.0,0.0318
678.0,0.0323
677.0,0.0325
676.0,0.0324
675.0,0.0322
674.0,0.0319
673.0,0.0313
672.0,0.0309
671.0,0.0316
670.0,0.0336
669.0,0.0364
668.0,0.0385
667.0,0.0377
666.0,0.0349
665.0,0.0323
664.0,0.0309
663.0,0.0305
662.0,0.0303
661.0,0.0304
660.0,0.0308
659.0,0.0313
658.0,0.0316
657.0,0.0315
656.0,0.0309
655.0,0.0302
654.0,0.0296
653.0,0.0293
652.0,0.0292
651.0,0.0295
650.0,0.0298
649.0,0.03
648.0,0.0299
647.0,0.0297
646.0,0.0293
645.0,0.0288
644.0,0.0283
643.0,0.0281
642.0,0.0283
641.0,0.0287
640.0,0.0292
639.0,0.0296
638.0,0.0303
637.0,0.0316
636.0,0.0332
635.0,0.0346
634.0,0.0349
633.0,0.0341
632.0,0.0332
631.0,0.0329
630.0,0.0329
629.0,0.0325
628.0,0.0315
627.0,0.0303
626.0,0.0296
625.0,0.0296
624.0,0.0299
623.0,0.0303
622.0,0.0307
621.0,0.0308
620.0,0.0304
619.0,0.0296
618.0,0.0291
617.0,0.0294
616.0,0.0304
615.0,0.0313
614.0,0.0319
613.0,0.0324
612.0,0.033
611.0,0.0334
610.0,0.0333
609.0,0.0328
608.0,0.0319
607.0,0.0309
606.0,0.0301
605.0,0.0304
604.0,0.0318
603.0,0.0336
602.0,0.0348
601.0,0.0352
600.0,0.0353
