cm-1,A
4000.0,0.0049
3999.0,0.0049
3998.0,0.0049
3997.0,0.0049
3996.0,0.0049
3995.0,0.0049
3994.0,0.0049
3993.0,0.0049
3992.0,0.0049
3991.0,0.0049
3990.0,0.0049
3989.0,0.005
3988.0,0.005
3987.0,0.0049
3986.0,0.0049
3985.0,0.0048
3984.0,0.0048
3983.0,0.0049
3982.0,0.0049
3981.0,0.005
3980.0,0.0049
3979.0,0.0048
3978.0,0.0047
3977.0,0.0047
3976.0,0.0047
3975.0,0.0047
3974.0,0.0048
3973.0,0.0048
3972.0,0.0049
3971.0,0.005
3970.0,0.005
3969.0,0.005
3968.0,0.0051
3967.0,0.0051
3966.0,0.0051
3965.0,0.0051
3964.0,0.005
3963.0,0.005
3962.0,0.005
3961.0,0.0051
3960.0,0.0052
3959.0,0.0052
3958.0,0.0052
3957.0,0.0052
3956.0,0.0051
3955.0,0.0051
3954.0,0.0051
3953.0,0.005
3952.0,0.005
3951.0,0.0049
3950.0,0.0049
3949.0,0.005
3948.0,0.005
3947.0,0.0051
3946.0,0.0051
3945.0,0.0051
3944.0,0.0052
3943.0,0.0052
3942.0,0.0052
3941.0,0.0052
3940.0,0.0051
3939.0,0.005
3938.0,0.005
3937.0,0.005
3936.0,0.0051
3935.0,0.0052
3934.0,0.0053
3933.0,0.0053
3932.0,0.0053
3931.0,0.0052
3930.0,0.0052
3929.0,0.0053
3928.0,0.0053
3927.0,0.0053
3926.0,0.0053
3925.0,0.0052
3924.0,0.0051
3923.0,0.005
3922.0,0.0051
3921.0,0.0051
3920.0,0.0052
3919.0,0.0052
3918.0,0.0052
3917.0,0.0052
3916.0,0.0052
3915.0,0.0053
3914.0,0.0053
3913.0,0.0053
3912.0,0.0053
3911.0,0.0053
3910.0,0.0053
3909.0,0.0053
3908.0,0.0053
3907.0,0.0053
3906.0,0.0054
3905.0,0.0054
3904.0,0.0054
3903.0,0.0054
3902.0,0.0053
3901.0,0.0052
3900.0,0.0052
3899.0,0.0052
3898.0,0.0052
3897.0,0.0053
3896.0,0.0054
3895.0,0.0054
3894.0,0.0053
3893.0,0.0054
3892.0,0.0055
3891.0,0.0055
3890.0,0.0055
3889.0,0.0055
3888.0,0.0055
3887.0,0.0055
3886.0,0.0054
3885.0,0.0053
3884.0,0.0053
3883.0,0.0053
3882.0,0.0054
3881.0,0.0054
3880.0,0.0053
3879.0,0.0053
3878.0,0.0053
3877.0,0.0054
3876.0,0.0055
3875.0,0.0054
3874.0,0.0053
3873.0,0.0052
3872.0,0.0052
3871.0,0.0051
3870.0,0.0051
3869.0,0.0051
3868.0,0.0051
3867.0,0.0051
3866.0,0.0051
3865.0,0.0051
3864.0,0.0051
3863.0,0.0051
3862.0,0.0052
3861.0,0.0052
3860.0,0.0052
3859.0,0.0053
3858.0,0.0053
3857.0,0.0054
3856.0,0.0054
3855.0,0.0052
3854.0,0.005
3853.0,0.0049
3852.0,0.005
3851.0,0.0052
3850.0,0.0054
3849.0,0.0055
3848.0,0.0056
3847.0,0.0056
3846.0,0.0056
3845.0,0.0056
3844.0,0.0055
3843.0,0.0055
3842.0,0.0054
3841.0,0.0055
3840.0,0.0055
3839.0,0.0056
3838.0,0.0056
3837.0,0.0055
3836.0,0.0053
3835.0,0.0053
3834.0,0.0053
3833.0,0.0054
3832.0,0.0056
3831.0,0.0056
3830.0,0.0056
3829.0,0.0056
3828.0,0.0055
3827.0,0.0054
3826.0,0.0054
3825.0,0.0054
3824.0,0.0055
3823.0,0.0055
3822.0,0.0055
3821.0,0.0055
3820.0,0.0054
3819.0,0.0054
3818.0,0.0054
3817.0,0.0054
3816.0,0.0054
3815.0,0.0055
3814.0,0.0055
3813.0,0.0056
3812.0,0.0057
3811.0,0.0057
3810.0,0.0057
3809.0,0.0056
3808.0,0.0055
3807.0,0.0055
3806.0,0.0054
3805.0,0.0054
3804.0,0.0054
3803.0,0.0055
3802.0,0.0055
3801.0,0.0055
3800.0,0.0055
3799.0,0.0055
3798.0,0.0056
3797.0,0.0056
3796.0,0.0057
3795.0,0.0057
3794.0,0.0058
3793.0,0.0058
3792.0,0.0059
3791.0,0.0059
3790.0,0.006
3789.0,0.006
3788.0,0.0059
3787.0,0.0059
3786.0,0.0058
3785.0,0.0058
3784.0,0.0058
3783.0,0.0058
3782.0,0.0058
3781.0,0.0059
3780.0,0.006
3779.0,0.0061
3778.0,0.0061
3777.0,0.0061
3776.0,0.006
3775.0,0.0059
3774.0,0.0059
3773.0,0.0058
3772.0,0.0057
3771.0,0.0057
3770.0,0.0057
3769.0,0.0058
3768.0,0.0059
3767.0,0.006
3766.0,0.006
3765.0,0.0061
3764.0,0.0061
3763.0,0.0061
3762.0,0.0061
3761.0,0.0061
3760.0,0.0061
3759.0,0.006
3758.0,0.006
3757.0,0.006
3756.0,0.0059
3755.0,0.0059
3754.0,0.0059
3753.0,0.0059
3752.0,0.0058
3751.0,0.0057
3750.0,0.0057
3749.0,0.0057
3748.0,0.0057
3747.0,0.0057
3746.0,0.0058
3745.0,0.0057
3744.0,0.0056
3743.0,0.0056
3742.0,0.0055
3741.0,0.0055
3740.0,0.0054
3739.0,0.0052
3738.0,0.0051
3737.0,0.0051
3736.0,0.0052
3735.0,0.0055
3734.0,0.0057
3733.0,0.0058
3732.0,0.0058
3731.0,0.0057
3730.0,0.0056
3729.0,0.0056
3728.0,0.0056
3727.0,0.0056
3726.0,0.0057
3725.0,0.0059
3724.0,0.006
3723.0,0.0062
3722.0,0.0062
3721.0,0.0063
3720.0,0.0063
3719.0,0.0064
3718.0,0.0065
3717.0,0.0065
3716.0,0.0066
3715.0,0.0066
3714.0,0.0065
3713.0,0.0063
3712.0,0.0061
3711.0,0.0062
3710.0,0.0063
3709.0,0.0064
3708.0,0.0065
3707.0,0.0065
3706.0,0.0066
3705.0,0.0068
3704.0,0.0069
3703.0,0.0071
3702.0,0.0071
3701.0,0.0071
3700.0,0.007
3699.0,0.007
3698.0,0.007
3697.0,0.007
3696.0,0.0071
3695.0,0.0071
3694.0,0.0071
3693.0,0.0071
3692.0,0.0072
3691.0,0.0074
3690.0,0.0077
3689.0,0.0078
3688.0,0.0079
3687.0,0.0079
3686.0,0.0079
3685.0,0.008
3684.0,0.008
3683.0,0.0081
3682.0,0.0081
3681.0,0.0081
3680.0,0.008
3679.0,0.008
3678.0,0.0081
3677.0,0.0083
3676.0,0.0087
3675.0,0.009
3674.0,0.0091
3673.0,0.0091
3672.0,0.0092
3671.0,0.0094
3670.0,0.0098
3669.0,0.0101
3668.0,0.0101
3667.0,0.0101
3666.0,0.0101
3665.0,0.0101
3664.0,0.0103
3663.0,0.0104
3662.0,0.0107
3661.0,0.0108
3660.0,0.0109
3659.0,0.0109
3658.0,0.011
3657.0,0.0112
3656.0,0.0114
3655.0,0.0116
3654.0,0.0117
3653.0,0.0117
3652.0,0.0116
3651.0,0.0115
3650.0,0.0118
3649.0,0.0124
3648.0,0.0129
3647.0,0.0132
3646.0,0.0133
3645.0,0.0134
3644.0,0.0135
3643.0,0.0137
3642.0,0.0139
3641.0,0.014
3640.0,0.0142
3639.0,0.0143
3638.0,0.0144
3637.0,0.0145
3636.0,0.0146
3635.0,0.0148
3634.0,0.0149
3633.0,0.0151
3632.0,0.0152
3631.0,0.0155
3630.0,0.016
3629.0,0.0166
3628.0,0.0168
3627.0,0.0169
3626.0,0.0169
3625.0,0.0171
3624.0,0.0173
3623.0,0.0176
3622.0,0.0179
3621.0,0.0182
3620.0,0.0186
3619.0,0.019
3618.0,0.0192
3617.0,0.0193
3616.0,0.0194
3615.0,0.0196
3614.0,0.0199
3613.0,0.0203
3612.0,0.0206
3611.0,0.0208
3610.0,0.021
3609.0,0.0213
3608.0,0.0216
3607.0,0.022
3606.0,0.0223
3605.0,0.0225
3604.0,0.0227
3603.0,0.0228
3602.0,0.0229
3601.0,0.0231
3600.0,0.0234
3599.0,0.0237
3598.0,0.0241
3597.0,0.0244
3596.0,0.0246
3595.0,0.0248
3594.0,0.0251
3593.0,0.0253
3592.0,0.0254
3591.0,0.0256
3590.0,0.0257
3589.0,0.0261
3588.0,0.0266
3587.0,0.0271
3586.0,0.0275
3585.0,0.0277
3584.0,0.0278
3583.0,0.028
3582.0,0.0282
3581.0,0.0284
3580.0,0.0288
3579.0,0.0291
3578.0,0.0294
3577.0,0.0296
3576.0,0.0299
3575.0,0.0301
3574.0,0.0303
3573.0,0.0305
3572.0,0.0308
3571.0,0.031
3570.0,0.0313
3569.0,0.0316
3568.0,0.0321
3567.0,0.0325
3566.0,0.0329
3565.0,0.033
3564.0,0.033
3563.0,0.0331
3562.0,0.0333
3561.0,0.0336
3560.0,0.0339
3559.0,0.0342
3558.0,0.0345
3557.0,0.0347
3556.0,0.0349
3555.0,0.035
3554.0,0.0352
3553.0,0.0354
3552.0,0.0356
3551.0,0.0358
3550.0,0.036
3549.0,0.0362
3548.0,0.0366
3547.0,0.0369
3546.0,0.0373
3545.0,0.0374
3544.0,0.0375
3543.0,0.0375
3542.0,0.0376
3541.0,0.0377
3540.0,0.0378
3539.0,0.038
3538.0,0.0382
3537.0,0.0385
3536.0,0.0387
3535.0,0.0389
3534.0,0.039
3533.0,0.0391
3532.0,0.0392
3531.0,0.0394
3530.0,0.0396
3529.0,0.0397
3528.0,0.0399
3527.0,0.0401
3526.0,0.0402
3525.0,0.0403
3524.0,0.0406
3523.0,0.0409
3522.0,0.0413
3521.0,0.0416
3520.0,0.0418
3519.0,0.042
3518.0,0.0422
3517.0,0.0424
3516.0,0.0425
3515.0,0.0427
3514.0,0.0428
3513.0,0.043
3512.0,0.0431
3511.0,0.0433
3510.0,0.0436
3509.0,0.0438
3508.0,0.044
3507.0,0.044
3506.0,0.0441
3505.0,0.0442
3504.0,0.0445
3503.0,0.0449
3502.0,0.0452
3501.0,0.0454
3500.0,0.0455
3499.0,0.0457
3498.0,0.0459
3497.0,0.0462
3496.0,0.0466
3495.0,0.0469
3494.0,0.0471
3493.0,0.0473
3492.0,0.0475
3491.0,0.0476
3490.0,0.0478
3489.0,0.0479
3488.0,0.0481
3487.0,0.0483
3486.0,0.0486
3485.0,0.0488
3484.0,0.049
3483.0,0.0492
3482.0,0.0495
3481.0,0.0498
3480.0,0.0501
3479.0,0.0503
3478.0,0.0504
3477.0,0.0507
3476.0,0.051
3475.0,0.0514
3474.0,0.0518
3473.0,0.0521
3472.0,0.0523
3471.0,0.0525
3470.0,0.0528
3469.0,0.053
3468.0,0.0533
3467.0,0.0535
3466.0,0.0537
3465.0,0.054
3464.0,0.0543
3463.0,0.0547
3462.0,0.055
3461.0,0.0554
3460.0,0.0556
3459.0,0.0559
3458.0,0.0561
3457.0,0.0564
3456.0,0.0567
3455.0,0.0569
3454.0,0.0572
3453.0,0.0575
3452.0,0.0578
3451.0,0.058
3450.0,0.0583
3449.0,0.0584
3448.0,0.0587
3447.0,0.0589
3446.0,0.0592
3445.0,0.0595
3444.0,0.0598
3443.0,0.0601
3442.0,0.0604
3441.0,0.0608
3440.0,0.0611
3439.0,0.0614
3438.0,0.0617
3437.0,0.062
3436.0,0.0624
3435.0,0.0627
3434.0,0.0631
3433.0,0.0634
3432.0,0.0637
3431.0,0.064
3430.0,0.0642
3429.0,0.0644
3428.0,0.0646
3427.0,0.0649
3426.0,0.0651
3425.0,0.0653
3424.0,0.0656
3423.0,0.0659
3422.0,0.0663
3421.0,0.0667
3420.0,0.067
3419.0,0.0673
3418.0,0.0675
3417.0,0.0677
3416.0,0.068
3415.0,0.0684
3414.0,0.0688
3413.0,0.0693
3412.0,0.0697
3411.0,0.0699
3410.0,0.0702
3409.0,0.0704
3408.0,0.0708
3407.0,0.0711
3406.0,0.0714
3405.0,0.0718
3404.0,0.072
3403.0,0.0723
3402.0,0.0725
3401.0,0.0727
3400.0,0.0729
3399.0,0.0731
3398.0,0.0735
3397.0,0.0737
3396.0,0.0739
3395.0,0.0742
3394.0,0.0744
3393.0,0.0747
3392.0,0.0751
3391.0,0.0754
3390.0,0.0756
3389.0,0.0757
3388.0,0.0758
3387.0,0.0759
3386.0,0.0761
3385.0,0.0763
3384.0,0.0766
3383.0,0.0769
3382.0,0.0772
3381.0,0.0776
3380.0,0.0779
3379.0,0.0782
3378.0,0.0785
3377.0,0.0787
3376.0,0.0788
3375.0,0.0789
3374.0,0.079
3373.0,0.0792
3372.0,0.0796
3371.0,0.0799
3370.0,0.0803
3369.0,0.0806
3368.0,0.0808
3367.0,0.0809
3366.0,0.081
3365.0,0.0811
3364.0,0.0812
3363.0,0.0813
3362.0,0.0814
3361.0,0.0815
3360.0,0.0817
3359.0,0.0819
3358.0,0.0821
3357.0,0.0824
3356.0,0.0825
3355.0,0.0826
3354.0,0.0827
3353.0,0.0827
3352.0,0.0828
3351.0,0.083
3350.0,0.0833
3349.0,0.0835
3348.0,0.0837
3347.0,0.0838
3346.0,0.0838
3345.0,0.0839
3344.0,0.0839
3343.0,0.084
3342.0,0.0841
3341.0,0.0842
3340.0,0.0843
3339.0,0.0843
3338.0,0.0843
3337.0,0.0843
3336.0,0.0844
3335.0,0.0846
3334.0,0.0848
3333.0,0.0848
3332.0,0.0848
3331.0,0.0847
3330.0,0.0846
3329.0,0.0847
3328.0,0.0847
3327.0,0.0848
3326.0,0.0848
3325.0,0.0848
3324.0,0.0849
3323.0,0.0849
3322.0,0.085
3321.0,0.0851
3320.0,0.0851
3319.0,0.085
3318.0,0.0849
3317.0,0.0847
3316.0,0.0847
3315.0,0.0846
3314.0,0.0847
3313.0,0.0848
3312.0,0.0849
3311.0,0.0849
3310.0,0.0849
3309.0,0.0848
3308.0,0.0847
3307.0,0.0846
3306.0,0.0845
3305.0,0.0844
3304.0,0.0843
3303.0,0.0841
3302.0,0.084
3301.0,0.0839
3300.0,0.0839
3299.0,0.0838
3298.0,0.0838
3297.0,0.0838
3296.0,0.0839
3295.0,0.0838
3294.0,0.0838
3293.0,0.0836
3292.0,0.0835
3291.0,0.0835
3290.0,0.0834
3289.0,0.0835
3288.0,0.0835
3287.0,0.0835
3286.0,0.0834
3285.0,0.0834
3284.0,0.0833
3283.0,0.0832
3282.0,0.083
3281.0,0.083
3280.0,0.0831
3279.0,0.0832
3278.0,0.0835
3277.0,0.0836
3276.0,0.0837
3275.0,0.0837
3274.0,0.0836
3273.0,0.0835
3272.0,0.0835
3271.0,0.0835
3270.0,0.0836
3269.0,0.0838
3268.0,0.0839
3267.0,0.0839
3266.0,0.0839
3265.0,0.0838
3264.0,0.0838
3263.0,0.0838
3262.0,0.0839
3261.0,0.0841
3260.0,0.0842
3259.0,0.0842
3258.0,0.0843
3257.0,0.0843
3256.0,0.0843
3255.0,0.0844
3254.0,0.0845
3253.0,0.0846
3252.0,0.0847
3251.0,0.0849
3250.0,0.085
3249.0,0.0851
3248.0,0.0851
3247.0,0.0851
3246.0,0.0851
3245.0,0.0851
3244.0,0.0853
3243.0,0.0853
3242.0,0.0854
3241.0,0.0853
3240.0,0.0852
3239.0,0.0851
3238.0,0.0851
3237.0,0.0851
3236.0,0.0851
3235.0,0.0851
3234.0,0.085
3233.0,0.0849
3232.0,0.0848
3231.0,0.0848
3230.0,0.0848
3229.0,0.0849
3228.0,0.0848
3227.0,0.0846
3226.0,0.0844
3225.0,0.0842
3224.0,0.0841
3223.0,0.084
3222.0,0.0839
3221.0,0.0838
3220.0,0.0836
3219.0,0.0834
3218.0,0.0833
3217.0,0.0831
3216.0,0.083
3215.0,0.0829
3214.0,0.0827
3213.0,0.0825
3212.0,0.0823
3211.0,0.0821
3210.0,0.082
3209.0,0.082
3208.0,0.0818
3207.0,0.0816
3206.0,0.0813
3205.0,0.081
3204.0,0.0808
3203.0,0.0806
3202.0,0.0805
3201.0,0.0803
3200.0,0.0801
3199.0,0.08
3198.0,0.0798
3197.0,0.0795
3196.0,0.0793
3195.0,0.079
3194.0,0.0788
3193.0,0.0786
3192.0,0.0784
3191.0,0.0782
3190.0,0.0779
3189.0,0.0775
3188.0,0.0772
3187.0,0.0769
3186.0,0.0766
3185.0,0.0764
3184.0,0.0761
3183.0,0.0757
3182.0,0.0755
3181.0,0.0752
3180.0,0.075
3179.0,0.0748
3178.0,0.0745
3177.0,0.0743
3176.0,0.074
3175.0,0.0736
3174.0,0.0733
3173.0,0.073
3172.0,0.0728
3171.0,0.0726
3170.0,0.0725
3169.0,0.0722
3168.0,0.0719
3167.0,0.0715
3166.0,0.0711
3165.0,0.0707
3164.0,0.0704
3163.0,0.0701
3162.0,0.0699
3161.0,0.0696
3160.0,0.0693
3159.0,0.069
3158.0,0.0688
3157.0,0.0685
3156.0,0.0682
3155.0,0.0678
3154.0,0.0675
3153.0,0.0672
3152.0,0.0669
3151.0,0.0666
3150.0,0.0663
3149.0,0.0659
3148.0,0.0657
3147.0,0.0654
3146.0,0.0652
3145.0,0.065
3144.0,0.0648
3143.0,0.0644
3142.0,0.0641
3141.0,0.0637
3140.0,0.0634
3139.0,0.0631
3138.0,0.0629
3137.0,0.0626
3136.0,0.0624
3135.0,0.062
3134.0,0.0617
3133.0,0.0613
3132.0,0.0609
3131.0,0.0606
3130.0,0.0602
3129.0,0.0598
3128.0,0.0595
3127.0,0.0592
3126.0,0.0589
3125.0,0.0587
3124.0,0.0584
3123.0,0.0581
3122.0,0.0579
3121.0,0.0576
3120.0,0.0573
3119.0,0.057
3118.0,0.0568
3117.0,0.0567
3116.0,0.0564
3115.0,0.0562
3114.0,0.0559
3113.0,0.0557
3112.0,0.0553
3111.0,0.055
3110.0,0.0547
3109.0,0.0544
3108.0,0.054
3107.0,0.0537
3106.0,0.0533
3105.0,0.053
3104.0,0.0527
3103.0,0.0524
3102.0,0.0521
3101.0,0.0519
3100.0,0.0518
3099.0,0.0516
3098.0,0.0514
3097.0,0.0511
3096.0,0.0508
3095.0,0.0504
3094.0,0.0501
3093.0,0.0499
3092.0,0.0497
3091.0,0.0495
3090.0,0.0492
3089.0,0.049
3088.0,0.0487
3087.0,0.0484
3086.0,0.0481
3085.0,0.0479
3084.0,0.0477
3083.0,0.0474
3082.0,0.0471
3081.0,0.0468
3080.0,0.0466
3079.0,0.0463
3078.0,0.0462
3077.0,0.046
3076.0,0.0457
3075.0,0.0455
3074.0,0.0452
3073.0,0.0449
3072.0,0.0447
3071.0,0.0444
3070.0,0.0442
3069.0,0.044
3068.0,0.0438
3067.0,0.0436
3066.0,0.0433
3065.0,0.0431
3064.0,0.0428
3063.0,0.0425
3062.0,0.0422
3061.0,0.042
3060.0,0.0418
3059.0,0.0417
3058.0,0.0416
3057.0,0.0414
3056.0,0.0413
3055.0,0.0411
3054.0,0.0409
3053.0,0.0407
3052.0,0.0404
3051.0,0.0402
3050.0,0.04
3049.0,0.0398
3048.0,0.0396
3047.0,0.0394
3046.0,0.0392
3045.0,0.039
3044.0,0.0388
3043.0,0.0386
3042.0,0.0384
3041.0,0.0382
3040.0,0.038
3039.0,0.0378
3038.0,0.0376
3037.0,0.0375
3036.0,0.0373
3035.0,0.0371
3034.0,0.0369
3033.0,0.0367
3032.0,0.0365
3031.0,0.0364
3030.0,0.0362
3029.0,0.036
3028.0,0.0358
3027.0,0.0357
3026.0,0.0355
3025.0,0.0354
3024.0,0.0352
3023.0,0.0351
3022.0,0.035
3021.0,0.0349
3020.0,0.0347
3019.0,0.0346
3018.0,0.0344
3017.0,0.0342
3016.0,0.034
3015.0,0.0338
3014.0,0.0336
3013.0,0.0334
3012.0,0.0333
3011.0,0.0331
3010.0,0.033
3009.0,0.0328
3008.0,0.0326
3007.0,0.0324
3006.0,0.0323
3005.0,0.0321
3004.0,0.032
3003.0,0.0319
3002.0,0.0318
3001.0,0.0317
3000.0,0.0315
2999.0,0.0315
2998.0,0.0313
2997.0,0.0312
2996.0,0.031
2995.0,0.0308
2994.0,0.0307
2993.0,0.0306
2992.0,0.0305
2991.0,0.0304
2990.0,0.0303
2989.0,0.0301
2988.0,0.03
2987.0,0.0298
2986.0,0.0297
2985.0,0.0295
2984.0,0.0294
2983.0,0.0292
2982.0,0.0292
2981.0,0.0292
2980.0,0.0292
2979.0,0.0291
2978.0,0.0289
2977.0,0.0287
2976.0,0.0286
2975.0,0.0284
2974.0,0.0283
2973.0,0.0282
2972.0,0.0281
2971.0,0.028
2970.0,0.0279
2969.0,0.0278
2968.0,0.0277
2967.0,0.0276
2966.0,0.0276
2965.0,0.0275
2964.0,0.0274
2963.0,0.0274
2962.0,0.0273
2961.0,0.0272
2960.0,0.0271
2959.0,0.027
2958.0,0.0269
2957.0,0.0268
2956.0,0.0268
2955.0,0.0267
2954.0,0.0266
2953.0,0.0265
2952.0,0.0264
2951.0,0.0263
2950.0,0.0261
2949.0,0.0259
2948.0,0.0257
2947.0,0.0256
2946.0,0.0255
2945.0,0.0255
2944.0,0.0254
2943.0,0.0252
2942.0,0.0251
2941.0,0.025
2940.0,0.025
2939.0,0.025
2938.0,0.025
2937.0,0.025
2936.0,0.0251
2935.0,0.0251
2934.0,0.0251
2933.0,0.0251
2932.0,0.025
2931.0,0.025
2930.0,0.025
2929.0,0.025
2928.0,0.0251
2927.0,0.0251
2926.0,0.0251
2925.0,0.0251
2924.0,0.0251
2923.0,0.0249
2922.0,0.0248
2921.0,0.0246
2920.0,0.0245
2919.0,0.0244
2918.0,0.0242
2917.0,0.0241
2916.0,0.0239
2915.0,0.0237
2914.0,0.0235
2913.0,0.0234
2912.0,0.0232
2911.0,0.023
2910.0,0.0229
2909.0,0.0228
2908.0,0.0227
2907.0,0.0225
2906.0,0.0224
2905.0,0.0222
2904.0,0.0222
2903.0,0.0221
2902.0,0.0221
2901.0,0.022
2900.0,0.0219
2899.0,0.0217
2898.0,0.0216
2897.0,0.0216
2896.0,0.0215
2895.0,0.0215
2894.0,0.0214
2893.0,0.0213
2892.0,0.0212
2891.0,0.0211
2890.0,0.0211
2889.0,0.021
2888.0,0.0209
2887.0,0.0208
2886.0,0.0207
2885.0,0.0207
2884.0,0.0206
2883.0,0.0205
2882.0,0.0204
2881.0,0.0203
2880.0,0.0203
2879.0,0.0202
2878.0,0.0202
2877.0,0.0201
2876.0,0.02
2875.0,0.02
2874.0,0.0199
2873.0,0.0199
2872.0,0.0199
2871.0,0.0199
2870.0,0.0198
2869.0,0.0198
2868.0,0.0197
2867.0,0.0197
2866.0,0.0196
2865.0,0.0196
2864.0,0.0196
2863.0,0.0195
2862.0,0.0195
2861.0,0.0195
2860.0,0.0195
2859.0,0.0195
2858.0,0.0195
2857.0,0.0195
2856.0,0.0196
2855.0,0.0196
2854.0,0.0196
2853.0,0.0195
2852.0,0.0195
2851.0,0.0194
2850.0,0.0194
2849.0,0.0193
2848.0,0.0191
2847.0,0.0189
2846.0,0.0188
2845.0,0.0187
2844.0,0.0186
2843.0,0.0185
2842.0,0.0184
2841.0,0.0183
2840.0,0.0182
2839.0,0.0181
2838.0,0.0181
2837.0,0.018
2836.0,0.0178
2835.0,0.0177
2834.0,0.0176
2833.0,0.0175
2832.0,0.0175
2831.0,0.0175
2830.0,0.0175
2829.0,0.0175
2828.0,0.0174
2827.0,0.0174
2826.0,0.0173
2825.0,0.0172
2824.0,0.0172
2823.0,0.0172
2822.0,0.0172
2821.0,0.0171
2820.0,0.0171
2819.0,0.0172
2818.0,0.0172
2817.0,0.0171
2816.0,0.0171
2815.0,0.017
2814.0,0.017
2813.0,0.0169
2812.0,0.0168
2811.0,0.0168
2810.0,0.0168
2809.0,0.0168
2808.0,0.0168
2807.0,0.0168
2806.0,0.0167
2805.0,0.0167
2804.0,0.0166
2803.0,0.0166
2802.0,0.0165
2801.0,0.0164
2800.0,0.0164
2799.0,0.0163
2798.0,0.0163
2797.0,0.0163
2796.0,0.0163
2795.0,0.0163
2794.0,0.0163
2793.0,0.0162
2792.0,0.0162
2791.0,0.0161
2790.0,0.0161
2789.0,0.016
2788.0,0.016
2787.0,0.0159
2786.0,0.0159
2785.0,0.0159
2784.0,0.0159
2783.0,0.016
2782.0,0.016
2781.0,0.016
2780.0,0.0159
2779.0,0.0159
2778.0,0.0158
2777.0,0.0158
2776.0,0.0158
2775.0,0.0158
2774.0,0.0158
2773.0,0.0158
2772.0,0.0157
2771.0,0.0156
2770.0,0.0155
2769.0,0.0155
2768.0,0.0155
2767.0,0.0155
2766.0,0.0155
2765.0,0.0155
2764.0,0.0154
2763.0,0.0154
2762.0,0.0153
2761.0,0.0153
2760.0,0.0153
2759.0,0.0152
2758.0,0.0152
2757.0,0.0152
2756.0,0.0153
2755.0,0.0153
2754.0,0.0154
2753.0,0.0153
2752.0,0.0153
2751.0,0.0152
2750.0,0.0152
2749.0,0.0151
2748.0,0.015
2747.0,0.015
2746.0,0.015
2745.0,0.0149
2744.0,0.0149
2743.0,0.0149
2742.0,0.0149
2741.0,0.0149
2740.0,0.0149
2739.0,0.0148
2738.0,0.0148
2737.0,0.0148
2736.0,0.0147
2735.0,0.0147
2734.0,0.0147
2733.0,0.0146
2732.0,0.0145
2731.0,0.0144
2730.0,0.0144
2729.0,0.0144
2728.0,0.0145
2727.0,0.0146
2726.0,0.0147
2725.0,0.0147
2724.0,0.0146
2723.0,0.0145
2722.0,0.0144
2721.0,0.0144
2720.0,0.0144
2719.0,0.0144
2718.0,0.0144
2717.0,0.0144
2716.0,0.0144
2715.0,0.0144
2714.0,0.0143
2713.0,0.0143
2712.0,0.0143
2711.0,0.0143
2710.0,0.0143
2709.0,0.0143
2708.0,0.0143
2707.0,0.0142
2706.0,0.0141
2705.0,0.0141
2704.0,0.0141
2703.0,0.0142
2702.0,0.0143
2701.0,0.0143
2700.0,0.0143
2699.0,0.0142
2698.0,0.0141
2697.0,0.014
2696.0,0.0139
2695.0,0.0139
2694.0,0.0139
2693.0,0.0139
2692.0,0.0139
2691.0,0.0139
2690.0,0.0138
2689.0,0.0139
2688.0,0.0139
2687.0,0.0139
2686.0,0.0139
2685.0,0.0139
2684.0,0.0139
2683.0,0.0138
2682.0,0.0138
2681.0,0.0137
2680.0,0.0137
2679.0,0.0136
2678.0,0.0136
2677.0,0.0136
2676.0,0.0136
2675.0,0.0136
2674.0,0.0136
2673.0,0.0136
2672.0,0.0136
2671.0,0.0136
2670.0,0.0136
2669.0,0.0137
2668.0,0.0137
2667.0,0.0137
2666.0,0.0137
2665.0,0.0136
2664.0,0.0136
2663.0,0.0135
2662.0,0.0135
2661.0,0.0135
2660.0,0.0135
2659.0,0.0134
2658.0,0.0134
2657.0,0.0134
2656.0,0.0135
2655.0,0.0135
2654.0,0.0135
2653.0,0.0135
2652.0,0.0134
2651.0,0.0134
2650.0,0.0134
2649.0,0.0133
2648.0,0.0134
2647.0,0.0134
2646.0,0.0134
2645.0,0.0133
2644.0,0.0133
2643.0,0.0132
2642.0,0.0132
2641.0,0.0132
2640.0,0.0133
2639.0,0.0133
2638.0,0.0133
2637.0,0.0133
2636.0,0.0133
2635.0,0.0132
2634.0,0.0132
2633.0,0.0131
2632.0,0.013
2631.0,0.013
2630.0,0.0131
2629.0,0.0131
2628.0,0.0131
2627.0,0.0131
2626.0,0.0131
2625.0,0.0131
2624.0,0.0131
2623.0,0.0131
2622.0,0.0131
2621.0,0.0131
2620.0,0.0131
2619.0,0.0131
2618.0,0.0131
2617.0,0.0131
2616.0,0.0131
2615.0,0.0131
2614.0,0.0131
2613.0,0.0131
2612.0,0.013
2611.0,0.013
2610.0,0.0129
2609.0,0.0129
2608.0,0.0129
2607.0,0.0129
2606.0,0.0129
2605.0,0.0129
2604.0,0.0129
2603.0,0.0129
2602.0,0.0128
2601.0,0.0128
2600.0,0.0128
2599.0,0.0128
2598.0,0.0128
2597.0,0.0128
2596.0,0.0128
2595.0,0.0128
2594.0,0.0128
2593.0,0.0128
2592.0,0.0128
2591.0,0.0128
2590.0,0.0128
2589.0,0.0128
2588.0,0.0129
2587.0,0.0129
2586.0,0.0129
2585.0,0.0129
2584.0,0.0128
2583.0,0.0128
2582.0,0.0128
2581.0,0.0128
2580.0,0.0127
2579.0,0.0126
2578.0,0.0126
2577.0,0.0126
2576.0,0.0126
2575.0,0.0126
2574.0,0.0126
2573.0,0.0127
2572.0,0.0127
2571.0,0.0128
2570.0,0.0128
2569.0,0.0128
2568.0,0.0128
2567.0,0.0127
2566.0,0.0127
2565.0,0.0127
2564.0,0.0127
2563.0,0.0127
2562.0,0.0127
2561.0,0.0127
2560.0,0.0127
2559.0,0.0127
2558.0,0.0127
2557.0,0.0127
2556.0,0.0128
2555.0,0.0128
2554.0,0.0128
2553.0,0.0128
2552.0,0.0129
2551.0,0.0129
2550.0,0.0129
2549.0,0.0129
2548.0,0.0129
2547.0,0.0129
2546.0,0.0128
2545.0,0.0128
2544.0,0.0128
2543.0,0.0128
2542.0,0.0128
2541.0,0.0128
2540.0,0.0128
2539.0,0.0128
2538.0,0.0128
2537.0,0.0128
2536.0,0.0129
2535.0,0.0129
2534.0,0.0129
2533.0,0.0129
2532.0,0.0128
2531.0,0.0128
2530.0,0.0128
2529.0,0.0127
2528.0,0.0127
2527.0,0.0126
2526.0,0.0126
2525.0,0.0126
2524.0,0.0126
2523.0,0.0127
2522.0,0.0128
2521.0,0.0128
2520.0,0.0128
2519.0,0.0127
2518.0,0.0126
2517.0,0.0125
2516.0,0.0125
2515.0,0.0126
2514.0,0.0126
2513.0,0.0127
2512.0,0.0127
2511.0,0.0128
2510.0,0.0129
2509.0,0.0129
2508.0,0.013
2507.0,0.013
2506.0,0.0129
2505.0,0.0129
2504.0,0.0128
2503.0,0.0129
2502.0,0.0129
2501.0,0.013
2500.0,0.013
2499.0,0.013
2498.0,0.013
2497.0,0.013
2496.0,0.013
2495.0,0.013
2494.0,0.0129
2493.0,0.0129
2492.0,0.0129
2491.0,0.0129
2490.0,0.0129
2489.0,0.013
2488.0,0.013
2487.0,0.0131
2486.0,0.0131
2485.0,0.0131
2484.0,0.0131
2483.0,0.0132
2482.0,0.0131
2481.0,0.0131
2480.0,0.0131
2479.0,0.0131
2478.0,0.0131
2477.0,0.0131
2476.0,0.0132
2475.0,0.0133
2474.0,0.0133
2473.0,0.0134
2472.0,0.0134
2471.0,0.0134
2470.0,0.0134
2469.0,0.0134
2468.0,0.0134
2467.0,0.0134
2466.0,0.0134
2465.0,0.0134
2464.0,0.0134
2463.0,0.0134
2462.0,0.0134
2461.0,0.0134
2460.0,0.0134
2459.0,0.0134
2458.0,0.0135
2457.0,0.0136
2456.0,0.0136
2455.0,0.0136
2454.0,0.0136
2453.0,0.0137
2452.0,0.0137
2451.0,0.0136
2450.0,0.0136
2449.0,0.0135
2448.0,0.0136
2447.0,0.0136
2446.0,0.0137
2445.0,0.0137
2444.0,0.0137
2443.0,0.0138
2442.0,0.0138
2441.0,0.0138
2440.0,0.0138
2439.0,0.0138
2438.0,0.0139
2437.0,0.0139
2436.0,0.0139
2435.0,0.0139
2434.0,0.014
2433.0,0.014
2432.0,0.0141
2431.0,0.0141
2430.0,0.014
2429.0,0.014
2428.0,0.014
2427.0,0.014
2426.0,0.014
2425.0,0.014
2424.0,0.0141
2423.0,0.0141
2422.0,0.0141
2421.0,0.0141
2420.0,0.0142
2419.0,0.0142
2418.0,0.0142
2417.0,0.0143
2416.0,0.0143
2415.0,0.0144
2414.0,0.0144
2413.0,0.0145
2412.0,0.0144
2411.0,0.0144
2410.0,0.0144
2409.0,0.0144
2408.0,0.0144
2407.0,0.0144
2406.0,0.0144
2405.0,0.0144
2404.0,0.0144
2403.0,0.0144
2402.0,0.0145
2401.0,0.0146
2400.0,0.0146
2399.0,0.0147
2398.0,0.0147
2397.0,0.0147
2396.0,0.0147
2395.0,0.0147
2394.0,0.0146
2393.0,0.0146
2392.0,0.0145
2391.0,0.0146
2390.0,0.0146
2389.0,0.0146
2388.0,0.0144
2387.0,0.0143
2386.0,0.014
2385.0,0.0139
2384.0,0.0137
2383.0,0.0137
2382.0,0.0137
2381.0,0.0139
2380.0,0.0141
2379.0,0.0144
2378.0,0.0145
2377.0,0.0146
2376.0,0.0145
2375.0,0.0142
2374.0,0.0139
2373.0,0.0135
2372.0,0.0133
2371.0,0.0132
2370.0,0.0133
2369.0,0.0137
2368.0,0.0141
2367.0,0.0144
2366.0,0.0144
2365.0,0.0145
2364.0,0.0146
2363.0,0.0143
2362.0,0.0133
2361.0,0.0123
2360.0,0.012
2359.0,0.0125
2358.0,0.0133
2357.0,0.0139
2356.0,0.0142
2355.0,0.0143
2354.0,0.0143
2353.0,0.0144
2352.0,0.0144
2351.0,0.0141
2350.0,0.0137
2349.0,0.0136
2348.0,0.0137
2347.0,0.014
2346.0,0.0141
2345.0,0.0137
2344.0,0.0131
2343.0,0.0125
2342.0,0.0126
2341.0,0.0134
2340.0,0.0142
2339.0,0.0146
2338.0,0.0147
2337.0,0.0146
2336.0,0.0145
2335.0,0.0144
2334.0,0.0146
2333.0,0.015
2332.0,0.0153
2331.0,0.0151
2330.0,0.0145
2329.0,0.0136
2328.0,0.013
2327.0,0.0129
2326.0,0.0133
2325.0,0.0139
2324.0,0.0145
2323.0,0.015
2322.0,0.015
2321.0,0.0148
2320.0,0.0145
2319.0,0.0142
2318.0,0.0141
2317.0,0.0142
2316.0,0.0143
2315.0,0.0143
2314.0,0.0143
2313.0,0.0142
2312.0,0.014
2311.0,0.014
2310.0,0.014
2309.0,0.014
2308.0,0.0141
2307.0,0.0143
2306.0,0.0145
2305.0,0.0146
2304.0,0.0146
2303.0,0.0144
2302.0,0.0143
2301.0,0.0142
2300.0,0.0142
2299.0,0.0142
2298.0,0.0143
2297.0,0.0144
2296.0,0.0145
2295.0,0.0145
2294.0,0.0146
2293.0,0.0147
2292.0,0.0149
2291.0,0.015
2290.0,0.015
2289.0,0.0151
2288.0,0.0152
2287.0,0.0154
2286.0,0.0155
2285.0,0.0155
2284.0,0.0156
2283.0,0.0156
2282.0,0.0157
2281.0,0.0157
2280.0,0.0157
2279.0,0.0157
2278.0,0.0156
2277.0,0.0156
2276.0,0.0156
2275.0,0.0156
2274.0,0.0157
2273.0,0.0156
2272.0,0.0156
2271.0,0.0156
2270.0,0.0156
2269.0,0.0156
2268.0,0.0155
2267.0,0.0155
2266.0,0.0156
2265.0,0.0156
2264.0,0.0156
2263.0,0.0156
2262.0,0.0156
2261.0,0.0156
2260.0,0.0156
2259.0,0.0156
2258.0,0.0156
2257.0,0.0156
2256.0,0.0156
2255.0,0.0156
2254.0,0.0156
2253.0,0.0155
2252.0,0.0155
2251.0,0.0155
2250.0,0.0155
2249.0,0.0155
2248.0,0.0155
2247.0,0.0155
2246.0,0.0155
2245.0,0.0156
2244.0,0.0156
2243.0,0.0157
2242.0,0.0157
2241.0,0.0157
2240.0,0.0157
2239.0,0.0156
2238.0,0.0156
2237.0,0.0155
2236.0,0.0155
2235.0,0.0156
2234.0,0.0156
2233.0,0.0156
2232.0,0.0155
2231.0,0.0155
2230.0,0.0154
2229.0,0.0154
2228.0,0.0154
2227.0,0.0153
2226.0,0.0153
2225.0,0.0153
2224.0,0.0153
2223.0,0.0153
2222.0,0.0153
2221.0,0.0153
2220.0,0.0154
2219.0,0.0154
2218.0,0.0154
2217.0,0.0153
2216.0,0.0153
2215.0,0.0152
2214.0,0.0152
2213.0,0.0152
2212.0,0.0151
2211.0,0.0151
2210.0,0.0151
2209.0,0.0151
2208.0,0.0151
2207.0,0.0151
2206.0,0.0151
2205.0,0.0151
2204.0,0.0151
2203.0,0.015
2202.0,0.015
2201.0,0.015
2200.0,0.015
2199.0,0.015
2198.0,0.0149
2197.0,0.0149
2196.0,0.0148
2195.0,0.0148
2194.0,0.0148
2193.0,0.0148
2192.0,0.0149
2191.0,0.0149
2190.0,0.0149
2189.0,0.0149
2188.0,0.0148
2187.0,0.0148
2186.0,0.0147
2185.0,0.0148
2184.0,0.0148
2183.0,0.0148
2182.0,0.0148
2181.0,0.0148
2180.0,0.0148
2179.0,0.0147
2178.0,0.0147
2177.0,0.0148
2176.0,0.0148
2175.0,0.0148
2174.0,0.0147
2173.0,0.0147
2172.0,0.0146
2171.0,0.0146
2170.0,0.0146
2169.0,0.0145
2168.0,0.0145
2167.0,0.0145
2166.0,0.0145
2165.0,0.0146
2164.0,0.0146
2163.0,0.0145
2162.0,0.0145
2161.0,0.0144
2160.0,0.0144
2159.0,0.0144
2158.0,0.0143
2157.0,0.0144
2156.0,0.0144
2155.0,0.0143
2154.0,0.0143
2153.0,0.0143
2152.0,0.0143
2151.0,0.0143
2150.0,0.0143
2149.0,0.0143
2148.0,0.0143
2147.0,0.0144
2146.0,0.0144
2145.0,0.0144
2144.0,0.0144
2143.0,0.0143
2142.0,0.0142
2141.0,0.0142
2140.0,0.0142
2139.0,0.0143
2138.0,0.0144
2137.0,0.0144
2136.0,0.0145
2135.0,0.0144
2134.0,0.0144
2133.0,0.0143
2132.0,0.0143
2131.0,0.0142
2130.0,0.0142
2129.0,0.0143
2128.0,0.0143
2127.0,0.0144
2126.0,0.0145
2125.0,0.0144
2124.0,0.0144
2123.0,0.0144
2122.0,0.0143
2121.0,0.0144
2120.0,0.0144
2119.0,0.0144
2118.0,0.0144
2117.0,0.0144
2116.0,0.0144
2115.0,0.0144
2114.0,0.0144
2113.0,0.0145
2112.0,0.0144
2111.0,0.0144
2110.0,0.0144
2109.0,0.0144
2108.0,0.0144
2107.0,0.0144
2106.0,0.0144
2105.0,0.0144
2104.0,0.0144
2103.0,0.0144
2102.0,0.0144
2101.0,0.0144
2100.0,0.0143
2099.0,0.0144
2098.0,0.0144
2097.0,0.0144
2096.0,0.0143
2095.0,0.0143
2094.0,0.0143
2093.0,0.0144
2092.0,0.0144
2091.0,0.0144
2090.0,0.0144
2089.0,0.0144
2088.0,0.0144
2087.0,0.0144
2086.0,0.0144
2085.0,0.0144
2084.0,0.0144
2083.0,0.0144
2082.0,0.0144
2081.0,0.0145
2080.0,0.0144
2079.0,0.0144
2078.0,0.0144
2077.0,0.0143
2076.0,0.0143
2075.0,0.0143
2074.0,0.0143
2073.0,0.0143
2072.0,0.0143
2071.0,0.0143
2070.0,0.0143
2069.0,0.0144
2068.0,0.0144
2067.0,0.0143
2066.0,0.0143
2065.0,0.0143
2064.0,0.0143
2063.0,0.0143
2062.0,0.0144
2061.0,0.0144
2060.0,0.0144
2059.0,0.0143
2058.0,0.0142
2057.0,0.0141
2056.0,0.014
2055.0,0.014
2054.0,0.0139
2053.0,0.0139
2052.0,0.0139
2051.0,0.0139
2050.0,0.0139
2049.0,0.0139
2048.0,0.0138
2047.0,0.0138
2046.0,0.0138
2045.0,0.0138
2044.0,0.0138
2043.0,0.0138
2042.0,0.0138
2041.0,0.0137
2040.0,0.0137
2039.0,0.0136
2038.0,0.0136
2037.0,0.0136
2036.0,0.0136
2035.0,0.0136
2034.0,0.0135
2033.0,0.0135
2032.0,0.0134
2031.0,0.0134
2030.0,0.0134
2029.0,0.0134
2028.0,0.0135
2027.0,0.0135
2026.0,0.0135
2025.0,0.0135
2024.0,0.0135
2023.0,0.0135
2022.0,0.0135
2021.0,0.0134
2020.0,0.0134
2019.0,0.0133
2018.0,0.0133
2017.0,0.0132
2016.0,0.0131
2015.0,0.0131
2014.0,0.0131
2013.0,0.0131
2012.0,0.0131
2011.0,0.0131
2010.0,0.0131
2009.0,0.0131
2008.0,0.013
2007.0,0.013
2006.0,0.013
2005.0,0.013
2004.0,0.013
2003.0,0.013
2002.0,0.013
2001.0,0.013
2000.0,0.013
1999.0,0.013
1998.0,0.0131
1997.0,0.0131
1996.0,0.013
1995.0,0.013
1994.0,0.0129
1993.0,0.0128
1992.0,0.0127
1991.0,0.0127
1990.0,0.0127
1989.0,0.0128
1988.0,0.0128
1987.0,0.0128
1986.0,0.0128
1985.0,0.0128
1984.0,0.0128
1983.0,0.0128
1982.0,0.0128
1981.0,0.0128
1980.0,0.0128
1979.0,0.0128
1978.0,0.0128
1977.0,0.0128
1976.0,0.0127
1975.0,0.0127
1974.0,0.0127
1973.0,0.0127
1972.0,0.0127
1971.0,0.0127
1970.0,0.0127
1969.0,0.0127
1968.0,0.0127
1967.0,0.0126
1966.0,0.0126
1965.0,0.0127
1964.0,0.0127
1963.0,0.0126
1962.0,0.0126
1961.0,0.0126
1960.0,0.0125
1959.0,0.0125
1958.0,0.0126
1957.0,0.0125
1956.0,0.0125
1955.0,0.0125
1954.0,0.0125
1953.0,0.0125
1952.0,0.0125
1951.0,0.0125
1950.0,0.0125
1949.0,0.0125
1948.0,0.0125
1947.0,0.0125
1946.0,0.0125
1945.0,0.0125
1944.0,0.0125
1943.0,0.0124
1942.0,0.0124
1941.0,0.0124
1940.0,0.0124
1939.0,0.0125
1938.0,0.0125
1937.0,0.0124
1936.0,0.0124
1935.0,0.0123
1934.0,0.0123
1933.0,0.0123
1932.0,0.0123
1931.0,0.0124
1930.0,0.0124
1929.0,0.0124
1928.0,0.0124
1927.0,0.0124
1926.0,0.0124
1925.0,0.0124
1924.0,0.0124
1923.0,0.0124
1922.0,0.0124
1921.0,0.0124
1920.0,0.0124
1919.0,0.0123
1918.0,0.0122
1917.0,0.0122
1916.0,0.0122
1915.0,0.0123
1914.0,0.0124
1913.0,0.0124
1912.0,0.0124
1911.0,0.0124
1910.0,0.0124
1909.0,0.0123
1908.0,0.0124
1907.0,0.0124
1906.0,0.0124
1905.0,0.0124
1904.0,0.0124
1903.0,0.0124
1902.0,0.0124
1901.0,0.0124
1900.0,0.0124
1899.0,0.0124
1898.0,0.0124
1897.0,0.0124
1896.0,0.0124
1895.0,0.0124
1894.0,0.0124
1893.0,0.0124
1892.0,0.0124
1891.0,0.0125
1890.0,0.0124
1889.0,0.0124
1888.0,0.0124
1887.0,0.0123
1886.0,0.0123
1885.0,0.0123
1884.0,0.0123
1883.0,0.0123
1882.0,0.0123
1881.0,0.0123
1880.0,0.0124
1879.0,0.0124
1878.0,0.0124
1877.0,0.0124
1876.0,0.0124
1875.0,0.0124
1874.0,0.0124
1873.0,0.0124
1872.0,0.0124
1871.0,0.0124
1870.0,0.0123
1869.0,0.0122
1868.0,0.0122
1867.0,0.0122
1866.0,0.0122
1865.0,0.0123
1864.0,0.0123
1863.0,0.0124
1862.0,0.0124
1861.0,0.0124
1860.0,0.0124
1859.0,0.0124
1858.0,0.0124
1857.0,0.0124
1856.0,0.0124
1855.0,0.0124
1854.0,0.0124
1853.0,0.0124
1852.0,0.0124
1851.0,0.0124
1850.0,0.0124
1849.0,0.0124
1848.0,0.0124
1847.0,0.0124
1846.0,0.0124
1845.0,0.0124
1844.0,0.0123
1843.0,0.0123
1842.0,0.0122
1841.0,0.0123
1840.0,0.0123
1839.0,0.0123
1838.0,0.0123
1837.0,0.0124
1836.0,0.0124
1835.0,0.0124
1834.0,0.0124
1833.0,0.0124
1832.0,0.0124
1831.0,0.0124
1830.0,0.0123
1829.0,0.0122
1828.0,0.0122
1827.0,0.0123
1826.0,0.0123
1825.0,0.0123
1824.0,0.0123
1823.0,0.0123
1822.0,0.0124
1821.0,0.0124
1820.0,0.0124
1819.0,0.0124
1818.0,0.0124
1817.0,0.0124
1816.0,0.0124
1815.0,0.0124
1814.0,0.0124
1813.0,0.0125
1812.0,0.0125
1811.0,0.0125
1810.0,0.0125
1809.0,0.0125
1808.0,0.0125
1807.0,0.0125
1806.0,0.0126
1805.0,0.0126
1804.0,0.0127
1803.0,0.0127
1802.0,0.0127
1801.0,0.0126
1800.0,0.0126
1799.0,0.0126
1798.0,0.0126
1797.0,0.0126
1796.0,0.0126
1795.0,0.0127
1794.0,0.0127
1793.0,0.0126
1792.0,0.0126
1791.0,0.0126
1790.0,0.0127
1789.0,0.0127
1788.0,0.0128
1787.0,0.0128
1786.0,0.0129
1785.0,0.0129
1784.0,0.0129
1783.0,0.0129
1782.0,0.0129
1781.0,0.013
1780.0,0.013
1779.0,0.013
1778.0,0.013
1777.0,0.0131
1776.0,0.0132
1775.0,0.0133
1774.0,0.0133
1773.0,0.0133
1772.0,0.0133
1771.0,0.0133
1770.0,0.0133
1769.0,0.0134
1768.0,0.0134
1767.0,0.0135
1766.0,0.0135
1765.0,0.0136
1764.0,0.0137
1763.0,0.0137
1762.0,0.0137
1761.0,0.0137
1760.0,0.0138
1759.0,0.0139
1758.0,0.014
1757.0,0.014
1756.0,0.0141
1755.0,0.0142
1754.0,0.0144
1753.0,0.0145
1752.0,0.0145
1751.0,0.0145
1750.0,0.0146
1749.0,0.0147
1748.0,0.0148
1747.0,0.015
1746.0,0.0151
1745.0,0.0152
1744.0,0.0153
1743.0,0.0154
1742.0,0.0155
1741.0,0.0155
1740.0,0.0155
1739.0,0.0157
1738.0,0.0159
1737.0,0.0162
1736.0,0.0164
1735.0,0.0165
1734.0,0.0165
1733.0,0.0167
1732.0,0.0168
1731.0,0.017
1730.0,0.0172
1729.0,0.0173
1728.0,0.0174
1727.0,0.0176
1726.0,0.0178
1725.0,0.018
1724.0,0.0182
1723.0,0.0184
1722.0,0.0186
1721.0,0.0188
1720.0,0.0191
1719.0,0.0193
1718.0,0.0195
1717.0,0.0197
1716.0,0.02
1715.0,0.0203
1714.0,0.0205
1713.0,0.0207
1712.0,0.021
1711.0,0.0213
1710.0,0.0215
1709.0,0.0218
1708.0,0.0221
1707.0,0.0224
1706.0,0.0228
1705.0,0.0232
1704.0,0.0235
1703.0,0.0238
1702.0,0.024
1701.0,0.0242
1700.0,0.0248
1699.0,0.0255
1698.0,0.026
1697.0,0.0268
1696.0,0.0276
1695.0,0.0281
1694.0,0.0284
1693.0,0.0288
1692.0,0.0293
1691.0,0.0299
1690.0,0.0306
1689.0,0.0312
1688.0,0.032
1687.0,0.0326
1686.0,0.0333
1685.0,0.0344
1684.0,0.036
1683.0,0.0369
1682.0,0.0374
1681.0,0.0382
1680.0,0.0391
1679.0,0.0399
1678.0,0.0406
1677.0,0.0412
1676.0,0.0422
1675.0,0.0433
1674.0,0.0442
1673.0,0.0448
1672.0,0.0455
1671.0,0.0464
1670.0,0.0477
1669.0,0.049
1668.0,0.0501
1667.0,0.0509
1666.0,0.0514
1665.0,0.052
1664.0,0.0529
1663.0,0.0541
1662.0,0.0552
1661.0,0.056
1660.0,0.0567
1659.0,0.0573
1658.0,0.0579
1657.0,0.0583
1656.0,0.0587
1655.0,0.059
1654.0,0.06
1653.0,0.062
1652.0,0.0631
1651.0,0.0632
1650.0,0.0632
1649.0,0.0632
1648.0,0.0637
1647.0,0.0646
1646.0,0.0653
1645.0,0.0655
1644.0,0.0655
1643.0,0.0655
1642.0,0.0655
1641.0,0.0653
1640.0,0.0651
1639.0,0.0648
1638.0,0.0643
1637.0,0.0637
1636.0,0.063
1635.0,0.0623
1634.0,0.0616
1633.0,0.0608
1632.0,0.0601
1631.0,0.0593
1630.0,0.0583
1629.0,0.0572
1628.0,0.0561
1627.0,0.0552
1626.0,0.0544
1625.0,0.0535
1624.0,0.0526
1623.0,0.0516
1622.0,0.0508
1621.0,0.0501
1620.0,0.0495
1619.0,0.0489
1618.0,0.0481
1617.0,0.0471
1616.0,0.0462
1615.0,0.0455
1614.0,0.045
1613.0,0.0445
1612.0,0.0439
1611.0,0.0433
1610.0,0.0427
1609.0,0.0422
1608.0,0.0416
1607.0,0.041
1606.0,0.0405
1605.0,0.04
1604.0,0.0395
1603.0,0.039
1602.0,0.0386
1601.0,0.0381
1600.0,0.0376
1599.0,0.0372
1598.0,0.0367
1597.0,0.0363
1596.0,0.0359
1595.0,0.0355
1594.0,0.0352
1593.0,0.0349
1592.0,0.0345
1591.0,0.0342
1590.0,0.0338
1589.0,0.0335
1588.0,0.0332
1587.0,0.0329
1586.0,0.0326
1585.0,0.0323
1584.0,0.032
1583.0,0.0318
1582.0,0.0315
1581.0,0.0313
1580.0,0.031
1579.0,0.0309
1578.0,0.0307
1577.0,0.0303
1576.0,0.0299
1575.0,0.0297
1574.0,0.0295
1573.0,0.0294
1572.0,0.0292
1571.0,0.029
1570.0,0.0287
1569.0,0.0285
1568.0,0.0283
1567.0,0.0281
1566.0,0.0279
1565.0,0.0277
1564.0,0.0276
1563.0,0.0275
1562.0,0.0276
1561.0,0.0274
1560.0,0.0271
1559.0,0.0268
1558.0,0.0265
1557.0,0.0263
1556.0,0.0262
1555.0,0.0262
1554.0,0.0261
1553.0,0.0261
1552.0,0.026
1551.0,0.026
1550.0,0.0259
1549.0,0.0257
1548.0,0.0255
1547.0,0.0254
1546.0,0.0252
1545.0,0.0251
1544.0,0.0249
1543.0,0.0247
1542.0,0.0245
1541.0,0.0244
1540.0,0.0245
1539.0,0.0246
1538.0,0.0245
1537.0,0.0245
1536.0,0.0245
1535.0,0.0245
1534.0,0.0244
1533.0,0.0243
1532.0,0.0243
1531.0,0.0242
1530.0,0.0242
1529.0,0.0241
1528.0,0.024
1527.0,0.0238
1526.0,0.0236
1525.0,0.0235
1524.0,0.0234
1523.0,0.0234
1522.0,0.0233
1521.0,0.0233
1520.0,0.0232
1519.0,0.0231
1518.0,0.0231
1517.0,0.0231
1516.0,0.0231
1515.0,0.023
1514.0,0.0228
1513.0,0.0227
1512.0,0.0226
1511.0,0.0226
1510.0,0.0226
1509.0,0.0226
1508.0,0.0225
1507.0,0.0225
1506.0,0.0225
1505.0,0.0222
1504.0,0.0221
1503.0,0.0221
1502.0,0.0221
1501.0,0.0221
1500.0,0.022
1499.0,0.022
1498.0,0.022
1497.0,0.022
1496.0,0.022
1495.0,0.022
1494.0,0.022
1493.0,0.022
1492.0,0.022
1491.0,0.0221
1490.0,0.0221
1489.0,0.0221
1488.0,0.0221
1487.0,0.0221
1486.0,0.0221
1485.0,0.0221
1484.0,0.0221
1483.0,0.0221
1482.0,0.0222
1481.0,0.0222
1480.0,0.0222
1479.0,0.0222
1478.0,0.0222
1477.0,0.0223
1476.0,0.0224
1475.0,0.0225
1474.0,0.0225
1473.0,0.0226
1472.0,0.0227
1471.0,0.0228
1470.0,0.0228
1469.0,0.0228
1468.0,0.0229
1467.0,0.0229
1466.0,0.023
1465.0,0.023
1464.0,0.023
1463.0,0.023
1462.0,0.0231
1461.0,0.0231
1460.0,0.0232
1459.0,0.0232
1458.0,0.0232
1457.0,0.0232
1456.0,0.0231
1455.0,0.023
1454.0,0.023
1453.0,0.0231
1452.0,0.0232
1451.0,0.0231
1450.0,0.0231
1449.0,0.023
1448.0,0.023
1447.0,0.023
1446.0,0.023
1445.0,0.023
1444.0,0.0229
1443.0,0.0229
1442.0,0.0229
1441.0,0.0229
1440.0,0.0229
1439.0,0.0229
1438.0,0.0228
1437.0,0.0227
1436.0,0.0227
1435.0,0.0227
1434.0,0.0227
1433.0,0.0227
1432.0,0.0226
1431.0,0.0226
1430.0,0.0225
1429.0,0.0225
1428.0,0.0225
1427.0,0.0225
1426.0,0.0225
1425.0,0.0224
1424.0,0.0224
1423.0,0.0224
1422.0,0.0224
1421.0,0.0224
1420.0,0.0224
1419.0,0.0224
1418.0,0.0223
1417.0,0.0223
1416.0,0.0223
1415.0,0.0223
1414.0,0.0223
1413.0,0.0222
1412.0,0.0222
1411.0,0.0221
1410.0,0.0221
1409.0,0.0221
1408.0,0.0222
1407.0,0.0222
1406.0,0.0222
1405.0,0.0221
1404.0,0.0221
1403.0,0.0221
1402.0,0.0221
1401.0,0.0222
1400.0,0.0222
1399.0,0.0221
1398.0,0.0221
1397.0,0.0221
1396.0,0.0222
1395.0,0.0222
1394.0,0.0222
1393.0,0.0222
1392.0,0.0221
1391.0,0.0221
1390.0,0.0221
1389.0,0.0221
1388.0,0.0221
1387.0,0.0221
1386.0,0.0222
1385.0,0.0222
1384.0,0.0222
1383.0,0.0222
1382.0,0.0222
1381.0,0.0223
1380.0,0.0224
1379.0,0.0225
1378.0,0.0225
1377.0,0.0226
1376.0,0.0226
1375.0,0.0226
1374.0,0.0227
1373.0,0.0226
1372.0,0.0226
1371.0,0.0226
1370.0,0.0226
1369.0,0.0225
1368.0,0.0225
1367.0,0.0225
1366.0,0.0225
1365.0,0.0225
1364.0,0.0224
1363.0,0.0224
1362.0,0.0224
1361.0,0.0224
1360.0,0.0223
1359.0,0.0223
1358.0,0.0222
1357.0,0.0222
1356.0,0.0222
1355.0,0.0222
1354.0,0.0222
1353.0,0.0223
1352.0,0.0223
1351.0,0.0222
1350.0,0.0222
1349.0,0.0222
1348.0,0.0223
1347.0,0.0223
1346.0,0.0222
1345.0,0.0222
1344.0,0.0222
1343.0,0.0222
1342.0,0.0222
1341.0,0.0223
1340.0,0.0224
1339.0,0.0224
1338.0,0.0224
1337.0,0.0224
1336.0,0.0223
1335.0,0.0223
1334.0,0.0223
1333.0,0.0223
1332.0,0.0223
1331.0,0.0223
1330.0,0.0223
1329.0,0.0223
1328.0,0.0224
1327.0,0.0224
1326.0,0.0225
1325.0,0.0225
1324.0,0.0225
1323.0,0.0226
1322.0,0.0226
1321.0,0.0226
1320.0,0.0226
1319.0,0.0226
1318.0,0.0225
1317.0,0.0225
1316.0,0.0225
1315.0,0.0226
1314.0,0.0226
1313.0,0.0226
1312.0,0.0226
1311.0,0.0226
1310.0,0.0227
1309.0,0.0227
1308.0,0.0228
1307.0,0.0228
1306.0,0.0228
1305.0,0.0227
1304.0,0.0227
1303.0,0.0227
1302.0,0.0227
1301.0,0.0228
1300.0,0.0229
1299.0,0.0229
1298.0,0.0229
1297.0,0.0229
1296.0,0.0229
1295.0,0.023
1294.0,0.023
1293.0,0.0231
1292.0,0.0232
1291.0,0.0232
1290.0,0.0233
1289.0,0.0233
1288.0,0.0233
1287.0,0.0233
1286.0,0.0233
1285.0,0.0233
1284.0,0.0233
1283.0,0.0233
1282.0,0.0234
1281.0,0.0234
1280.0,0.0234
1279.0,0.0234
1278.0,0.0235
1277.0,0.0235
1276.0,0.0236
1275.0,0.0236
1274.0,0.0237
1273.0,0.0237
1272.0,0.0238
1271.0,0.0239
1270.0,0.024
1269.0,0.024
1268.0,0.0241
1267.0,0.0242
1266.0,0.0242
1265.0,0.0242
1264.0,0.0242
1263.0,0.0243
1262.0,0.0243
1261.0,0.0244
1260.0,0.0245
1259.0,0.0246
1258.0,0.0246
1257.0,0.0247
1256.0,0.0247
1255.0,0.0248
1254.0,0.0248
1253.0,0.0249
1252.0,0.0249
1251.0,0.025
1250.0,0.0251
1249.0,0.0252
1248.0,0.0253
1247.0,0.0254
1246.0,0.0255
1245.0,0.0256
1244.0,0.0257
1243.0,0.0258
1242.0,0.0259
1241.0,0.026
1240.0,0.0261
1239.0,0.0262
1238.0,0.0263
1237.0,0.0264
1236.0,0.0265
1235.0,0.0265
1234.0,0.0266
1233.0,0.0267
1232.0,0.0268
1231.0,0.0269
1230.0,0.027
1229.0,0.027
1228.0,0.027
1227.0,0.0271
1226.0,0.0272
1225.0,0.0273
1224.0,0.0275
1223.0,0.0275
1222.0,0.0276
1221.0,0.0276
1220.0,0.0277
1219.0,0.0278
1218.0,0.0279
1217.0,0.0281
1216.0,0.0282
1215.0,0.0284
1214.0,0.0285
1213.0,0.0287
1212.0,0.0288
1211.0,0.0289
1210.0,0.029
1209.0,0.029
1208.0,0.0292
1207.0,0.0293
1206.0,0.0295
1205.0,0.0297
1204.0,0.0299
1203.0,0.0301
1202.0,0.0303
1201.0,0.0305
1200.0,0.0307
1199.0,0.031
1198.0,0.0312
1197.0,0.0315
1196.0,0.0318
1195.0,0.0321
1194.0,0.0324
1193.0,0.0326
1192.0,0.0329
1191.0,0.0333
1190.0,0.0337
1189.0,0.0341
1188.0,0.0345
1187.0,0.0348
1186.0,0.0352
1185.0,0.0355
1184.0,0.0359
1183.0,0.0362
1182.0,0.0366
1181.0,0.037
1180.0,0.0375
1179.0,0.0379
1178.0,0.0384
1177.0,0.0388
1176.0,0.0393
1175.0,0.0398
1174.0,0.0403
1173.0,0.0408
1172.0,0.0413
1171.0,0.0419
1170.0,0.0424
1169.0,0.043
1168.0,0.0436
1167.0,0.0441
1166.0,0.0448
1165.0,0.0454
1164.0,0.0461
1163.0,0.0468
1162.0,0.0476
1161.0,0.0483
1160.0,0.0491
1159.0,0.05
1158.0,0.0508
1157.0,0.0516
1156.0,0.0524
1155.0,0.0531
1154.0,0.0539
1153.0,0.0547
1152.0,0.0555
1151.0,0.0563
1150.0,0.0571
1149.0,0.058
1148.0,0.059
1147.0,0.0599
1146.0,0.0608
1145.0,0.0617
1144.0,0.0625
1143.0,0.0633
1142.0,0.0642
1141.0,0.065
1140.0,0.0659
1139.0,0.0669
1138.0,0.0678
1137.0,0.0688
1136.0,0.0698
1135.0,0.0709
1134.0,0.0719
1133.0,0.0728
1132.0,0.0738
1131.0,0.0748
1130.0,0.0758
1129.0,0.0769
1128.0,0.0779
1127.0,0.079
1126.0,0.0801
1125.0,0.0813
1124.0,0.0825
1123.0,0.0837
1122.0,0.0848
1121.0,0.086
1120.0,0.0871
1119.0,0.0883
1118.0,0.0895
1117.0,0.0906
1116.0,0.0917
1115.0,0.0928
1114.0,0.0939
1113.0,0.095
1112.0,0.096
1111.0,0.0971
1110.0,0.0981
1109.0,0.0991
1108.0,0.1001
1107.0,0.1011
1106.0,0.102
1105.0,0.103
1104.0,0.104
1103.0,0.1049
1102.0,0.1059
1101.0,0.1067
1100.0,0.1076
1099.0,0.1085
1098.0,0.1093
1097.0,0.1101
1096.0,0.1109
1095.0,0.1116
1094.0,0.1123
1093.0,0.113
1092.0,0.1136
1091.0,0.1143
1090.0,0.1149
1089.0,0.1156
1088.0,0.1161
1087.0,0.1166
1086.0,0.1172
1085.0,0.1177
1084.0,0.1182
1083.0,0.1187
1082.0,0.119
1081.0,0.1194
1080.0,0.1196
1079.0,0.1199
1078.0,0.1201
1077.0,0.1202
1076.0,0.1202
1075.0,0.1201
1074.0,0.1199
1073.0,0.1196
1072.0,0.1192
1071.0,0.1187
1070.0,0.1181
1069.0,0.1174
1068.0,0.1166
1067.0,0.1158
1066.0,0.1148
1065.0,0.1137
1064.0,0.1125
1063.0,0.1113
1062.0,0.1099
1061.0,0.1085
1060.0,0.1069
1059.0,0.1054
1058.0,0.1038
1057.0,0.1022
1056.0,0.1005
1055.0,0.0989
1054.0,0.0972
1053.0,0.0956
1052.0,0.0939
1051.0,0.0923
1050.0,0.0907
1049.0,0.0892
1048.0,0.0878
1047.0,0.0863
1046.0,0.0849
1045.0,0.0835
1044.0,0.0821
1043.0,0.0807
1042.0,0.0792
1041.0,0.0778
1040.0,0.0764
1039.0,0.075
1038.0,0.0738
1037.0,0.0727
1036.0,0.0716
1035.0,0.0704
1034.0,0.0693
1033.0,0.0681
1032.0,0.0671
1031.0,0.066
1030.0,0.0651
1029.0,0.0642
1028.0,0.0633
1027.0,0.0623
1026.0,0.0614
1025.0,0.0605
1024.0,0.0596
1023.0,0.0589
1022.0,0.0582
1021.0,0.0576
1020.0,0.0569
1019.0,0.0563
1018.0,0.0556
1017.0,0.0549
1016.0,0.0543
1015.0,0.0537
1014.0,0.0531
1013.0,0.0526
1012.0,0.0521
1011.0,0.0515
1010.0,0.0509
1009.0,0.0503
1008.0,0.0498
1007.0,0.0492
1006.0,0.0487
1005.0,0.0482
1004.0,0.0478
1003.0,0.0474
1002.0,0.0469
1001.0,0.0465
1000.0,0.046
999.0,0.0455
998.0,0.0451
997.0,0.0448
996.0,0.0445
995.0,0.0442
994.0,0.0439
993.0,0.0435
992.0,0.0431
991.0,0.0428
990.0,0.0425
989.0,0.0424
988.0,0.0428
987.0,0.0438
986.0,0.0456
985.0,0.0477
984.0,0.0494
983.0,0.0497
982.0,0.0487
981.0,0.0469
980.0,0.045
979.0,0.0435
978.0,0.0424
977.0,0.0416
976.0,0.041
975.0,0.0405
974.0,0.04
973.0,0.0396
972.0,0.0393
971.0,0.0391
970.0,0.0388
969.0,0.0386
968.0,0.0384
967.0,0.0382
966.0,0.038
965.0,0.0378
964.0,0.0375
963.0,0.0373
962.0,0.037
961.0,0.0367
960.0,0.0365
959.0,0.0363
958.0,0.036
957.0,0.0358
956.0,0.0357
955.0,0.0355
954.0,0.0354
953.0,0.0352
952.0,0.0351
951.0,0.035
950.0,0.0348
949.0,0.0348
948.0,0.0347
947.0,0.0346
946.0,0.0344
945.0,0.0343
944.0,0.0342
943.0,0.0341
942.0,0.0341
941.0,0.034
940.0,0.0339
939.0,0.0338
938.0,0.0338
937.0,0.0338
936.0,0.0337
935.0,0.0336
934.0,0.0335
933.0,0.0334
932.0,0.0333
931.0,0.0332
930.0,0.033
929.0,0.0329
928.0,0.0328
927.0,0.0328
926.0,0.0327
925.0,0.0326
924.0,0.0325
923.0,0.0325
922.0,0.0325
921.0,0.0325
920.0,0.0324
919.0,0.0323
918.0,0.0322
917.0,0.0322
916.0,0.0322
915.0,0.0322
914.0,0.0321
913.0,0.0322
912.0,0.0322
911.0,0.0323
910.0,0.0323
909.0,0.0324
908.0,0.0325
907.0,0.0325
906.0,0.0325
905.0,0.0324
904.0,0.0324
903.0,0.0324
902.0,0.0324
901.0,0.0324
900.0,0.0324
899.0,0.0325
898.0,0.0325
897.0,0.0326
896.0,0.0327
895.0,0.0327
894.0,0.0326
893.0,0.0326
892.0,0.0326
891.0,0.0326
890.0,0.0327
889.0,0.0328
888.0,0.0329
887.0,0.033
886.0,0.0331
885.0,0.0331
884.0,0.0332
883.0,0.0332
882.0,0.0333
881.0,0.0334
880.0,0.0335
879.0,0.0337
878.0,0.0338
877.0,0.0339
876.0,0.034
875.0,0.0341
874.0,0.0343
873.0,0.0345
872.0,0.0347
871.0,0.0348
870.0,0.0349
869.0,0.035
868.0,0.0351
867.0,0.0353
866.0,0.0354
865.0,0.0355
864.0,0.0355
863.0,0.0356
862.0,0.0357
861.0,0.0359
860.0,0.0362
859.0,0.0364
858.0,0.0365
857.0,0.0366
856.0,0.0368
855.0,0.037
854.0,0.0372
853.0,0.0374
852.0,0.0377
851.0,0.0379
850.0,0.0382
849.0,0.0385
848.0,0.0387
847.0,0.0389
846.0,0.0391
845.0,0.0393
844.0,0.0395
843.0,0.0397
842.0,0.0399
841.0,0.0401
840.0,0.0403
839.0,0.0407
838.0,0.041
837.0,0.0412
836.0,0.0414
835.0,0.0415
834.0,0.0416
833.0,0.0419
832.0,0.0423
831.0,0.0427
830.0,0.0432
829.0,0.0434
828.0,0.0435
827.0,0.0436
826.0,0.0437
825.0,0.044
824.0,0.0444
823.0,0.0448
822.0,0.045
821.0,0.0453
820.0,0.0455
819.0,0.0458
818.0,0.0462
817.0,0.0465
816.0,0.0469
815.0,0.0473
814.0,0.0477
813.0,0.048
812.0,0.0482
811.0,0.0484
810.0,0.0487
809.0,0.0492
808.0,0.0496
807.0,0.05
806.0,0.0504
805.0,0.0507
804.0,0.051
803.0,0.0514
802.0,0.0519
801.0,0.0524
800.0,0.0528
799.0,0.0532
798.0,0.0537
797.0,0.0541
796.0,0.0546
795.0,0.0551
794.0,0.0557
793.0,0.0563
792.0,0.0568
791.0,0.0574
790.0,0.0579
789.0,0.0585
788.0,0.059
787.0,0.0596
786.0,0.0602
785.0,0.0608
784.0,0.0614
783.0,0.0621
782.0,0.0627
781.0,0.0633
780.0,0.0639
779.0,0.0644
778.0,0.0649
777.0,0.0656
776.0,0.0663
775.0,0.0669
774.0,0.0675
773.0,0.0679
772.0,0.0683
771.0,0.0686
770.0,0.0691
769.0,0.0696
768.0,0.0703
767.0,0.0709
766.0,0.0715
765.0,0.0719
764.0,0.0723
763.0,0.0726
762.0,0.073
761.0,0.0733
760.0,0.0737
759.0,0.0741
758.0,0.0745
757.0,0.0749
756.0,0.0754
755.0,0.0759
754.0,0.0762
753.0,0.0764
752.0,0.0766
751.0,0.0769
750.0,0.0772
749.0,0.0776
748.0,0.0779
747.0,0.0782
746.0,0.0785
745.0,0.0787
744.0,0.0788
743.0,0.079
742.0,0.0793
741.0,0.0797
740.0,0.08
739.0,0.0801
738.0,0.08
737.0,0.08
736.0,0.0802
735.0,0.0804
734.0,0.0806
733.0,0.0808
732.0,0.0811
731.0,0.0813
730.0,0.0815
729.0,0.0817
728.0,0.0818
727.0,0.0819
726.0,0.082
725.0,0.0822
724.0,0.0823
723.0,0.0822
722.0,0.0821
721.0,0.0821
720.0,0.0824
719.0,0.0829
718.0,0.0832
717.0,0.0833
716.0,0.0832
715.0,0.0831
714.0,0.0832
713.0,0.0833
712.0,0.0833
711.0,0.0833
710.0,0.0834
709.0,0.0836
708.0,0.0838
707.0,0.084
706.0,0.0844
705.0,0.0849
704.0,0.0852
703.0,0.0852
702.0,0.0849
701.0,0.0844
700.0,0.0839
699.0,0.0837
698.0,0.084
697.0,0.0847
696.0,0.0855
695.0,0.0858
694.0,0.0857
693.0,0.0852
692.0,0.0847
691.0,0.0846
690.0,0.0847
689.0,0.0849
688.0,0.085
687.0,0.0851
686.0,0.0857
685.0,0.0869
684.0,0.0882
683.0,0.0893
682.0,0.0897
681.0,0.0898
680.0,0.0896
679.0,0.0894
678.0,0.0896
677.0,0.0903
676.0,0.0917
675.0,0.0934
674.0,0.0946
673.0,0.0948
672.0,0.0943
671.0,0.094
670.0,0.0947
669.0,0.097
668.0,0.1
667.0,0.1
666.0,0.0976
665.0,0.0959
664.0,0.0953
663.0,0.0956
662.0,0.0961
661.0,0.0962
660.0,0.0961
659.0,0.096
658.0,0.0964
657.0,0.097
656.0,0.0977
655.0,0.0982
654.0,0.0985
653.0,0.0986
652.0,0.0984
651.0,0.0979
650.0,0.0973
649.0,0.0971
648.0,0.0973
647.0,0.0978
646.0,0.0983
645.0,0.099
644.0,0.1
643.0,0.1013
642.0,0.1029
641.0,0.1043
640.0,0.1055
639.0,0.1066
638.0,0.1079
637.0,0.1097
636.0,0.1122
635.0,0.1149
634.0,0.1167
633.0,0.1169
632.0,0.1162
631.0,0.1156
630.0,0.1154
629.0,0.1156
628.0,0.1159
627.0,0.1163
626.0,0.117
625.0,0.118
624.0,0.1193
623.0,0.1206
622.0,0.1218
621.0,0.1227
620.0,0.1235
619.0,0.1241
618.0,0.1246
617.0,0.125
616.0,0.1255
615.0,0.1261
614.0,0.1264
613.0,0.1264
612.0,0.1263
611.0,0.1266
610.0,0.1273
609.0,0.1279
608.0,0.1284
607.0,0.1288
606.0,0.129
605.0,0.1291
604.0,0.1289
603.0,0.1286
602.0,0.1283
601.0,0.1282
600.0,0.128
