cm-1,A
4000.0,0.0062
3999.0,0.0063
3998.0,0.0063
3997.0,0.0063
3996.0,0.0062
3995.0,0.0061
3994.0,0.0061
3993.0,0.0061
3992.0,0.0062
3991.0,0.0062
3990.0,0.0063
3989.0,0.0063
3988.0,0.0062
3987.0,0.0062
3986.0,0.0062
3985.0,0.0062
3984.0,0.0062
3983.0,0.0062
3982.0,0.0063
3981.0,0.0063
3980.0,0.0064
3979.0,0.0064
3978.0,0.0065
3977.0,0.0065
3976.0,0.0064
3975.0,0.0064
3974.0,0.0063
3973.0,0.0063
3972.0,0.0062
3971.0,0.0062
3970.0,0.0061
3969.0,0.006
3968.0,0.006
3967.0,0.0061
3966.0,0.0062
3965.0,0.0062
3964.0,0.0063
3963.0,0.0063
3962.0,0.0063
3961.0,0.0063
3960.0,0.0064
3959.0,0.0064
3958.0,0.0064
3957.0,0.0063
3956.0,0.0063
3955.0,0.0063
3954.0,0.0063
3953.0,0.0063
3952.0,0.0064
3951.0,0.0064
3950.0,0.0064
3949.0,0.0064
3948.0,0.0064
3947.0,0.0064
3946.0,0.0064
3945.0,0.0064
3944.0,0.0064
3943.0,0.0064
3942.0,0.0064
3941.0,0.0064
3940.0,0.0064
3939.0,0.0065
3938.0,0.0066
3937.0,0.0066
3936.0,0.0067
3935.0,0.0067
3934.0,0.0067
3933.0,0.0066
3932.0,0.0065
3931.0,0.0065
3930.0,0.0065
3929.0,0.0066
3928.0,0.0066
3927.0,0.0067
3926.0,0.0066
3925.0,0.0065
3924.0,0.0064
3923.0,0.0064
3922.0,0.0064
3921.0,0.0064
3920.0,0.0063
3919.0,0.0063
3918.0,0.0063
3917.0,0.0063
3916.0,0.0063
3915.0,0.0063
3914.0,0.0063
3913.0,0.0063
3912.0,0.0063
3911.0,0.0064
3910.0,0.0065
3909.0,0.0066
3908.0,0.0067
3907.0,0.0068
3906.0,0.0067
3905.0,0.0066
3904.0,0.0065
3903.0,0.0065
3902.0,0.0065
3901.0,0.0065
3900.0,0.0066
3899.0,0.0066
3898.0,0.0066
3897.0,0.0067
3896.0,0.0067
3895.0,0.0067
3894.0,0.0067
3893.0,0.0066
3892.0,0.0065
3891.0,0.0064
3890.0,0.0064
3889.0,0.0065
3888.0,0.0067
3887.0,0.0069
3886.0,0.0069
3885.0,0.0069
3884.0,0.007
3883.0,0.0071
3882.0,0.007
3881.0,0.0069
3880.0,0.0068
3879.0,0.0068
3878.0,0.0068
3877.0,0.0068
3876.0,0.0067
3875.0,0.0067
3874.0,0.0067
3873.0,0.0068
3872.0,0.0069
3871.0,0.0068
3870.0,0.0067
3869.0,0.0066
3868.0,0.0067
3867.0,0.0067
3866.0,0.0067
3865.0,0.0065
3864.0,0.0065
3863.0,0.0065
3862.0,0.0065
3861.0,0.0065
3860.0,0.0065
3859.0,0.0065
3858.0,0.0064
3857.0,0.0065
3856.0,0.0066
3855.0,0.0066
3854.0,0.0067
3853.0,0.0068
3852.0,0.0068
3851.0,0.0067
3850.0,0.0066
3849.0,0.0065
3848.0,0.0065
3847.0,0.0065
3846.0,0.0066
3845.0,0.0066
3844.0,0.0065
3843.0,0.0064
3842.0,0.0064
3841.0,0.0063
3840.0,0.0063
3839.0,0.0063
3838.0,0.0063
3837.0,0.0063
3836.0,0.0063
3835.0,0.0063
3834.0,0.0064
3833.0,0.0065
3832.0,0.0066
3831.0,0.0067
3830.0,0.0068
3829.0,0.0069
3828.0,0.0069
3827.0,0.0068
3826.0,0.0066
3825.0,0.0067
3824.0,0.0068
3823.0,0.0068
3822.0,0.0067
3821.0,0.0066
3820.0,0.0066
3819.0,0.0067
3818.0,0.0067
3817.0,0.0066
3816.0,0.0066
3815.0,0.0067
3814.0,0.0068
3813.0,0.0069
3812.0,0.0068
3811.0,0.0067
3810.0,0.0067
3809.0,0.0068
3808.0,0.0067
3807.0,0.0066
3806.0,0.0067
3805.0,0.0069
3804.0,0.0071
3803.0,0.0071
3802.0,0.0071
3801.0,0.0071
3800.0,0.0071
3799.0,0.007
3798.0,0.0069
3797.0,0.0068
3796.0,0.0068
3795.0,0.0068
3794.0,0.0068
3793.0,0.0068
3792.0,0.0068
3791.0,0.0068
3790.0,0.0069
3789.0,0.007
3788.0,0.0072
3787.0,0.0072
3786.0,0.0072
3785.0,0.0071
3784.0,0.007
3783.0,0.007
3782.0,0.007
3781.0,0.007
3780.0,0.0069
3779.0,0.0069
3778.0,0.007
3777.0,0.0071
3776.0,0.0071
3775.0,0.0071
3774.0,0.0071
3773.0,0.0071
3772.0,0.0071
3771.0,0.0071
3770.0,0.0071
3769.0,0.0072
3768.0,0.0072
3767.0,0.0071
3766.0,0.007
3765.0,0.0068
3764.0,0.0068
3763.0,0.0069
3762.0,0.0071
3761.0,0.0072
3760.0,0.0072
3759.0,0.0071
3758.0,0.007
3757.0,0.0068
3756.0,0.0068
3755.0,0.0068
3754.0,0.0067
3753.0,0.0066
3752.0,0.0065
3751.0,0.0066
3750.0,0.0067
3749.0,0.0067
3748.0,0.0068
3747.0,0.0069
3746.0,0.0069
3745.0,0.0068
3744.0,0.0066
3743.0,0.0066
3742.0,0.0066
3741.0,0.0064
3740.0,0.0063
3739.0,0.0062
3738.0,0.006
3737.0,0.0058
3736.0,0.0056
3735.0,0.0056
3734.0,0.0056
3733.0,0.0055
3732.0,0.0054
3731.0,0.0053
3730.0,0.0053
3729.0,0.0055
3728.0,0.0056
3727.0,0.0057
3726.0,0.0059
3725.0,0.0061
3724.0,0.0063
3723.0,0.0063
3722.0,0.0063
3721.0,0.0063
3720.0,0.0065
3719.0,0.007
3718.0,0.0076
3717.0,0.0083
3716.0,0.0085
3715.0,0.0081
3714.0,0.0074
3713.0,0.0066
3712.0,0.0061
3711.0,0.006
3710.0,0.0061
3709.0,0.0061
3708.0,0.0061
3707.0,0.0062
3706.0,0.0063
3705.0,0.0064
3704.0,0.0067
3703.0,0.0068
3702.0,0.0069
3701.0,0.007
3700.0,0.007
3699.0,0.007
3698.0,0.0069
3697.0,0.0068
3696.0,0.0068
3695.0,0.0067
3694.0,0.0068
3693.0,0.0068
3692.0,0.0068
3691.0,0.0068
3690.0,0.0069
3689.0,0.0069
3688.0,0.007
3687.0,0.007
3686.0,0.0072
3685.0,0.0074
3684.0,0.0075
3683.0,0.0075
3682.0,0.0075
3681.0,0.0074
3680.0,0.0073
3679.0,0.0073
3678.0,0.0075
3677.0,0.0076
3676.0,0.0078
3675.0,0.0079
3674.0,0.008
3673.0,0.0082
3672.0,0.0082
3671.0,0.0081
3670.0,0.0081
3669.0,0.0081
3668.0,0.0082
3667.0,0.0083
3666.0,0.0084
3665.0,0.0084
3664.0,0.0085
3663.0,0.0085
3662.0,0.0085
3661.0,0.0085
3660.0,0.0086
3659.0,0.0087
3658.0,0.0088
3657.0,0.0088
3656.0,0.0088
3655.0,0.0088
3654.0,0.009
3653.0,0.0092
3652.0,0.0092
3651.0,0.0092
3650.0,0.0092
3649.0,0.0094
3648.0,0.0095
3647.0,0.0096
3646.0,0.0095
3645.0,0.0095
3644.0,0.0095
3643.0,0.0095
3642.0,0.0095
3641.0,0.0096
3640.0,0.0096
3639.0,0.0095
3638.0,0.0094
3637.0,0.0094
3636.0,0.0094
3635.0,0.0093
3634.0,0.0094
3633.0,0.0094
3632.0,0.0095
3631.0,0.0095
3630.0,0.0094
3629.0,0.0094
3628.0,0.0096
3627.0,0.0097
3626.0,0.0099
3625.0,0.01
3624.0,0.0102
3623.0,0.0105
3622.0,0.0109
3621.0,0.0112
3620.0,0.0114
3619.0,0.0116
3618.0,0.0118
3617.0,0.0121
3616.0,0.0126
3615.0,0.0131
3614.0,0.0133
3613.0,0.0132
3612.0,0.0128
3611.0,0.0123
3610.0,0.0121
3609.0,0.0121
3608.0,0.0122
3607.0,0.0124
3606.0,0.0126
3605.0,0.0126
3604.0,0.0127
3603.0,0.0127
3602.0,0.0128
3601.0,0.013
3600.0,0.0132
3599.0,0.0134
3598.0,0.0136
3597.0,0.0137
3596.0,0.0137
3595.0,0.0137
3594.0,0.0138
3593.0,0.014
3592.0,0.0142
3591.0,0.0144
3590.0,0.0146
3589.0,0.0148
3588.0,0.015
3587.0,0.0153
3586.0,0.0156
3585.0,0.0158
3584.0,0.0159
3583.0,0.0159
3582.0,0.016
3581.0,0.0161
3580.0,0.0162
3579.0,0.0163
3578.0,0.0164
3577.0,0.0166
3576.0,0.0167
3575.0,0.0169
3574.0,0.0171
3573.0,0.0172
3572.0,0.0173
3571.0,0.0174
3570.0,0.0175
3569.0,0.0177
3568.0,0.0179
3567.0,0.0182
3566.0,0.0185
3565.0,0.0187
3564.0,0.0188
3563.0,0.0188
3562.0,0.0188
3561.0,0.0188
3560.0,0.0189
3559.0,0.019
3558.0,0.0191
3557.0,0.0192
3556.0,0.0193
3555.0,0.0193
3554.0,0.0194
3553.0,0.0195
3552.0,0.0197
3551.0,0.0199
3550.0,0.0201
3549.0,0.0203
3548.0,0.0205
3547.0,0.0207
3546.0,0.0209
3545.0,0.021
3544.0,0.0211
3543.0,0.0211
3542.0,0.0211
3541.0,0.0212
3540.0,0.0212
3539.0,0.0212
3538.0,0.0213
3537.0,0.0214
3536.0,0.0215
3535.0,0.0216
3534.0,0.0217
3533.0,0.0218
3532.0,0.0219
3531.0,0.0221
3530.0,0.0223
3529.0,0.0224
3528.0,0.0225
3527.0,0.0226
3526.0,0.0227
3525.0,0.0227
3524.0,0.0227
3523.0,0.0228
3522.0,0.0229
3521.0,0.023
3520.0,0.0231
3519.0,0.0232
3518.0,0.0232
3517.0,0.0233
3516.0,0.0234
3515.0,0.0236
3514.0,0.0238
3513.0,0.024
3512.0,0.0241
3511.0,0.0243
3510.0,0.0244
3509.0,0.0245
3508.0,0.0246
3507.0,0.0246
3506.0,0.0246
3505.0,0.0247
3504.0,0.0249
3503.0,0.0252
3502.0,0.0254
3501.0,0.0255
3500.0,0.0255
3499.0,0.0255
3498.0,0.0256
3497.0,0.0257
3496.0,0.0258
3495.0,0.0259
3494.0,0.0261
3493.0,0.0263
3492.0,0.0265
3491.0,0.0266
3490.0,0.0267
3489.0,0.0268
3488.0,0.0269
3487.0,0.0271
3486.0,0.0273
3485.0,0.0275
3484.0,0.0277
3483.0,0.0278
3482.0,0.0279
3481.0,0.028
3480.0,0.0281
3479.0,0.0282
3478.0,0.0282
3477.0,0.0283
3476.0,0.0284
3475.0,0.0286
3474.0,0.0289
3473.0,0.0291
3472.0,0.0292
3471.0,0.0294
3470.0,0.0295
3469.0,0.0297
3468.0,0.0298
3467.0,0.03
3466.0,0.0302
3465.0,0.0304
3464.0,0.0306
3463.0,0.0309
3462.0,0.0311
3461.0,0.0312
3460.0,0.0313
3459.0,0.0315
3458.0,0.0316
3457.0,0.0317
3456.0,0.0318
3455.0,0.0319
3454.0,0.0321
3453.0,0.0323
3452.0,0.0325
3451.0,0.0328
3450.0,0.033
3449.0,0.0331
3448.0,0.0333
3447.0,0.0334
3446.0,0.0336
3445.0,0.0337
3444.0,0.0338
3443.0,0.034
3442.0,0.0342
3441.0,0.0345
3440.0,0.0348
3439.0,0.035
3438.0,0.0352
3437.0,0.0354
3436.0,0.0357
3435.0,0.0359
3434.0,0.0362
3433.0,0.0364
3432.0,0.0366
3431.0,0.0367
3430.0,0.0369
3429.0,0.037
3428.0,0.0371
3427.0,0.0372
3426.0,0.0374
3425.0,0.0376
3424.0,0.0379
3423.0,0.0381
3422.0,0.0383
3421.0,0.0384
3420.0,0.0386
3419.0,0.0387
3418.0,0.0388
3417.0,0.0389
3416.0,0.0391
3415.0,0.0392
3414.0,0.0394
3413.0,0.0396
3412.0,0.0398
3411.0,0.0399
3410.0,0.04
3409.0,0.0401
3408.0,0.0403
3407.0,0.0404
3406.0,0.0405
3405.0,0.0406
3404.0,0.0407
3403.0,0.0407
3402.0,0.0409
3401.0,0.0411
3400.0,0.0412
3399.0,0.0412
3398.0,0.0411
3397.0,0.0411
3396.0,0.0412
3395.0,0.0413
3394.0,0.0414
3393.0,0.0414
3392.0,0.0414
3391.0,0.0413
3390.0,0.0413
3389.0,0.0412
3388.0,0.0412
3387.0,0.0412
3386.0,0.0411
3385.0,0.041
3384.0,0.0408
3383.0,0.0408
3382.0,0.0407
3381.0,0.0407
3380.0,0.0407
3379.0,0.0406
3378.0,0.0405
3377.0,0.0404
3376.0,0.0403
3375.0,0.0402
3374.0,0.0402
3373.0,0.0401
3372.0,0.0401
3371.0,0.04
3370.0,0.0398
3369.0,0.0397
3368.0,0.0395
3367.0,0.0395
3366.0,0.0394
3365.0,0.0394
3364.0,0.0394
3363.0,0.0392
3362.0,0.039
3361.0,0.0388
3360.0,0.0387
3359.0,0.0387
3358.0,0.0387
3357.0,0.0386
3356.0,0.0385
3355.0,0.0383
3354.0,0.0382
3353.0,0.0381
3352.0,0.038
3351.0,0.0379
3350.0,0.0379
3349.0,0.0378
3348.0,0.0377
3347.0,0.0376
3346.0,0.0375
3345.0,0.0373
3344.0,0.0372
3343.0,0.0371
3342.0,0.037
3341.0,0.0369
3340.0,0.0368
3339.0,0.0366
3338.0,0.0365
3337.0,0.0365
3336.0,0.0364
3335.0,0.0364
3334.0,0.0363
3333.0,0.0362
3332.0,0.036
3331.0,0.0359
3330.0,0.0358
3329.0,0.0356
3328.0,0.0355
3327.0,0.0353
3326.0,0.0352
3325.0,0.0351
3324.0,0.0351
3323.0,0.0352
3322.0,0.0352
3321.0,0.0351
3320.0,0.035
3319.0,0.0348
3318.0,0.0346
3317.0,0.0345
3316.0,0.0344
3315.0,0.0343
3314.0,0.0342
3313.0,0.0341
3312.0,0.0339
3311.0,0.0337
3310.0,0.0336
3309.0,0.0334
3308.0,0.0334
3307.0,0.0333
3306.0,0.0333
3305.0,0.0333
3304.0,0.0332
3303.0,0.033
3302.0,0.0329
3301.0,0.0328
3300.0,0.0327
3299.0,0.0326
3298.0,0.0325
3297.0,0.0324
3296.0,0.0323
3295.0,0.0323
3294.0,0.0323
3293.0,0.0323
3292.0,0.0323
3291.0,0.0323
3290.0,0.0322
3289.0,0.032
3288.0,0.0319
3287.0,0.0319
3286.0,0.0319
3285.0,0.0319
3284.0,0.0319
3283.0,0.0318
3282.0,0.0316
3281.0,0.0314
3280.0,0.0313
3279.0,0.0313
3278.0,0.0313
3277.0,0.0314
3276.0,0.0314
3275.0,0.0314
3274.0,0.0313
3273.0,0.0312
3272.0,0.0312
3271.0,0.0312
3270.0,0.0312
3269.0,0.0311
3268.0,0.031
3267.0,0.0309
3266.0,0.0308
3265.0,0.0307
3264.0,0.0307
3263.0,0.0306
3262.0,0.0306
3261.0,0.0307
3260.0,0.0307
3259.0,0.0307
3258.0,0.0307
3257.0,0.0307
3256.0,0.0306
3255.0,0.0306
3254.0,0.0306
3253.0,0.0306
3252.0,0.0306
3251.0,0.0305
3250.0,0.0304
3249.0,0.0303
3248.0,0.0303
3247.0,0.0302
3246.0,0.0302
3245.0,0.0302
3244.0,0.0302
3243.0,0.03
3242.0,0.0299
3241.0,0.0297
3240.0,0.0295
3239.0,0.0294
3238.0,0.0293
3237.0,0.0292
3236.0,0.0291
3235.0,0.029
3234.0,0.029
3233.0,0.029
3232.0,0.0289
3231.0,0.0289
3230.0,0.0288
3229.0,0.0287
3228.0,0.0286
3227.0,0.0285
3226.0,0.0283
3225.0,0.0282
3224.0,0.0279
3223.0,0.0278
3222.0,0.0276
3221.0,0.0275
3220.0,0.0274
3219.0,0.0272
3218.0,0.0271
3217.0,0.0269
3216.0,0.0269
3215.0,0.0269
3214.0,0.0269
3213.0,0.0268
3212.0,0.0267
3211.0,0.0266
3210.0,0.0265
3209.0,0.0264
3208.0,0.0263
3207.0,0.0262
3206.0,0.026
3205.0,0.0259
3204.0,0.0258
3203.0,0.0258
3202.0,0.0257
3201.0,0.0256
3200.0,0.0254
3199.0,0.0251
3198.0,0.025
3197.0,0.0249
3196.0,0.0248
3195.0,0.0247
3194.0,0.0245
3193.0,0.0244
3192.0,0.0243
3191.0,0.0242
3190.0,0.0242
3189.0,0.0241
3188.0,0.024
3187.0,0.0238
3186.0,0.0236
3185.0,0.0234
3184.0,0.0232
3183.0,0.0231
3182.0,0.023
3181.0,0.0228
3180.0,0.0228
3179.0,0.0227
3178.0,0.0226
3177.0,0.0225
3176.0,0.0223
3175.0,0.0222
3174.0,0.0221
3173.0,0.0221
3172.0,0.022
3171.0,0.0219
3170.0,0.0218
3169.0,0.0216
3168.0,0.0215
3167.0,0.0214
3166.0,0.0213
3165.0,0.0212
3164.0,0.0211
3163.0,0.021
3162.0,0.0208
3161.0,0.0206
3160.0,0.0205
3159.0,0.0204
3158.0,0.0203
3157.0,0.0203
3156.0,0.0202
3155.0,0.0201
3154.0,0.02
3153.0,0.0198
3152.0,0.0197
3151.0,0.0196
3150.0,0.0196
3149.0,0.0195
3148.0,0.0194
3147.0,0.0193
3146.0,0.0192
3145.0,0.0191
3144.0,0.019
3143.0,0.0189
3142.0,0.0188
3141.0,0.0186
3140.0,0.0185
3139.0,0.0185
3138.0,0.0184
3137.0,0.0183
3136.0,0.0182
3135.0,0.0181
3134.0,0.018
3133.0,0.0179
3132.0,0.0177
3131.0,0.0176
3130.0,0.0174
3129.0,0.0173
3128.0,0.0172
3127.0,0.0171
3126.0,0.0171
3125.0,0.0169
3124.0,0.0168
3123.0,0.0167
3122.0,0.0166
3121.0,0.0165
3120.0,0.0163
3119.0,0.0162
3118.0,0.016
3117.0,0.0159
3116.0,0.0159
3115.0,0.0158
3114.0,0.0158
3113.0,0.0157
3112.0,0.0157
3111.0,0.0156
3110.0,0.0155
3109.0,0.0154
3108.0,0.0154
3107.0,0.0153
3106.0,0.0153
3105.0,0.0152
3104.0,0.0151
3103.0,0.015
3102.0,0.0149
3101.0,0.0148
3100.0,0.0147
3099.0,0.0146
3098.0,0.0144
3097.0,0.0143
3096.0,0.0142
3095.0,0.0141
3094.0,0.014
3093.0,0.0139
3092.0,0.0137
3091.0,0.0136
3090.0,0.0136
3089.0,0.0135
3088.0,0.0135
3087.0,0.0134
3086.0,0.0133
3085.0,0.0132
3084.0,0.013
3083.0,0.0128
3082.0,0.0127
3081.0,0.0126
3080.0,0.0125
3079.0,0.0125
3078.0,0.0125
3077.0,0.0124
3076.0,0.0123
3075.0,0.0122
3074.0,0.0121
3073.0,0.012
3072.0,0.0119
3071.0,0.0119
3070.0,0.0118
3069.0,0.0117
3068.0,0.0117
3067.0,0.0116
3066.0,0.0115
3065.0,0.0115
3064.0,0.0114
3063.0,0.0113
3062.0,0.0111
3061.0,0.0109
3060.0,0.0108
3059.0,0.0107
3058.0,0.0107
3057.0,0.0106
3056.0,0.0105
3055.0,0.0103
3054.0,0.0102
3053.0,0.01
3052.0,0.0099
3051.0,0.0099
3050.0,0.0099
3049.0,0.0099
3048.0,0.0098
3047.0,0.0097
3046.0,0.0095
3045.0,0.0094
3044.0,0.0093
3043.0,0.0092
3042.0,0.0091
3041.0,0.0089
3040.0,0.0088
3039.0,0.0088
3038.0,0.0087
3037.0,0.0086
3036.0,0.0085
3035.0,0.0083
3034.0,0.0082
3033.0,0.0081
3032.0,0.008
3031.0,0.008
3030.0,0.008
3029.0,0.0079
3028.0,0.0078
3027.0,0.0077
3026.0,0.0075
3025.0,0.0074
3024.0,0.0074
3023.0,0.0073
3022.0,0.0072
3021.0,0.0071
3020.0,0.007
3019.0,0.0069
3018.0,0.0069
3017.0,0.0068
3016.0,0.0068
3015.0,0.0067
3014.0,0.0066
3013.0,0.0064
3012.0,0.0063
3011.0,0.0062
3010.0,0.0061
3009.0,0.006
3008.0,0.0059
3007.0,0.0058
3006.0,0.0057
3005.0,0.0056
3004.0,0.0055
3003.0,0.0054
3002.0,0.0054
3001.0,0.0053
3000.0,0.0053
2999.0,0.0053
2998.0,0.0053
2997.0,0.0054
2996.0,0.0053
2995.0,0.0053
2994.0,0.0051
2993.0,0.0051
2992.0,0.0051
2991.0,0.0051
2990.0,0.0052
2989.0,0.0054
2988.0,0.0056
2987.0,0.0058
2986.0,0.0061
2985.0,0.0065
2984.0,0.0069
2983.0,0.0073
2982.0,0.0078
2981.0,0.0085
2980.0,0.0093
2979.0,0.0102
2978.0,0.0113
2977.0,0.0126
2976.0,0.0141
2975.0,0.0157
2974.0,0.0174
2973.0,0.0194
2972.0,0.0217
2971.0,0.0243
2970.0,0.0271
2969.0,0.0301
2968.0,0.0333
2967.0,0.0366
2966.0,0.04
2965.0,0.0434
2964.0,0.0466
2963.0,0.0495
2962.0,0.0519
2961.0,0.0539
2960.0,0.0556
2959.0,0.0571
2958.0,0.0588
2957.0,0.0608
2956.0,0.0635
2955.0,0.0667
2954.0,0.0705
2953.0,0.0744
2952.0,0.0782
2951.0,0.0811
2950.0,0.0827
2949.0,0.0827
2948.0,0.0811
2947.0,0.078
2946.0,0.0737
2945.0,0.0687
2944.0,0.0636
2943.0,0.0588
2942.0,0.0546
2941.0,0.0514
2940.0,0.049
2939.0,0.0476
2938.0,0.047
2937.0,0.0472
2936.0,0.0481
2935.0,0.0497
2934.0,0.0519
2933.0,0.0547
2932.0,0.0581
2931.0,0.0619
2930.0,0.0659
2929.0,0.0701
2928.0,0.0743
2927.0,0.0785
2926.0,0.0825
2925.0,0.0865
2924.0,0.0904
2923.0,0.0944
2922.0,0.0984
2921.0,0.1024
2920.0,0.1061
2919.0,0.109
2918.0,0.1108
2917.0,0.1114
2916.0,0.1107
2915.0,0.1088
2914.0,0.1063
2913.0,0.1034
2912.0,0.1004
2911.0,0.0976
2910.0,0.095
2909.0,0.0927
2908.0,0.0906
2907.0,0.0885
2906.0,0.0865
2905.0,0.0844
2904.0,0.0822
2903.0,0.08
2902.0,0.0778
2901.0,0.0755
2900.0,0.0734
2899.0,0.0713
2898.0,0.0693
2897.0,0.0675
2896.0,0.0658
2895.0,0.0643
2894.0,0.0631
2893.0,0.062
2892.0,0.0611
2891.0,0.0604
2890.0,0.06
2889.0,0.0598
2888.0,0.0597
2887.0,0.0598
2886.0,0.06
2885.0,0.0603
2884.0,0.0608
2883.0,0.0615
2882.0,0.0625
2881.0,0.0636
2880.0,0.0647
2879.0,0.0657
2878.0,0.0664
2877.0,0.0667
2876.0,0.0667
2875.0,0.0665
2874.0,0.0664
2873.0,0.0665
2872.0,0.0669
2871.0,0.0676
2870.0,0.0686
2869.0,0.0697
2868.0,0.0706
2867.0,0.071
2866.0,0.0706
2865.0,0.0692
2864.0,0.0668
2863.0,0.0637
2862.0,0.0603
2861.0,0.0569
2860.0,0.0538
2859.0,0.0511
2858.0,0.0489
2857.0,0.0472
2856.0,0.046
2855.0,0.0451
2854.0,0.0445
2853.0,0.0443
2852.0,0.0443
2851.0,0.0446
2850.0,0.045
2849.0,0.0457
2848.0,0.0467
2847.0,0.0481
2846.0,0.0498
2845.0,0.052
2844.0,0.0545
2843.0,0.0573
2842.0,0.0602
2841.0,0.063
2840.0,0.0654
2839.0,0.0671
2838.0,0.068
2837.0,0.0678
2836.0,0.0665
2835.0,0.0642
2834.0,0.0613
2833.0,0.058
2832.0,0.0548
2831.0,0.0517
2830.0,0.049
2829.0,0.0466
2828.0,0.0445
2827.0,0.0428
2826.0,0.0414
2825.0,0.0401
2824.0,0.039
2823.0,0.038
2822.0,0.0371
2821.0,0.0364
2820.0,0.0357
2819.0,0.0351
2818.0,0.0346
2817.0,0.0341
2816.0,0.0336
2815.0,0.0331
2814.0,0.0327
2813.0,0.0324
2812.0,0.0321
2811.0,0.0317
2810.0,0.0314
2809.0,0.031
2808.0,0.0306
2807.0,0.0302
2806.0,0.0298
2805.0,0.0295
2804.0,0.0291
2803.0,0.0286
2802.0,0.0282
2801.0,0.0279
2800.0,0.0276
2799.0,0.0273
2798.0,0.0271
2797.0,0.0269
2796.0,0.0267
2795.0,0.0265
2794.0,0.0262
2793.0,0.026
2792.0,0.0258
2791.0,0.0256
2790.0,0.0254
2789.0,0.0252
2788.0,0.025
2787.0,0.0248
2786.0,0.0245
2785.0,0.0244
2784.0,0.0242
2783.0,0.0241
2782.0,0.024
2781.0,0.0239
2780.0,0.0238
2779.0,0.0236
2778.0,0.0234
2777.0,0.0233
2776.0,0.0231
2775.0,0.0229
2774.0,0.0227
2773.0,0.0225
2772.0,0.0224
2771.0,0.0223
2770.0,0.0222
2769.0,0.0221
2768.0,0.022
2767.0,0.0219
2766.0,0.0219
2765.0,0.0219
2764.0,0.0218
2763.0,0.0217
2762.0,0.0216
2761.0,0.0215
2760.0,0.0214
2759.0,0.0213
2758.0,0.0212
2757.0,0.0211
2756.0,0.0211
2755.0,0.021
2754.0,0.0209
2753.0,0.0208
2752.0,0.0207
2751.0,0.0206
2750.0,0.0206
2749.0,0.0205
2748.0,0.0205
2747.0,0.0205
2746.0,0.0205
2745.0,0.0205
2744.0,0.0205
2743.0,0.0204
2742.0,0.0204
2741.0,0.0204
2740.0,0.0204
2739.0,0.0205
2738.0,0.0205
2737.0,0.0206
2736.0,0.0206
2735.0,0.0206
2734.0,0.0207
2733.0,0.0207
2732.0,0.0207
2731.0,0.0208
2730.0,0.0209
2729.0,0.0211
2728.0,0.0212
2727.0,0.0213
2726.0,0.0214
2725.0,0.0215
2724.0,0.0216
2723.0,0.0217
2722.0,0.0217
2721.0,0.0216
2720.0,0.0215
2719.0,0.0213
2718.0,0.0211
2717.0,0.0209
2716.0,0.0207
2715.0,0.0205
2714.0,0.0203
2713.0,0.0202
2712.0,0.0201
2711.0,0.02
2710.0,0.0199
2709.0,0.0198
2708.0,0.0197
2707.0,0.0196
2706.0,0.0195
2705.0,0.0193
2704.0,0.0193
2703.0,0.0192
2702.0,0.0191
2701.0,0.0191
2700.0,0.019
2699.0,0.0189
2698.0,0.0189
2697.0,0.0188
2696.0,0.0188
2695.0,0.0187
2694.0,0.0187
2693.0,0.0187
2692.0,0.0187
2691.0,0.0187
2690.0,0.0186
2689.0,0.0186
2688.0,0.0185
2687.0,0.0184
2686.0,0.0184
2685.0,0.0183
2684.0,0.0183
2683.0,0.0183
2682.0,0.0183
2681.0,0.0183
2680.0,0.0183
2679.0,0.0182
2678.0,0.0182
2677.0,0.0183
2676.0,0.0183
2675.0,0.0183
2674.0,0.0182
2673.0,0.0181
2672.0,0.0181
2671.0,0.0181
2670.0,0.0181
2669.0,0.018
2668.0,0.0179
2667.0,0.0179
2666.0,0.0179
2665.0,0.0179
2664.0,0.0179
2663.0,0.018
2662.0,0.018
2661.0,0.0181
2660.0,0.0181
2659.0,0.018
2658.0,0.0179
2657.0,0.0178
2656.0,0.0177
2655.0,0.0176
2654.0,0.0176
2653.0,0.0175
2652.0,0.0175
2651.0,0.0175
2650.0,0.0174
2649.0,0.0174
2648.0,0.0173
2647.0,0.0173
2646.0,0.0172
2645.0,0.0172
2644.0,0.0172
2643.0,0.0172
2642.0,0.0172
2641.0,0.0172
2640.0,0.0171
2639.0,0.017
2638.0,0.0169
2637.0,0.0169
2636.0,0.017
2635.0,0.017
2634.0,0.017
2633.0,0.017
2632.0,0.0169
2631.0,0.0168
2630.0,0.0168
2629.0,0.0168
2628.0,0.0169
2627.0,0.017
2626.0,0.017
2625.0,0.017
2624.0,0.0169
2623.0,0.0169
2622.0,0.0168
2621.0,0.0168
2620.0,0.0168
2619.0,0.0169
2618.0,0.0169
2617.0,0.0169
2616.0,0.0169
2615.0,0.0169
2614.0,0.0169
2613.0,0.0168
2612.0,0.0168
2611.0,0.0168
2610.0,0.0168
2609.0,0.0167
2608.0,0.0167
2607.0,0.0166
2606.0,0.0166
2605.0,0.0165
2604.0,0.0165
2603.0,0.0164
2602.0,0.0164
2601.0,0.0164
2600.0,0.0164
2599.0,0.0164
2598.0,0.0164
2597.0,0.0164
2596.0,0.0163
2595.0,0.0163
2594.0,0.0163
2593.0,0.0163
2592.0,0.0163
2591.0,0.0163
2590.0,0.0164
2589.0,0.0164
2588.0,0.0164
2587.0,0.0165
2586.0,0.0165
2585.0,0.0165
2584.0,0.0166
2583.0,0.0167
2582.0,0.0168
2581.0,0.0169
2580.0,0.0169
2579.0,0.0168
2578.0,0.0167
2577.0,0.0166
2576.0,0.0165
2575.0,0.0164
2574.0,0.0164
2573.0,0.0164
2572.0,0.0164
2571.0,0.0163
2570.0,0.0162
2569.0,0.0162
2568.0,0.0161
2567.0,0.016
2566.0,0.016
2565.0,0.016
2564.0,0.016
2563.0,0.016
2562.0,0.016
2561.0,0.016
2560.0,0.016
2559.0,0.0159
2558.0,0.0159
2557.0,0.0159
2556.0,0.0158
2555.0,0.0158
2554.0,0.0158
2553.0,0.0158
2552.0,0.0157
2551.0,0.0157
2550.0,0.0156
2549.0,0.0155
2548.0,0.0154
2547.0,0.0154
2546.0,0.0154
2545.0,0.0154
2544.0,0.0153
2543.0,0.0153
2542.0,0.0153
2541.0,0.0153
2540.0,0.0153
2539.0,0.0153
2538.0,0.0153
2537.0,0.0153
2536.0,0.0153
2535.0,0.0153
2534.0,0.0153
2533.0,0.0154
2532.0,0.0154
2531.0,0.0153
2530.0,0.0153
2529.0,0.0152
2528.0,0.0152
2527.0,0.0151
2526.0,0.0151
2525.0,0.0151
2524.0,0.0151
2523.0,0.015
2522.0,0.015
2521.0,0.015
2520.0,0.0149
2519.0,0.0149
2518.0,0.0149
2517.0,0.0149
2516.0,0.0148
2515.0,0.0148
2514.0,0.0148
2513.0,0.0148
2512.0,0.0148
2511.0,0.0148
2510.0,0.0148
2509.0,0.0148
2508.0,0.0148
2507.0,0.0148
2506.0,0.0148
2505.0,0.0149
2504.0,0.0149
2503.0,0.0149
2502.0,0.0149
2501.0,0.015
2500.0,0.015
2499.0,0.015
2498.0,0.0149
2497.0,0.0148
2496.0,0.0147
2495.0,0.0147
2494.0,0.0147
2493.0,0.0147
2492.0,0.0147
2491.0,0.0148
2490.0,0.0148
2489.0,0.0148
2488.0,0.0148
2487.0,0.0148
2486.0,0.0147
2485.0,0.0147
2484.0,0.0147
2483.0,0.0146
2482.0,0.0147
2481.0,0.0147
2480.0,0.0147
2479.0,0.0148
2478.0,0.0148
2477.0,0.0148
2476.0,0.0149
2475.0,0.0149
2474.0,0.0148
2473.0,0.0147
2472.0,0.0146
2471.0,0.0146
2470.0,0.0146
2469.0,0.0146
2468.0,0.0146
2467.0,0.0146
2466.0,0.0146
2465.0,0.0146
2464.0,0.0146
2463.0,0.0145
2462.0,0.0145
2461.0,0.0145
2460.0,0.0145
2459.0,0.0146
2458.0,0.0146
2457.0,0.0146
2456.0,0.0146
2455.0,0.0146
2454.0,0.0146
2453.0,0.0146
2452.0,0.0146
2451.0,0.0146
2450.0,0.0146
2449.0,0.0147
2448.0,0.0147
2447.0,0.0147
2446.0,0.0147
2445.0,0.0146
2444.0,0.0146
2443.0,0.0145
2442.0,0.0145
2441.0,0.0146
2440.0,0.0146
2439.0,0.0147
2438.0,0.0147
2437.0,0.0147
2436.0,0.0148
2435.0,0.0148
2434.0,0.0148
2433.0,0.0148
2432.0,0.0147
2431.0,0.0146
2430.0,0.0146
2429.0,0.0145
2428.0,0.0146
2427.0,0.0146
2426.0,0.0147
2425.0,0.0147
2424.0,0.0147
2423.0,0.0147
2422.0,0.0147
2421.0,0.0148
2420.0,0.0147
2419.0,0.0147
2418.0,0.0147
2417.0,0.0147
2416.0,0.0147
2415.0,0.0147
2414.0,0.0147
2413.0,0.0147
2412.0,0.0147
2411.0,0.0147
2410.0,0.0147
2409.0,0.0147
2408.0,0.0147
2407.0,0.0147
2406.0,0.0147
2405.0,0.0147
2404.0,0.0147
2403.0,0.0147
2402.0,0.0147
2401.0,0.0147
2400.0,0.0147
2399.0,0.0147
2398.0,0.0147
2397.0,0.0146
2396.0,0.0146
2395.0,0.0146
2394.0,0.0146
2393.0,0.0146
2392.0,0.0146
2391.0,0.0145
2390.0,0.0144
2389.0,0.0142
2388.0,0.0139
2387.0,0.0136
2386.0,0.0131
2385.0,0.0126
2384.0,0.012
2383.0,0.0113
2382.0,0.0104
2381.0,0.0094
2380.0,0.0082
2379.0,0.0073
2378.0,0.0055
2377.0,0.0053
2376.0,0.002
2375.0,0.0036
2374.0,-0.0048
2373.0,0.0103
2372.0,0.0869
2371.0,0.0753
2370.0,0.0775
2369.0,0.0711
2368.0,0.0686
2367.0,0.0645
2366.0,0.0618
2365.0,0.059
2364.0,0.0568
2363.0,0.0552
2362.0,0.0558
2361.0,0.0585
2360.0,0.0616
2359.0,0.0639
2358.0,0.0655
2357.0,0.0678
2356.0,0.0697
2355.0,0.0688
2354.0,0.0644
2353.0,0.0593
2352.0,0.0576
2351.0,0.059
2350.0,0.0605
2349.0,0.0597
2348.0,0.0569
2347.0,0.0553
2346.0,0.0565
2345.0,0.06
2344.0,0.062
2343.0,0.0611
2342.0,0.0593
2341.0,0.0571
2340.0,0.0547
2339.0,0.0514
2338.0,0.0486
2337.0,0.047
2336.0,0.0469
2335.0,0.0473
2334.0,0.0481
2333.0,0.0484
2332.0,0.0491
2331.0,0.0491
2330.0,0.0493
2329.0,0.0499
2328.0,0.0508
2327.0,0.0522
2326.0,0.053
2325.0,0.054
2324.0,0.0545
2323.0,0.0547
2322.0,0.0542
2321.0,0.0534
2320.0,0.0519
2319.0,0.0511
2318.0,0.048
2317.0,0.0476
2316.0,0.0372
2315.0,0.003
2314.0,0.007
2313.0,0.0055
2312.0,0.0066
2311.0,0.0065
2310.0,0.0072
2309.0,0.0077
2308.0,0.0085
2307.0,0.009
2306.0,0.0096
2305.0,0.0097
2304.0,0.0103
2303.0,0.0123
2302.0,0.0113
2301.0,0.0111
2300.0,0.011
2299.0,0.011
2298.0,0.0111
2297.0,0.0112
2296.0,0.0114
2295.0,0.0116
2294.0,0.0117
2293.0,0.012
2292.0,0.0122
2291.0,0.0125
2290.0,0.0127
2289.0,0.0129
2288.0,0.0131
2287.0,0.0134
2286.0,0.0137
2285.0,0.014
2284.0,0.0141
2283.0,0.014
2282.0,0.0138
2281.0,0.0136
2280.0,0.0136
2279.0,0.0135
2278.0,0.0136
2277.0,0.0136
2276.0,0.0137
2275.0,0.0137
2274.0,0.0137
2273.0,0.0137
2272.0,0.0137
2271.0,0.0137
2270.0,0.0138
2269.0,0.0138
2268.0,0.0139
2267.0,0.0139
2266.0,0.014
2265.0,0.014
2264.0,0.014
2263.0,0.014
2262.0,0.014
2261.0,0.014
2260.0,0.014
2259.0,0.014
2258.0,0.014
2257.0,0.0141
2256.0,0.0141
2255.0,0.0141
2254.0,0.0141
2253.0,0.0142
2252.0,0.0142
2251.0,0.0142
2250.0,0.0142
2249.0,0.0142
2248.0,0.0142
2247.0,0.0142
2246.0,0.0142
2245.0,0.0142
2244.0,0.0142
2243.0,0.0143
2242.0,0.0143
2241.0,0.0143
2240.0,0.0143
2239.0,0.0143
2238.0,0.0143
2237.0,0.0143
2236.0,0.0143
2235.0,0.0143
2234.0,0.0143
2233.0,0.0144
2232.0,0.0144
2231.0,0.0144
2230.0,0.0143
2229.0,0.0143
2228.0,0.0143
2227.0,0.0143
2226.0,0.0143
2225.0,0.0143
2224.0,0.0143
2223.0,0.0142
2222.0,0.0142
2221.0,0.0142
2220.0,0.0142
2219.0,0.0142
2218.0,0.0142
2217.0,0.0141
2216.0,0.0141
2215.0,0.0141
2214.0,0.0141
2213.0,0.0142
2212.0,0.0142
2211.0,0.0142
2210.0,0.0143
2209.0,0.0143
2208.0,0.0143
2207.0,0.0143
2206.0,0.0143
2205.0,0.0143
2204.0,0.0142
2203.0,0.0142
2202.0,0.0142
2201.0,0.0142
2200.0,0.0142
2199.0,0.0142
2198.0,0.0142
2197.0,0.0142
2196.0,0.0142
2195.0,0.0142
2194.0,0.0142
2193.0,0.0142
2192.0,0.0142
2191.0,0.0142
2190.0,0.0142
2189.0,0.0142
2188.0,0.0142
2187.0,0.0142
2186.0,0.0142
2185.0,0.0143
2184.0,0.0143
2183.0,0.0143
2182.0,0.0143
2181.0,0.0143
2180.0,0.0142
2179.0,0.0142
2178.0,0.0142
2177.0,0.0142
2176.0,0.0142
2175.0,0.0143
2174.0,0.0142
2173.0,0.0142
2172.0,0.0142
2171.0,0.0142
2170.0,0.0142
2169.0,0.0143
2168.0,0.0143
2167.0,0.0143
2166.0,0.0142
2165.0,0.0142
2164.0,0.0141
2163.0,0.0141
2162.0,0.0141
2161.0,0.0141
2160.0,0.014
2159.0,0.014
2158.0,0.014
2157.0,0.014
2156.0,0.014
2155.0,0.014
2154.0,0.0139
2153.0,0.0139
2152.0,0.0139
2151.0,0.0139
2150.0,0.014
2149.0,0.014
2148.0,0.014
2147.0,0.014
2146.0,0.014
2145.0,0.014
2144.0,0.014
2143.0,0.0141
2142.0,0.014
2141.0,0.014
2140.0,0.014
2139.0,0.0139
2138.0,0.0139
2137.0,0.0139
2136.0,0.0139
2135.0,0.0139
2134.0,0.0139
2133.0,0.0139
2132.0,0.0139
2131.0,0.0139
2130.0,0.0139
2129.0,0.014
2128.0,0.014
2127.0,0.014
2126.0,0.014
2125.0,0.0139
2124.0,0.0139
2123.0,0.0139
2122.0,0.0138
2121.0,0.0138
2120.0,0.0138
2119.0,0.0137
2118.0,0.0138
2117.0,0.0138
2116.0,0.0138
2115.0,0.0138
2114.0,0.0138
2113.0,0.0138
2112.0,0.0138
2111.0,0.0138
2110.0,0.0138
2109.0,0.0138
2108.0,0.0138
2107.0,0.0137
2106.0,0.0137
2105.0,0.0137
2104.0,0.0137
2103.0,0.0137
2102.0,0.0137
2101.0,0.0137
2100.0,0.0137
2099.0,0.0137
2098.0,0.0137
2097.0,0.0137
2096.0,0.0138
2095.0,0.0138
2094.0,0.0138
2093.0,0.0138
2092.0,0.0138
2091.0,0.0138
2090.0,0.0138
2089.0,0.0138
2088.0,0.0138
2087.0,0.0138
2086.0,0.0138
2085.0,0.0138
2084.0,0.0137
2083.0,0.0137
2082.0,0.0137
2081.0,0.0137
2080.0,0.0137
2079.0,0.0137
2078.0,0.0136
2077.0,0.0136
2076.0,0.0137
2075.0,0.0137
2074.0,0.0137
2073.0,0.0137
2072.0,0.0136
2071.0,0.0136
2070.0,0.0136
2069.0,0.0137
2068.0,0.0137
2067.0,0.0138
2066.0,0.0138
2065.0,0.0137
2064.0,0.0137
2063.0,0.0137
2062.0,0.0136
2061.0,0.0136
2060.0,0.0136
2059.0,0.0136
2058.0,0.0136
2057.0,0.0136
2056.0,0.0137
2055.0,0.0136
2054.0,0.0136
2053.0,0.0136
2052.0,0.0136
2051.0,0.0137
2050.0,0.0137
2049.0,0.0137
2048.0,0.0136
2047.0,0.0136
2046.0,0.0136
2045.0,0.0136
2044.0,0.0136
2043.0,0.0136
2042.0,0.0136
2041.0,0.0136
2040.0,0.0136
2039.0,0.0135
2038.0,0.0135
2037.0,0.0135
2036.0,0.0135
2035.0,0.0134
2034.0,0.0134
2033.0,0.0135
2032.0,0.0135
2031.0,0.0136
2030.0,0.0136
2029.0,0.0136
2028.0,0.0136
2027.0,0.0136
2026.0,0.0136
2025.0,0.0136
2024.0,0.0136
2023.0,0.0136
2022.0,0.0136
2021.0,0.0135
2020.0,0.0135
2019.0,0.0134
2018.0,0.0134
2017.0,0.0133
2016.0,0.0133
2015.0,0.0133
2014.0,0.0134
2013.0,0.0135
2012.0,0.0135
2011.0,0.0135
2010.0,0.0135
2009.0,0.0135
2008.0,0.0135
2007.0,0.0135
2006.0,0.0135
2005.0,0.0136
2004.0,0.0136
2003.0,0.0135
2002.0,0.0135
2001.0,0.0135
2000.0,0.0134
1999.0,0.0134
1998.0,0.0135
1997.0,0.0135
1996.0,0.0135
1995.0,0.0135
1994.0,0.0135
1993.0,0.0135
1992.0,0.0135
1991.0,0.0135
1990.0,0.0135
1989.0,0.0134
1988.0,0.0134
1987.0,0.0134
1986.0,0.0134
1985.0,0.0134
1984.0,0.0134
1983.0,0.0134
1982.0,0.0134
1981.0,0.0134
1980.0,0.0133
1979.0,0.0133
1978.0,0.0133
1977.0,0.0133
1976.0,0.0134
1975.0,0.0134
1974.0,0.0134
1973.0,0.0134
1972.0,0.0134
1971.0,0.0134
1970.0,0.0134
1969.0,0.0134
1968.0,0.0134
1967.0,0.0134
1966.0,0.0134
1965.0,0.0134
1964.0,0.0134
1963.0,0.0134
1962.0,0.0134
1961.0,0.0133
1960.0,0.0133
1959.0,0.0133
1958.0,0.0133
1957.0,0.0133
1956.0,0.0133
1955.0,0.0133
1954.0,0.0133
1953.0,0.0133
1952.0,0.0133
1951.0,0.0133
1950.0,0.0132
1949.0,0.0132
1948.0,0.0132
1947.0,0.0133
1946.0,0.0133
1945.0,0.0134
1944.0,0.0134
1943.0,0.0134
1942.0,0.0133
1941.0,0.0133
1940.0,0.0133
1939.0,0.0133
1938.0,0.0133
1937.0,0.0133
1936.0,0.0133
1935.0,0.0133
1934.0,0.0133
1933.0,0.0133
1932.0,0.0133
1931.0,0.0134
1930.0,0.0134
1929.0,0.0134
1928.0,0.0134
1927.0,0.0134
1926.0,0.0135
1925.0,0.0135
1924.0,0.0135
1923.0,0.0135
1922.0,0.0134
1921.0,0.0134
1920.0,0.0134
1919.0,0.0133
1918.0,0.0133
1917.0,0.0133
1916.0,0.0133
1915.0,0.0134
1914.0,0.0134
1913.0,0.0135
1912.0,0.0135
1911.0,0.0135
1910.0,0.0135
1909.0,0.0135
1908.0,0.0134
1907.0,0.0134
1906.0,0.0134
1905.0,0.0134
1904.0,0.0134
1903.0,0.0134
1902.0,0.0133
1901.0,0.0134
1900.0,0.0134
1899.0,0.0134
1898.0,0.0135
1897.0,0.0135
1896.0,0.0134
1895.0,0.0134
1894.0,0.0134
1893.0,0.0134
1892.0,0.0135
1891.0,0.0135
1890.0,0.0135
1889.0,0.0135
1888.0,0.0135
1887.0,0.0135
1886.0,0.0135
1885.0,0.0135
1884.0,0.0135
1883.0,0.0134
1882.0,0.0134
1881.0,0.0134
1880.0,0.0134
1879.0,0.0134
1878.0,0.0133
1877.0,0.0133
1876.0,0.0133
1875.0,0.0133
1874.0,0.0134
1873.0,0.0134
1872.0,0.0134
1871.0,0.0134
1870.0,0.0133
1869.0,0.0133
1868.0,0.0133
1867.0,0.0133
1866.0,0.0133
1865.0,0.0133
1864.0,0.0133
1863.0,0.0133
1862.0,0.0134
1861.0,0.0135
1860.0,0.0135
1859.0,0.0135
1858.0,0.0135
1857.0,0.0135
1856.0,0.0134
1855.0,0.0134
1854.0,0.0134
1853.0,0.0134
1852.0,0.0134
1851.0,0.0135
1850.0,0.0135
1849.0,0.0135
1848.0,0.0135
1847.0,0.0135
1846.0,0.0134
1845.0,0.0134
1844.0,0.0133
1843.0,0.0133
1842.0,0.0134
1841.0,0.0134
1840.0,0.0135
1839.0,0.0135
1838.0,0.0135
1837.0,0.0135
1836.0,0.0135
1835.0,0.0135
1834.0,0.0135
1833.0,0.0135
1832.0,0.0135
1831.0,0.0134
1830.0,0.0134
1829.0,0.0134
1828.0,0.0135
1827.0,0.0135
1826.0,0.0134
1825.0,0.0134
1824.0,0.0133
1823.0,0.0133
1822.0,0.0133
1821.0,0.0133
1820.0,0.0134
1819.0,0.0134
1818.0,0.0134
1817.0,0.0133
1816.0,0.0133
1815.0,0.0133
1814.0,0.0133
1813.0,0.0134
1812.0,0.0134
1811.0,0.0134
1810.0,0.0133
1809.0,0.0133
1808.0,0.0133
1807.0,0.0133
1806.0,0.0133
1805.0,0.0133
1804.0,0.0133
1803.0,0.0133
1802.0,0.0133
1801.0,0.0134
1800.0,0.0134
1799.0,0.0134
1798.0,0.0134
1797.0,0.0134
1796.0,0.0134
1795.0,0.0134
1794.0,0.0134
1793.0,0.0134
1792.0,0.0134
1791.0,0.0134
1790.0,0.0134
1789.0,0.0134
1788.0,0.0134
1787.0,0.0134
1786.0,0.0134
1785.0,0.0135
1784.0,0.0135
1783.0,0.0136
1782.0,0.0136
1781.0,0.0136
1780.0,0.0136
1779.0,0.0136
1778.0,0.0135
1777.0,0.0136
1776.0,0.0136
1775.0,0.0136
1774.0,0.0136
1773.0,0.0135
1772.0,0.0135
1771.0,0.0135
1770.0,0.0135
1769.0,0.0136
1768.0,0.0136
1767.0,0.0135
1766.0,0.0135
1765.0,0.0136
1764.0,0.0136
1763.0,0.0136
1762.0,0.0137
1761.0,0.0137
1760.0,0.0138
1759.0,0.0139
1758.0,0.0139
1757.0,0.0139
1756.0,0.0138
1755.0,0.0138
1754.0,0.0139
1753.0,0.014
1752.0,0.0141
1751.0,0.0141
1750.0,0.0142
1749.0,0.0143
1748.0,0.0143
1747.0,0.0144
1746.0,0.0144
1745.0,0.0144
1744.0,0.0145
1743.0,0.0146
1742.0,0.0145
1741.0,0.0145
1740.0,0.0145
1739.0,0.0145
1738.0,0.0145
1737.0,0.0145
1736.0,0.0146
1735.0,0.0145
1734.0,0.0146
1733.0,0.0147
1732.0,0.0148
1731.0,0.0149
1730.0,0.0149
1729.0,0.015
1728.0,0.015
1727.0,0.0151
1726.0,0.0152
1725.0,0.0153
1724.0,0.0153
1723.0,0.0153
1722.0,0.0152
1721.0,0.0153
1720.0,0.0155
1719.0,0.0157
1718.0,0.0158
1717.0,0.0159
1716.0,0.0159
1715.0,0.0159
1714.0,0.016
1713.0,0.0161
1712.0,0.0162
1711.0,0.0163
1710.0,0.0165
1709.0,0.0165
1708.0,0.0166
1707.0,0.0167
1706.0,0.0167
1705.0,0.0167
1704.0,0.0168
1703.0,0.0169
1702.0,0.0169
1701.0,0.0169
1700.0,0.0172
1699.0,0.0175
1698.0,0.0178
1697.0,0.0181
1696.0,0.0184
1695.0,0.0185
1694.0,0.0185
1693.0,0.0187
1692.0,0.0189
1691.0,0.0192
1690.0,0.0194
1689.0,0.0196
1688.0,0.0199
1687.0,0.0202
1686.0,0.0204
1685.0,0.0207
1684.0,0.0212
1683.0,0.0215
1682.0,0.0216
1681.0,0.0218
1680.0,0.022
1679.0,0.0221
1678.0,0.0222
1677.0,0.0223
1676.0,0.0225
1675.0,0.0229
1674.0,0.0233
1673.0,0.0235
1672.0,0.0237
1671.0,0.024
1670.0,0.0244
1669.0,0.0249
1668.0,0.0253
1667.0,0.0255
1666.0,0.0256
1665.0,0.0258
1664.0,0.026
1663.0,0.0264
1662.0,0.0268
1661.0,0.0272
1660.0,0.0275
1659.0,0.0277
1658.0,0.0279
1657.0,0.028
1656.0,0.0282
1655.0,0.0285
1654.0,0.029
1653.0,0.0301
1652.0,0.0306
1651.0,0.0306
1650.0,0.0308
1649.0,0.0311
1648.0,0.0318
1647.0,0.0328
1646.0,0.0337
1645.0,0.0342
1644.0,0.0347
1643.0,0.0351
1642.0,0.0355
1641.0,0.0358
1640.0,0.0359
1639.0,0.0358
1638.0,0.0353
1637.0,0.0346
1636.0,0.0337
1635.0,0.0328
1634.0,0.0321
1633.0,0.0315
1632.0,0.0309
1631.0,0.0303
1630.0,0.0297
1629.0,0.0291
1628.0,0.0285
1627.0,0.028
1626.0,0.0274
1625.0,0.0268
1624.0,0.0262
1623.0,0.0257
1622.0,0.0253
1621.0,0.025
1620.0,0.0248
1619.0,0.0246
1618.0,0.0243
1617.0,0.024
1616.0,0.0238
1615.0,0.0236
1614.0,0.0234
1613.0,0.0233
1612.0,0.0231
1611.0,0.0229
1610.0,0.0227
1609.0,0.0225
1608.0,0.0224
1607.0,0.0222
1606.0,0.0221
1605.0,0.022
1604.0,0.0218
1603.0,0.0217
1602.0,0.0215
1601.0,0.0214
1600.0,0.0212
1599.0,0.0211
1598.0,0.021
1597.0,0.0209
1596.0,0.0208
1595.0,0.0207
1594.0,0.0206
1593.0,0.0205
1592.0,0.0204
1591.0,0.0203
1590.0,0.0202
1589.0,0.0201
1588.0,0.02
1587.0,0.02
1586.0,0.0199
1585.0,0.0198
1584.0,0.0197
1583.0,0.0196
1582.0,0.0195
1581.0,0.0195
1580.0,0.0194
1579.0,0.0194
1578.0,0.0194
1577.0,0.0192
1576.0,0.019
1575.0,0.0188
1574.0,0.0187
1573.0,0.0186
1572.0,0.0186
1571.0,0.0185
1570.0,0.0185
1569.0,0.0185
1568.0,0.0184
1567.0,0.0183
1566.0,0.0182
1565.0,0.018
1564.0,0.0178
1563.0,0.0177
1562.0,0.0177
1561.0,0.0176
1560.0,0.0176
1559.0,0.0175
1558.0,0.0175
1557.0,0.0172
1556.0,0.0171
1555.0,0.017
1554.0,0.017
1553.0,0.0169
1552.0,0.0169
1551.0,0.0168
1550.0,0.0168
1549.0,0.0166
1548.0,0.0166
1547.0,0.0165
1546.0,0.0165
1545.0,0.0164
1544.0,0.0163
1543.0,0.0162
1542.0,0.016
1541.0,0.0159
1540.0,0.0161
1539.0,0.016
1538.0,0.0158
1537.0,0.0157
1536.0,0.0157
1535.0,0.0156
1534.0,0.0155
1533.0,0.0154
1532.0,0.0153
1531.0,0.0152
1530.0,0.0151
1529.0,0.0151
1528.0,0.0151
1527.0,0.0149
1526.0,0.0147
1525.0,0.0145
1524.0,0.0145
1523.0,0.0145
1522.0,0.0145
1521.0,0.0146
1520.0,0.0147
1519.0,0.0147
1518.0,0.0147
1517.0,0.0147
1516.0,0.0146
1515.0,0.0145
1514.0,0.0144
1513.0,0.0143
1512.0,0.0143
1511.0,0.0143
1510.0,0.0143
1509.0,0.0144
1508.0,0.0145
1507.0,0.0144
1506.0,0.0142
1505.0,0.0139
1504.0,0.0138
1503.0,0.0138
1502.0,0.0137
1501.0,0.0137
1500.0,0.0136
1499.0,0.0136
1498.0,0.0136
1497.0,0.0137
1496.0,0.0137
1495.0,0.0136
1494.0,0.0136
1493.0,0.0136
1492.0,0.0137
1491.0,0.0138
1490.0,0.0138
1489.0,0.0139
1488.0,0.0141
1487.0,0.0141
1486.0,0.0142
1485.0,0.0143
1484.0,0.0146
1483.0,0.0148
1482.0,0.0151
1481.0,0.0154
1480.0,0.0158
1479.0,0.0162
1478.0,0.0167
1477.0,0.0175
1476.0,0.0185
1475.0,0.0196
1474.0,0.0213
1473.0,0.0246
1472.0,0.0285
1471.0,0.0318
1470.0,0.0348
1469.0,0.0381
1468.0,0.0416
1467.0,0.0457
1466.0,0.0508
1465.0,0.0568
1464.0,0.0621
1463.0,0.0655
1462.0,0.0677
1461.0,0.0693
1460.0,0.0706
1459.0,0.0716
1458.0,0.073
1457.0,0.075
1456.0,0.0762
1455.0,0.0764
1454.0,0.0764
1453.0,0.0763
1452.0,0.0757
1451.0,0.0747
1450.0,0.073
1449.0,0.0703
1448.0,0.0665
1447.0,0.0623
1446.0,0.0584
1445.0,0.055
1444.0,0.0518
1443.0,0.0491
1442.0,0.0469
1441.0,0.0452
1440.0,0.0441
1439.0,0.0434
1438.0,0.0435
1437.0,0.0441
1436.0,0.0444
1435.0,0.0436
1434.0,0.042
1433.0,0.0398
1432.0,0.0373
1431.0,0.0349
1430.0,0.0328
1429.0,0.0312
1428.0,0.03
1427.0,0.0292
1426.0,0.0285
1425.0,0.0278
1424.0,0.0271
1423.0,0.0266
1422.0,0.0262
1421.0,0.0259
1420.0,0.0254
1419.0,0.0251
1418.0,0.0248
1417.0,0.0245
1416.0,0.0241
1415.0,0.0238
1414.0,0.0235
1413.0,0.0232
1412.0,0.0228
1411.0,0.0226
1410.0,0.0224
1409.0,0.0221
1408.0,0.0218
1407.0,0.0216
1406.0,0.0213
1405.0,0.021
1404.0,0.0207
1403.0,0.0204
1402.0,0.0202
1401.0,0.02
1400.0,0.0197
1399.0,0.0194
1398.0,0.0193
1397.0,0.0191
1396.0,0.0188
1395.0,0.0186
1394.0,0.0185
1393.0,0.0182
1392.0,0.0179
1391.0,0.0178
1390.0,0.0179
1389.0,0.0181
1388.0,0.0185
1387.0,0.0195
1386.0,0.0212
1385.0,0.0238
1384.0,0.0277
1383.0,0.0336
1382.0,0.0416
1381.0,0.052
1380.0,0.065
1379.0,0.0801
1378.0,0.095
1377.0,0.1068
1376.0,0.1133
1375.0,0.1125
1374.0,0.1048
1373.0,0.094
1372.0,0.0834
1371.0,0.0739
1370.0,0.0654
1369.0,0.0582
1368.0,0.0528
1367.0,0.0491
1366.0,0.0467
1365.0,0.0454
1364.0,0.0449
1363.0,0.0452
1362.0,0.0461
1361.0,0.0472
1360.0,0.0481
1359.0,0.0485
1358.0,0.0481
1357.0,0.047
1356.0,0.0452
1355.0,0.043
1354.0,0.0408
1353.0,0.0388
1352.0,0.0371
1351.0,0.0357
1350.0,0.0343
1349.0,0.0332
1348.0,0.0322
1347.0,0.0314
1346.0,0.0307
1345.0,0.03
1344.0,0.0295
1343.0,0.0291
1342.0,0.0287
1341.0,0.0284
1340.0,0.0282
1339.0,0.028
1338.0,0.0277
1337.0,0.0276
1336.0,0.0274
1335.0,0.0273
1334.0,0.0274
1333.0,0.0275
1332.0,0.0277
1331.0,0.0279
1330.0,0.028
1329.0,0.0281
1328.0,0.0279
1327.0,0.0276
1326.0,0.0272
1325.0,0.0269
1324.0,0.0265
1323.0,0.0261
1322.0,0.0258
1321.0,0.0256
1320.0,0.0254
1319.0,0.0253
1318.0,0.0251
1317.0,0.025
1316.0,0.0248
1315.0,0.0247
1314.0,0.0245
1313.0,0.0244
1312.0,0.0243
1311.0,0.0242
1310.0,0.0243
1309.0,0.0245
1308.0,0.0248
1307.0,0.0252
1306.0,0.0256
1305.0,0.0259
1304.0,0.026
1303.0,0.026
1302.0,0.0259
1301.0,0.0258
1300.0,0.0258
1299.0,0.0259
1298.0,0.0261
1297.0,0.0262
1296.0,0.0263
1295.0,0.0262
1294.0,0.0261
1293.0,0.0259
1292.0,0.0256
1291.0,0.0254
1290.0,0.0251
1289.0,0.0249
1288.0,0.0247
1287.0,0.0245
1286.0,0.0243
1285.0,0.0242
1284.0,0.0242
1283.0,0.0241
1282.0,0.024
1281.0,0.0239
1280.0,0.0238
1279.0,0.0237
1278.0,0.0236
1277.0,0.0235
1276.0,0.0234
1275.0,0.0234
1274.0,0.0234
1273.0,0.0234
1272.0,0.0234
1271.0,0.0234
1270.0,0.0234
1269.0,0.0234
1268.0,0.0234
1267.0,0.0235
1266.0,0.0236
1265.0,0.0237
1264.0,0.0239
1263.0,0.024
1262.0,0.0242
1261.0,0.0244
1260.0,0.0247
1259.0,0.0251
1258.0,0.0255
1257.0,0.0258
1256.0,0.026
1255.0,0.026
1254.0,0.0258
1253.0,0.0255
1252.0,0.0251
1251.0,0.0249
1250.0,0.0246
1249.0,0.0244
1248.0,0.0243
1247.0,0.0241
1246.0,0.024
1245.0,0.0239
1244.0,0.0238
1243.0,0.0238
1242.0,0.0238
1241.0,0.0237
1240.0,0.0236
1239.0,0.0236
1238.0,0.0236
1237.0,0.0235
1236.0,0.0235
1235.0,0.0236
1234.0,0.0236
1233.0,0.0235
1232.0,0.0235
1231.0,0.0235
1230.0,0.0235
1229.0,0.0236
1228.0,0.0237
1227.0,0.0238
1226.0,0.0239
1225.0,0.0241
1224.0,0.0243
1223.0,0.0246
1222.0,0.0248
1221.0,0.025
1220.0,0.0252
1219.0,0.0253
1218.0,0.0253
1217.0,0.0253
1216.0,0.0253
1215.0,0.0252
1214.0,0.0251
1213.0,0.025
1212.0,0.0249
1211.0,0.0248
1210.0,0.0247
1209.0,0.0247
1208.0,0.0247
1207.0,0.0247
1206.0,0.0248
1205.0,0.0248
1204.0,0.0249
1203.0,0.0249
1202.0,0.025
1201.0,0.0251
1200.0,0.0251
1199.0,0.0252
1198.0,0.0253
1197.0,0.0254
1196.0,0.0256
1195.0,0.0257
1194.0,0.0259
1193.0,0.0261
1192.0,0.0262
1191.0,0.0264
1190.0,0.0265
1189.0,0.0267
1188.0,0.0268
1187.0,0.0269
1186.0,0.027
1185.0,0.0272
1184.0,0.0273
1183.0,0.0275
1182.0,0.0277
1181.0,0.0279
1180.0,0.0282
1179.0,0.0285
1178.0,0.0289
1177.0,0.0294
1176.0,0.03
1175.0,0.0309
1174.0,0.0319
1173.0,0.0331
1172.0,0.0346
1171.0,0.0362
1170.0,0.0379
1169.0,0.0393
1168.0,0.0404
1167.0,0.0411
1166.0,0.0414
1165.0,0.0415
1164.0,0.0415
1163.0,0.0415
1162.0,0.0415
1161.0,0.0416
1160.0,0.0418
1159.0,0.0421
1158.0,0.0424
1157.0,0.0429
1156.0,0.0435
1155.0,0.0441
1154.0,0.0448
1153.0,0.0455
1152.0,0.0461
1151.0,0.0465
1150.0,0.0468
1149.0,0.0471
1148.0,0.0473
1147.0,0.0475
1146.0,0.0477
1145.0,0.0479
1144.0,0.0482
1143.0,0.0485
1142.0,0.0489
1141.0,0.0492
1140.0,0.0496
1139.0,0.05
1138.0,0.0504
1137.0,0.0508
1136.0,0.0512
1135.0,0.0516
1134.0,0.0519
1133.0,0.0523
1132.0,0.0528
1131.0,0.0531
1130.0,0.0534
1129.0,0.0535
1128.0,0.0536
1127.0,0.0537
1126.0,0.0536
1125.0,0.0536
1124.0,0.0535
1123.0,0.0533
1122.0,0.0531
1121.0,0.0528
1120.0,0.0525
1119.0,0.0522
1118.0,0.0519
1117.0,0.0516
1116.0,0.0512
1115.0,0.0508
1114.0,0.0503
1113.0,0.05
1112.0,0.0496
1111.0,0.0494
1110.0,0.0491
1109.0,0.049
1108.0,0.0489
1107.0,0.049
1106.0,0.0492
1105.0,0.0495
1104.0,0.0497
1103.0,0.0497
1102.0,0.0496
1101.0,0.0492
1100.0,0.0488
1099.0,0.0482
1098.0,0.0475
1097.0,0.0469
1096.0,0.0462
1095.0,0.0456
1094.0,0.0451
1093.0,0.0447
1092.0,0.0443
1091.0,0.0439
1090.0,0.0436
1089.0,0.0432
1088.0,0.0429
1087.0,0.0425
1086.0,0.0421
1085.0,0.0418
1084.0,0.0415
1083.0,0.0412
1082.0,0.0409
1081.0,0.0406
1080.0,0.0403
1079.0,0.0398
1078.0,0.0394
1077.0,0.039
1076.0,0.0385
1075.0,0.038
1074.0,0.0375
1073.0,0.037
1072.0,0.0366
1071.0,0.0361
1070.0,0.0358
1069.0,0.0354
1068.0,0.0351
1067.0,0.0348
1066.0,0.0344
1065.0,0.034
1064.0,0.0337
1063.0,0.0334
1062.0,0.0331
1061.0,0.0328
1060.0,0.0325
1059.0,0.0322
1058.0,0.0319
1057.0,0.0316
1056.0,0.0315
1055.0,0.0313
1054.0,0.0311
1053.0,0.031
1052.0,0.0308
1051.0,0.0306
1050.0,0.0304
1049.0,0.0303
1048.0,0.0302
1047.0,0.0302
1046.0,0.0303
1045.0,0.0303
1044.0,0.0303
1043.0,0.0302
1042.0,0.03
1041.0,0.0298
1040.0,0.0296
1039.0,0.0293
1038.0,0.0291
1037.0,0.0289
1036.0,0.0288
1035.0,0.0287
1034.0,0.0286
1033.0,0.0285
1032.0,0.0283
1031.0,0.0282
1030.0,0.028
1029.0,0.0279
1028.0,0.0279
1027.0,0.0278
1026.0,0.0278
1025.0,0.0277
1024.0,0.0276
1023.0,0.0274
1022.0,0.0273
1021.0,0.0273
1020.0,0.0272
1019.0,0.0272
1018.0,0.0272
1017.0,0.0273
1016.0,0.0273
1015.0,0.0273
1014.0,0.0273
1013.0,0.0272
1012.0,0.0272
1011.0,0.0272
1010.0,0.0273
1009.0,0.0275
1008.0,0.0277
1007.0,0.028
1006.0,0.0284
1005.0,0.0289
1004.0,0.0296
1003.0,0.0306
1002.0,0.032
1001.0,0.0339
1000.0,0.0359
999.0,0.0377
998.0,0.0387
997.0,0.0386
996.0,0.0375
995.0,0.0359
994.0,0.0341
993.0,0.0325
992.0,0.0312
991.0,0.0301
990.0,0.0293
989.0,0.0287
988.0,0.0284
987.0,0.0283
986.0,0.0283
985.0,0.0283
984.0,0.0284
983.0,0.0285
982.0,0.0289
981.0,0.0296
980.0,0.0307
979.0,0.0324
978.0,0.0345
977.0,0.037
976.0,0.0397
975.0,0.0421
974.0,0.0439
973.0,0.0445
972.0,0.0439
971.0,0.0423
970.0,0.04
969.0,0.0377
968.0,0.0356
967.0,0.034
966.0,0.0327
965.0,0.0318
964.0,0.031
963.0,0.0304
962.0,0.0299
961.0,0.0295
960.0,0.0292
959.0,0.0289
958.0,0.0286
957.0,0.0283
956.0,0.028
955.0,0.0278
954.0,0.0276
953.0,0.0275
952.0,0.0273
951.0,0.0271
950.0,0.027
949.0,0.027
948.0,0.0271
947.0,0.0272
946.0,0.0273
945.0,0.0275
944.0,0.0277
943.0,0.0279
942.0,0.0282
941.0,0.0283
940.0,0.0282
939.0,0.028
938.0,0.0278
937.0,0.0275
936.0,0.0272
935.0,0.0269
934.0,0.0267
933.0,0.0265
932.0,0.0263
931.0,0.0262
930.0,0.0261
929.0,0.026
928.0,0.026
927.0,0.026
926.0,0.026
925.0,0.0259
924.0,0.0259
923.0,0.0259
922.0,0.0258
921.0,0.0258
920.0,0.0258
919.0,0.0258
918.0,0.0258
917.0,0.0258
916.0,0.0258
915.0,0.0257
914.0,0.0257
913.0,0.0257
912.0,0.0258
911.0,0.026
910.0,0.0261
909.0,0.0263
908.0,0.0265
907.0,0.0268
906.0,0.0272
905.0,0.0279
904.0,0.0289
903.0,0.0302
902.0,0.0318
901.0,0.0335
900.0,0.0348
899.0,0.0356
898.0,0.0355
897.0,0.0348
896.0,0.0336
895.0,0.0323
894.0,0.0312
893.0,0.0304
892.0,0.03
891.0,0.0296
890.0,0.0293
889.0,0.029
888.0,0.0288
887.0,0.0288
886.0,0.0287
885.0,0.0286
884.0,0.0286
883.0,0.0286
882.0,0.0285
881.0,0.0285
880.0,0.0285
879.0,0.0286
878.0,0.0286
877.0,0.0288
876.0,0.0289
875.0,0.0289
874.0,0.029
873.0,0.029
872.0,0.0292
871.0,0.0293
870.0,0.0294
869.0,0.0294
868.0,0.0294
867.0,0.0294
866.0,0.0294
865.0,0.0293
864.0,0.0293
863.0,0.0294
862.0,0.0295
861.0,0.0297
860.0,0.0299
859.0,0.0301
858.0,0.0304
857.0,0.0306
856.0,0.0306
855.0,0.0306
854.0,0.0306
853.0,0.0308
852.0,0.031
851.0,0.0313
850.0,0.0316
849.0,0.0319
848.0,0.0323
847.0,0.0328
846.0,0.0337
845.0,0.0352
844.0,0.0372
843.0,0.0397
842.0,0.0417
841.0,0.0426
840.0,0.042
839.0,0.0403
838.0,0.0383
837.0,0.0366
836.0,0.0355
835.0,0.0348
834.0,0.0343
833.0,0.034
832.0,0.0337
831.0,0.0336
830.0,0.0335
829.0,0.0335
828.0,0.0333
827.0,0.0331
826.0,0.033
825.0,0.033
824.0,0.0332
823.0,0.0333
822.0,0.0334
821.0,0.0335
820.0,0.0335
819.0,0.0337
818.0,0.034
817.0,0.0345
816.0,0.035
815.0,0.0358
814.0,0.0368
813.0,0.0382
812.0,0.0398
811.0,0.0413
810.0,0.0426
809.0,0.0434
808.0,0.0436
807.0,0.0432
806.0,0.0424
805.0,0.0414
804.0,0.0404
803.0,0.0395
802.0,0.0388
801.0,0.0383
800.0,0.038
799.0,0.0379
798.0,0.0378
797.0,0.0377
796.0,0.0376
795.0,0.0374
794.0,0.0372
793.0,0.0371
792.0,0.0371
791.0,0.0372
790.0,0.0372
789.0,0.0372
788.0,0.0371
787.0,0.037
786.0,0.037
785.0,0.0371
784.0,0.0372
783.0,0.0373
782.0,0.0374
781.0,0.0375
780.0,0.0376
779.0,0.0378
778.0,0.038
777.0,0.0382
776.0,0.0385
775.0,0.0388
774.0,0.039
773.0,0.0392
772.0,0.0392
771.0,0.039
770.0,0.0389
769.0,0.0388
768.0,0.0389
767.0,0.039
766.0,0.039
765.0,0.0391
764.0,0.0391
763.0,0.0392
762.0,0.0392
761.0,0.0392
760.0,0.0393
759.0,0.0393
758.0,0.0393
757.0,0.0393
756.0,0.0394
755.0,0.0394
754.0,0.0393
753.0,0.0393
752.0,0.0393
751.0,0.0394
750.0,0.0395
749.0,0.0396
748.0,0.0396
747.0,0.0397
746.0,0.0398
745.0,0.04
744.0,0.0402
743.0,0.0402
742.0,0.0401
741.0,0.04
740.0,0.04
739.0,0.0402
738.0,0.0405
737.0,0.0407
736.0,0.0408
735.0,0.0407
734.0,0.0408
733.0,0.0409
732.0,0.0411
731.0,0.0413
730.0,0.0414
729.0,0.0415
728.0,0.0413
727.0,0.0411
726.0,0.0409
725.0,0.041
724.0,0.0413
723.0,0.0414
722.0,0.0413
721.0,0.0411
720.0,0.041
719.0,0.0411
718.0,0.0414
717.0,0.0414
716.0,0.0413
715.0,0.041
714.0,0.0406
713.0,0.0404
712.0,0.0404
711.0,0.0406
710.0,0.0408
709.0,0.0409
708.0,0.041
707.0,0.0411
706.0,0.0413
705.0,0.0415
704.0,0.0416
703.0,0.0416
702.0,0.0416
701.0,0.0416
700.0,0.0418
699.0,0.0418
698.0,0.0418
697.0,0.0416
696.0,0.0414
695.0,0.0415
694.0,0.0419
693.0,0.0422
692.0,0.0425
691.0,0.0429
690.0,0.0435
689.0,0.0447
688.0,0.0452
687.0,0.0462
686.0,0.0445
685.0,0.0415
684.0,0.0428
683.0,0.0431
682.0,0.0433
681.0,0.0423
680.0,0.041
679.0,0.0401
678.0,0.0403
677.0,0.0413
676.0,0.0422
675.0,0.0426
674.0,0.0424
673.0,0.0418
672.0,0.0409
671.0,0.0399
670.0,0.0396
669.0,0.0416
668.0,0.0452
667.0,0.0466
666.0,0.0461
665.0,0.0454
664.0,0.0448
663.0,0.0445
662.0,0.0445
661.0,0.0446
660.0,0.0445
659.0,0.0444
658.0,0.0445
657.0,0.0451
656.0,0.0458
655.0,0.0466
654.0,0.0473
653.0,0.0486
652.0,0.0489
651.0,0.05
650.0,0.0512
649.0,0.0496
648.0,0.049
647.0,0.0484
646.0,0.0486
645.0,0.0492
644.0,0.0499
643.0,0.0504
642.0,0.0507
641.0,0.0512
640.0,0.0518
639.0,0.0526
638.0,0.0536
637.0,0.0551
636.0,0.0569
635.0,0.0581
634.0,0.0583
633.0,0.0575
632.0,0.0564
631.0,0.0554
630.0,0.0548
629.0,0.0547
628.0,0.0547
627.0,0.0542
626.0,0.0534
625.0,0.0528
624.0,0.0526
623.0,0.0524
622.0,0.0522
621.0,0.0519
620.0,0.0513
619.0,0.0506
618.0,0.0501
617.0,0.0503
616.0,0.0511
615.0,0.0517
614.0,0.0519
613.0,0.0518
612.0,0.0512
611.0,0.0501
610.0,0.049
609.0,0.0485
608.0,0.0489
607.0,0.0495
606.0,0.0498
605.0,0.0497
604.0,0.0495
603.0,0.0493
602.0,0.0489
601.0,0.0485
600.0,0.048
