cm-1,A
4000.0,0.0067
3999.0,0.0066
3998.0,0.0066
3997.0,0.0067
3996.0,0.0066
3995.0,0.0067
3994.0,0.0067
3993.0,0.0067
3992.0,0.0066
3991.0,0.0066
3990.0,0.0067
3989.0,0.0067
3988.0,0.0068
3987.0,0.0068
3986.0,0.0068
3985.0,0.0067
3984.0,0.0067
3983.0,0.0066
3982.0,0.0066
3981.0,0.0066
3980.0,0.0065
3979.0,0.0065
3978.0,0.0066
3977.0,0.0066
3976.0,0.0067
3975.0,0.0068
3974.0,0.0068
3973.0,0.0068
3972.0,0.0069
3971.0,0.0069
3970.0,0.0069
3969.0,0.0069
3968.0,0.0068
3967.0,0.0068
3966.0,0.0068
3965.0,0.0068
3964.0,0.0067
3963.0,0.0066
3962.0,0.0066
3961.0,0.0066
3960.0,0.0067
3959.0,0.0068
3958.0,0.0068
3957.0,0.0067
3956.0,0.0066
3955.0,0.0066
3954.0,0.0067
3953.0,0.0069
3952.0,0.0071
3951.0,0.0071
3950.0,0.007
3949.0,0.0068
3948.0,0.0067
3947.0,0.0067
3946.0,0.0067
3945.0,0.0067
3944.0,0.0067
3943.0,0.0068
3942.0,0.0068
3941.0,0.0069
3940.0,0.0069
3939.0,0.0069
3938.0,0.0069
3937.0,0.0069
3936.0,0.0069
3935.0,0.0068
3934.0,0.0067
3933.0,0.0066
3932.0,0.0066
3931.0,0.0066
3930.0,0.0068
3929.0,0.0069
3928.0,0.0071
3927.0,0.0071
3926.0,0.007
3925.0,0.007
3924.0,0.007
3923.0,0.007
3922.0,0.0071
3921.0,0.0071
3920.0,0.0071
3919.0,0.007
3918.0,0.0068
3917.0,0.0067
3916.0,0.0066
3915.0,0.0067
3914.0,0.0068
3913.0,0.0069
3912.0,0.0069
3911.0,0.007
3910.0,0.0071
3909.0,0.0071
3908.0,0.0072
3907.0,0.0071
3906.0,0.007
3905.0,0.0069
3904.0,0.0067
3903.0,0.0067
3902.0,0.0067
3901.0,0.0068
3900.0,0.0068
3899.0,0.0068
3898.0,0.0068
3897.0,0.0068
3896.0,0.0069
3895.0,0.007
3894.0,0.0072
3893.0,0.0073
3892.0,0.0072
3891.0,0.0071
3890.0,0.0071
3889.0,0.0072
3888.0,0.0072
3887.0,0.0071
3886.0,0.007
3885.0,0.0069
3884.0,0.0069
3883.0,0.0069
3882.0,0.0069
3881.0,0.007
3880.0,0.0071
3879.0,0.0073
3878.0,0.0075
3877.0,0.0075
3876.0,0.0074
3875.0,0.0074
3874.0,0.0075
3873.0,0.0076
3872.0,0.0077
3871.0,0.0077
3870.0,0.0076
3869.0,0.0076
3868.0,0.0077
3867.0,0.0077
3866.0,0.0076
3865.0,0.0074
3864.0,0.0072
3863.0,0.0071
3862.0,0.0071
3861.0,0.0071
3860.0,0.0072
3859.0,0.0073
3858.0,0.0074
3857.0,0.0075
3856.0,0.0076
3855.0,0.0077
3854.0,0.0079
3853.0,0.0078
3852.0,0.0077
3851.0,0.0076
3850.0,0.0074
3849.0,0.0073
3848.0,0.0073
3847.0,0.0074
3846.0,0.0075
3845.0,0.0077
3844.0,0.0078
3843.0,0.0079
3842.0,0.008
3841.0,0.008
3840.0,0.0079
3839.0,0.0077
3838.0,0.0074
3837.0,0.0073
3836.0,0.0073
3835.0,0.0074
3834.0,0.0075
3833.0,0.0076
3832.0,0.0076
3831.0,0.0076
3830.0,0.0077
3829.0,0.0077
3828.0,0.0078
3827.0,0.0079
3826.0,0.008
3825.0,0.0082
3824.0,0.0084
3823.0,0.0085
3822.0,0.0085
3821.0,0.0084
3820.0,0.0082
3819.0,0.008
3818.0,0.0077
3817.0,0.0075
3816.0,0.0074
3815.0,0.0075
3814.0,0.0077
3813.0,0.0077
3812.0,0.0078
3811.0,0.0078
3810.0,0.0079
3809.0,0.008
3808.0,0.0081
3807.0,0.0081
3806.0,0.0082
3805.0,0.0083
3804.0,0.0084
3803.0,0.0084
3802.0,0.0083
3801.0,0.0082
3800.0,0.0081
3799.0,0.008
3798.0,0.008
3797.0,0.0079
3796.0,0.0078
3795.0,0.0078
3794.0,0.0078
3793.0,0.0077
3792.0,0.0077
3791.0,0.0077
3790.0,0.0077
3789.0,0.0077
3788.0,0.0077
3787.0,0.0077
3786.0,0.0078
3785.0,0.0079
3784.0,0.008
3783.0,0.008
3782.0,0.008
3781.0,0.0078
3780.0,0.0077
3779.0,0.0076
3778.0,0.0076
3777.0,0.0076
3776.0,0.0076
3775.0,0.0076
3774.0,0.0076
3773.0,0.0077
3772.0,0.0077
3771.0,0.0077
3770.0,0.0076
3769.0,0.0077
3768.0,0.0077
3767.0,0.0078
3766.0,0.0079
3765.0,0.008
3764.0,0.0081
3763.0,0.0082
3762.0,0.0083
3761.0,0.0084
3760.0,0.0084
3759.0,0.0084
3758.0,0.0083
3757.0,0.0083
3756.0,0.0083
3755.0,0.0083
3754.0,0.0083
3753.0,0.0084
3752.0,0.0086
3751.0,0.0087
3750.0,0.0086
3749.0,0.0086
3748.0,0.0087
3747.0,0.0087
3746.0,0.0086
3745.0,0.0085
3744.0,0.0085
3743.0,0.0086
3742.0,0.0088
3741.0,0.0089
3740.0,0.009
3739.0,0.009
3738.0,0.0091
3737.0,0.0092
3736.0,0.0094
3735.0,0.0095
3734.0,0.0094
3733.0,0.0093
3732.0,0.0093
3731.0,0.0093
3730.0,0.0094
3729.0,0.0095
3728.0,0.0096
3727.0,0.0096
3726.0,0.0095
3725.0,0.0092
3724.0,0.0089
3723.0,0.0087
3722.0,0.0085
3721.0,0.0084
3720.0,0.0084
3719.0,0.0084
3718.0,0.0083
3717.0,0.0083
3716.0,0.0082
3715.0,0.0082
3714.0,0.0083
3713.0,0.0088
3712.0,0.0094
3711.0,0.0096
3710.0,0.0095
3709.0,0.0091
3708.0,0.0089
3707.0,0.0087
3706.0,0.0087
3705.0,0.0086
3704.0,0.0085
3703.0,0.0083
3702.0,0.0082
3701.0,0.0081
3700.0,0.0082
3699.0,0.0083
3698.0,0.0084
3697.0,0.0085
3696.0,0.0086
3695.0,0.0088
3694.0,0.0089
3693.0,0.009
3692.0,0.009
3691.0,0.0088
3690.0,0.0084
3689.0,0.0081
3688.0,0.0079
3687.0,0.0079
3686.0,0.008
3685.0,0.008
3684.0,0.008
3683.0,0.008
3682.0,0.0081
3681.0,0.0082
3680.0,0.0083
3679.0,0.0083
3678.0,0.0083
3677.0,0.0081
3676.0,0.0079
3675.0,0.0079
3674.0,0.0081
3673.0,0.0083
3672.0,0.0084
3671.0,0.0084
3670.0,0.0083
3669.0,0.008
3668.0,0.0078
3667.0,0.0076
3666.0,0.0075
3665.0,0.0075
3664.0,0.0075
3663.0,0.0076
3662.0,0.0075
3661.0,0.0075
3660.0,0.0076
3659.0,0.0078
3658.0,0.008
3657.0,0.0081
3656.0,0.0082
3655.0,0.0082
3654.0,0.0082
3653.0,0.0081
3652.0,0.008
3651.0,0.008
3650.0,0.0082
3649.0,0.0082
3648.0,0.008
3647.0,0.0081
3646.0,0.0082
3645.0,0.0083
3644.0,0.0084
3643.0,0.0083
3642.0,0.0084
3641.0,0.0084
3640.0,0.0085
3639.0,0.0086
3638.0,0.0087
3637.0,0.0088
3636.0,0.009
3635.0,0.0092
3634.0,0.0094
3633.0,0.0096
3632.0,0.0097
3631.0,0.0096
3630.0,0.0095
3629.0,0.0093
3628.0,0.0091
3627.0,0.0091
3626.0,0.0091
3625.0,0.0091
3624.0,0.009
3623.0,0.0089
3622.0,0.0087
3621.0,0.0085
3620.0,0.0084
3619.0,0.0085
3618.0,0.0087
3617.0,0.0088
3616.0,0.0089
3615.0,0.0088
3614.0,0.0088
3613.0,0.0088
3612.0,0.0089
3611.0,0.009
3610.0,0.0092
3609.0,0.0094
3608.0,0.0095
3607.0,0.0094
3606.0,0.0093
3605.0,0.0091
3604.0,0.0091
3603.0,0.0092
3602.0,0.0093
3601.0,0.0093
3600.0,0.0092
3599.0,0.009
3598.0,0.0089
3597.0,0.009
3596.0,0.0092
3595.0,0.0094
3594.0,0.0094
3593.0,0.0095
3592.0,0.0094
3591.0,0.0093
3590.0,0.009
3589.0,0.0087
3588.0,0.0085
3587.0,0.0085
3586.0,0.0086
3585.0,0.0088
3584.0,0.0089
3583.0,0.009
3582.0,0.0091
3581.0,0.0091
3580.0,0.0091
3579.0,0.009
3578.0,0.009
3577.0,0.009
3576.0,0.009
3575.0,0.009
3574.0,0.009
3573.0,0.009
3572.0,0.009
3571.0,0.0091
3570.0,0.0091
3569.0,0.0091
3568.0,0.0091
3567.0,0.0089
3566.0,0.0087
3565.0,0.0086
3564.0,0.0086
3563.0,0.0086
3562.0,0.0087
3561.0,0.0087
3560.0,0.0088
3559.0,0.0089
3558.0,0.009
3557.0,0.0091
3556.0,0.0092
3555.0,0.0091
3554.0,0.0091
3553.0,0.009
3552.0,0.0091
3551.0,0.0091
3550.0,0.0092
3549.0,0.0092
3548.0,0.0092
3547.0,0.0092
3546.0,0.0092
3545.0,0.0092
3544.0,0.0091
3543.0,0.0091
3542.0,0.0091
3541.0,0.0091
3540.0,0.0092
3539.0,0.0093
3538.0,0.0093
3537.0,0.0093
3536.0,0.0092
3535.0,0.0092
3534.0,0.0092
3533.0,0.0092
3532.0,0.0092
3531.0,0.0092
3530.0,0.0091
3529.0,0.0091
3528.0,0.0092
3527.0,0.0093
3526.0,0.0093
3525.0,0.0094
3524.0,0.0093
3523.0,0.0093
3522.0,0.0093
3521.0,0.0093
3520.0,0.0094
3519.0,0.0095
3518.0,0.0095
3517.0,0.0095
3516.0,0.0094
3515.0,0.0094
3514.0,0.0094
3513.0,0.0094
3512.0,0.0094
3511.0,0.0094
3510.0,0.0093
3509.0,0.0092
3508.0,0.0092
3507.0,0.0093
3506.0,0.0094
3505.0,0.0095
3504.0,0.0095
3503.0,0.0096
3502.0,0.0097
3501.0,0.0098
3500.0,0.0098
3499.0,0.0097
3498.0,0.0096
3497.0,0.0095
3496.0,0.0095
3495.0,0.0094
3494.0,0.0094
3493.0,0.0094
3492.0,0.0095
3491.0,0.0095
3490.0,0.0096
3489.0,0.0097
3488.0,0.0097
3487.0,0.0096
3486.0,0.0096
3485.0,0.0097
3484.0,0.0097
3483.0,0.0097
3482.0,0.0097
3481.0,0.0097
3480.0,0.0097
3479.0,0.0097
3478.0,0.0097
3477.0,0.0097
3476.0,0.0096
3475.0,0.0096
3474.0,0.0096
3473.0,0.0096
3472.0,0.0096
3471.0,0.0096
3470.0,0.0096
3469.0,0.0097
3468.0,0.0097
3467.0,0.0098
3466.0,0.0099
3465.0,0.0099
3464.0,0.0099
3463.0,0.0099
3462.0,0.01
3461.0,0.01
3460.0,0.0101
3459.0,0.01
3458.0,0.0099
3457.0,0.0098
3456.0,0.0098
3455.0,0.0099
3454.0,0.01
3453.0,0.0101
3452.0,0.0101
3451.0,0.0101
3450.0,0.01
3449.0,0.0099
3448.0,0.0097
3447.0,0.0095
3446.0,0.0095
3445.0,0.0096
3444.0,0.0098
3443.0,0.01
3442.0,0.0101
3441.0,0.0102
3440.0,0.0102
3439.0,0.0102
3438.0,0.0101
3437.0,0.0101
3436.0,0.01
3435.0,0.01
3434.0,0.01
3433.0,0.01
3432.0,0.01
3431.0,0.0101
3430.0,0.0101
3429.0,0.0102
3428.0,0.0102
3427.0,0.0102
3426.0,0.0102
3425.0,0.0101
3424.0,0.0101
3423.0,0.01
3422.0,0.01
3421.0,0.01
3420.0,0.01
3419.0,0.0101
3418.0,0.0102
3417.0,0.0103
3416.0,0.0103
3415.0,0.0102
3414.0,0.0102
3413.0,0.0102
3412.0,0.0102
3411.0,0.0101
3410.0,0.0101
3409.0,0.0101
3408.0,0.0101
3407.0,0.0101
3406.0,0.0102
3405.0,0.0102
3404.0,0.0102
3403.0,0.0102
3402.0,0.0102
3401.0,0.0102
3400.0,0.0102
3399.0,0.0102
3398.0,0.0103
3397.0,0.0103
3396.0,0.0104
3395.0,0.0103
3394.0,0.0103
3393.0,0.0101
3392.0,0.0101
3391.0,0.0101
3390.0,0.0101
3389.0,0.0103
3388.0,0.0104
3387.0,0.0105
3386.0,0.0105
3385.0,0.0104
3384.0,0.0103
3383.0,0.0102
3382.0,0.0101
3381.0,0.0101
3380.0,0.0101
3379.0,0.0102
3378.0,0.0103
3377.0,0.0103
3376.0,0.0103
3375.0,0.0102
3374.0,0.0101
3373.0,0.0101
3372.0,0.0101
3371.0,0.0101
3370.0,0.0101
3369.0,0.0101
3368.0,0.0101
3367.0,0.0101
3366.0,0.0102
3365.0,0.0104
3364.0,0.0105
3363.0,0.0105
3362.0,0.0105
3361.0,0.0104
3360.0,0.0103
3359.0,0.0103
3358.0,0.0102
3357.0,0.0102
3356.0,0.0103
3355.0,0.0105
3354.0,0.0106
3353.0,0.0106
3352.0,0.0105
3351.0,0.0105
3350.0,0.0104
3349.0,0.0103
3348.0,0.0102
3347.0,0.0102
3346.0,0.0102
3345.0,0.0102
3344.0,0.0103
3343.0,0.0103
3342.0,0.0104
3341.0,0.0103
3340.0,0.0102
3339.0,0.0101
3338.0,0.01
3337.0,0.0099
3336.0,0.01
3335.0,0.0101
3334.0,0.0103
3333.0,0.0105
3332.0,0.0107
3331.0,0.0107
3330.0,0.0106
3329.0,0.0104
3328.0,0.0103
3327.0,0.0103
3326.0,0.0103
3325.0,0.0104
3324.0,0.0104
3323.0,0.0104
3322.0,0.0103
3321.0,0.0103
3320.0,0.0102
3319.0,0.0101
3318.0,0.01
3317.0,0.0099
3316.0,0.01
3315.0,0.0102
3314.0,0.0103
3313.0,0.0103
3312.0,0.0104
3311.0,0.0104
3310.0,0.0104
3309.0,0.0103
3308.0,0.0102
3307.0,0.0102
3306.0,0.0102
3305.0,0.0102
3304.0,0.0102
3303.0,0.0101
3302.0,0.0099
3301.0,0.0098
3300.0,0.0098
3299.0,0.0098
3298.0,0.0099
3297.0,0.0099
3296.0,0.0099
3295.0,0.0099
3294.0,0.0098
3293.0,0.0098
3292.0,0.0098
3291.0,0.0099
3290.0,0.01
3289.0,0.01
3288.0,0.0099
3287.0,0.0099
3286.0,0.0099
3285.0,0.0099
3284.0,0.0098
3283.0,0.0098
3282.0,0.0098
3281.0,0.0099
3280.0,0.0099
3279.0,0.0099
3278.0,0.0099
3277.0,0.0099
3276.0,0.0098
3275.0,0.0098
3274.0,0.0098
3273.0,0.0099
3272.0,0.0099
3271.0,0.0099
3270.0,0.0099
3269.0,0.0099
3268.0,0.01
3267.0,0.01
3266.0,0.01
3265.0,0.0099
3264.0,0.0099
3263.0,0.0099
3262.0,0.0098
3261.0,0.0098
3260.0,0.0098
3259.0,0.0098
3258.0,0.0099
3257.0,0.0099
3256.0,0.0099
3255.0,0.01
3254.0,0.01
3253.0,0.0101
3252.0,0.0101
3251.0,0.01
3250.0,0.0099
3249.0,0.0098
3248.0,0.0097
3247.0,0.0097
3246.0,0.0097
3245.0,0.0097
3244.0,0.0097
3243.0,0.0097
3242.0,0.0098
3241.0,0.0099
3240.0,0.01
3239.0,0.01
3238.0,0.0101
3237.0,0.0101
3236.0,0.0101
3235.0,0.01
3234.0,0.01
3233.0,0.0099
3232.0,0.0099
3231.0,0.0098
3230.0,0.0098
3229.0,0.0098
3228.0,0.0098
3227.0,0.0099
3226.0,0.0099
3225.0,0.0099
3224.0,0.0098
3223.0,0.0098
3222.0,0.0098
3221.0,0.0099
3220.0,0.0099
3219.0,0.0099
3218.0,0.0098
3217.0,0.0098
3216.0,0.0098
3215.0,0.0098
3214.0,0.0097
3213.0,0.0096
3212.0,0.0096
3211.0,0.0096
3210.0,0.0097
3209.0,0.0098
3208.0,0.0099
3207.0,0.0099
3206.0,0.0098
3205.0,0.0098
3204.0,0.0098
3203.0,0.0099
3202.0,0.01
3201.0,0.01
3200.0,0.01
3199.0,0.01
3198.0,0.01
3197.0,0.01
3196.0,0.01
3195.0,0.01
3194.0,0.01
3193.0,0.01
3192.0,0.0099
3191.0,0.0098
3190.0,0.0097
3189.0,0.0096
3188.0,0.0095
3187.0,0.0095
3186.0,0.0094
3185.0,0.0094
3184.0,0.0094
3183.0,0.0095
3182.0,0.0095
3181.0,0.0096
3180.0,0.0096
3179.0,0.0096
3178.0,0.0095
3177.0,0.0094
3176.0,0.0094
3175.0,0.0095
3174.0,0.0096
3173.0,0.0096
3172.0,0.0097
3171.0,0.0097
3170.0,0.0097
3169.0,0.0097
3168.0,0.0098
3167.0,0.0099
3166.0,0.0099
3165.0,0.0098
3164.0,0.0097
3163.0,0.0096
3162.0,0.0095
3161.0,0.0095
3160.0,0.0095
3159.0,0.0096
3158.0,0.0096
3157.0,0.0096
3156.0,0.0095
3155.0,0.0094
3154.0,0.0094
3153.0,0.0094
3152.0,0.0094
3151.0,0.0094
3150.0,0.0094
3149.0,0.0094
3148.0,0.0094
3147.0,0.0095
3146.0,0.0095
3145.0,0.0095
3144.0,0.0095
3143.0,0.0096
3142.0,0.0096
3141.0,0.0096
3140.0,0.0095
3139.0,0.0094
3138.0,0.0093
3137.0,0.0093
3136.0,0.0094
3135.0,0.0095
3134.0,0.0095
3133.0,0.0095
3132.0,0.0094
3131.0,0.0093
3130.0,0.0092
3129.0,0.0091
3128.0,0.009
3127.0,0.0089
3126.0,0.009
3125.0,0.0091
3124.0,0.0091
3123.0,0.0092
3122.0,0.0092
3121.0,0.0093
3120.0,0.0092
3119.0,0.0092
3118.0,0.0092
3117.0,0.0091
3116.0,0.009
3115.0,0.0089
3114.0,0.0088
3113.0,0.0087
3112.0,0.0087
3111.0,0.0088
3110.0,0.0088
3109.0,0.0089
3108.0,0.0089
3107.0,0.0089
3106.0,0.0089
3105.0,0.0088
3104.0,0.0087
3103.0,0.0086
3102.0,0.0086
3101.0,0.0086
3100.0,0.0087
3099.0,0.0087
3098.0,0.0088
3097.0,0.0088
3096.0,0.0087
3095.0,0.0087
3094.0,0.0087
3093.0,0.0088
3092.0,0.0088
3091.0,0.0088
3090.0,0.0088
3089.0,0.0087
3088.0,0.0087
3087.0,0.0086
3086.0,0.0085
3085.0,0.0084
3084.0,0.0084
3083.0,0.0083
3082.0,0.0083
3081.0,0.0083
3080.0,0.0083
3079.0,0.0083
3078.0,0.0083
3077.0,0.0084
3076.0,0.0084
3075.0,0.0084
3074.0,0.0083
3073.0,0.0082
3072.0,0.0081
3071.0,0.008
3070.0,0.008
3069.0,0.008
3068.0,0.008
3067.0,0.008
3066.0,0.008
3065.0,0.0081
3064.0,0.0081
3063.0,0.0082
3062.0,0.0082
3061.0,0.0081
3060.0,0.008
3059.0,0.0079
3058.0,0.0077
3057.0,0.0076
3056.0,0.0076
3055.0,0.0076
3054.0,0.0077
3053.0,0.0077
3052.0,0.0077
3051.0,0.0078
3050.0,0.0078
3049.0,0.0077
3048.0,0.0077
3047.0,0.0077
3046.0,0.0077
3045.0,0.0076
3044.0,0.0074
3043.0,0.0073
3042.0,0.0072
3041.0,0.0071
3040.0,0.0071
3039.0,0.0071
3038.0,0.0071
3037.0,0.0071
3036.0,0.007
3035.0,0.007
3034.0,0.007
3033.0,0.0069
3032.0,0.0068
3031.0,0.0068
3030.0,0.0067
3029.0,0.0067
3028.0,0.0066
3027.0,0.0066
3026.0,0.0065
3025.0,0.0065
3024.0,0.0064
3023.0,0.0064
3022.0,0.0063
3021.0,0.0062
3020.0,0.006
3019.0,0.0059
3018.0,0.0057
3017.0,0.0056
3016.0,0.0055
3015.0,0.0055
3014.0,0.0054
3013.0,0.0054
3012.0,0.0053
3011.0,0.0052
3010.0,0.0052
3009.0,0.0051
3008.0,0.0049
3007.0,0.0048
3006.0,0.0047
3005.0,0.0046
3004.0,0.0045
3003.0,0.0044
3002.0,0.0043
3001.0,0.0042
3000.0,0.0042
2999.0,0.0042
2998.0,0.0041
2997.0,0.0041
2996.0,0.0041
2995.0,0.0042
2994.0,0.0044
2993.0,0.0046
2992.0,0.0047
2991.0,0.0046
2990.0,0.0046
2989.0,0.0047
2988.0,0.0049
2987.0,0.0051
2986.0,0.0054
2985.0,0.0058
2984.0,0.0064
2983.0,0.007
2982.0,0.0077
2981.0,0.0085
2980.0,0.0094
2979.0,0.0105
2978.0,0.0117
2977.0,0.0131
2976.0,0.0147
2975.0,0.0166
2974.0,0.0188
2973.0,0.0214
2972.0,0.0244
2971.0,0.0279
2970.0,0.0318
2969.0,0.0361
2968.0,0.0409
2967.0,0.046
2966.0,0.0514
2965.0,0.0569
2964.0,0.0622
2963.0,0.0671
2962.0,0.0711
2961.0,0.0741
2960.0,0.076
2959.0,0.0772
2958.0,0.078
2957.0,0.0789
2956.0,0.0803
2955.0,0.0823
2954.0,0.0851
2953.0,0.0881
2952.0,0.0908
2951.0,0.0927
2950.0,0.093
2949.0,0.0915
2948.0,0.0881
2947.0,0.0831
2946.0,0.0771
2945.0,0.0708
2944.0,0.0647
2943.0,0.0593
2942.0,0.0549
2941.0,0.0515
2940.0,0.0492
2939.0,0.0478
2938.0,0.0473
2937.0,0.0477
2936.0,0.0489
2935.0,0.0508
2934.0,0.0533
2933.0,0.0565
2932.0,0.0602
2931.0,0.0643
2930.0,0.0687
2929.0,0.0732
2928.0,0.0777
2927.0,0.0819
2926.0,0.086
2925.0,0.09
2924.0,0.0938
2923.0,0.0978
2922.0,0.1017
2921.0,0.1055
2920.0,0.1087
2919.0,0.111
2918.0,0.1119
2917.0,0.1113
2916.0,0.1094
2915.0,0.1065
2914.0,0.1031
2913.0,0.0996
2912.0,0.0963
2911.0,0.0934
2910.0,0.0909
2909.0,0.0888
2908.0,0.087
2907.0,0.0852
2906.0,0.0833
2905.0,0.0811
2904.0,0.0786
2903.0,0.076
2902.0,0.0734
2901.0,0.0708
2900.0,0.0684
2899.0,0.0661
2898.0,0.0638
2897.0,0.0618
2896.0,0.0599
2895.0,0.0583
2894.0,0.057
2893.0,0.0559
2892.0,0.0552
2891.0,0.0547
2890.0,0.0545
2889.0,0.0544
2888.0,0.0544
2887.0,0.0545
2886.0,0.0548
2885.0,0.0553
2884.0,0.056
2883.0,0.0569
2882.0,0.0579
2881.0,0.0589
2880.0,0.06
2879.0,0.0607
2878.0,0.0611
2877.0,0.0611
2876.0,0.0609
2875.0,0.0606
2874.0,0.0604
2873.0,0.0606
2872.0,0.0611
2871.0,0.062
2870.0,0.0631
2869.0,0.0641
2868.0,0.0648
2867.0,0.0647
2866.0,0.0636
2865.0,0.0613
2864.0,0.0581
2863.0,0.0543
2862.0,0.0504
2861.0,0.0467
2860.0,0.0436
2859.0,0.041
2858.0,0.039
2857.0,0.0376
2856.0,0.0366
2855.0,0.036
2854.0,0.0357
2853.0,0.0358
2852.0,0.0362
2851.0,0.0368
2850.0,0.0377
2849.0,0.039
2848.0,0.0407
2847.0,0.0428
2846.0,0.0455
2845.0,0.0486
2844.0,0.0521
2843.0,0.0557
2842.0,0.0594
2841.0,0.0628
2840.0,0.0656
2839.0,0.0673
2838.0,0.0678
2837.0,0.0668
2836.0,0.0646
2835.0,0.0614
2834.0,0.0575
2833.0,0.0535
2832.0,0.0496
2831.0,0.046
2830.0,0.043
2829.0,0.0405
2828.0,0.0384
2827.0,0.0367
2826.0,0.0353
2825.0,0.0341
2824.0,0.0331
2823.0,0.0322
2822.0,0.0314
2821.0,0.0307
2820.0,0.0301
2819.0,0.0296
2818.0,0.0291
2817.0,0.0287
2816.0,0.0284
2815.0,0.028
2814.0,0.0277
2813.0,0.0275
2812.0,0.0272
2811.0,0.0269
2810.0,0.0266
2809.0,0.0263
2808.0,0.026
2807.0,0.0257
2806.0,0.0254
2805.0,0.0251
2804.0,0.0247
2803.0,0.0243
2802.0,0.024
2801.0,0.0238
2800.0,0.0236
2799.0,0.0235
2798.0,0.0233
2797.0,0.0231
2796.0,0.023
2795.0,0.0228
2794.0,0.0226
2793.0,0.0224
2792.0,0.0223
2791.0,0.0221
2790.0,0.022
2789.0,0.0218
2788.0,0.0216
2787.0,0.0214
2786.0,0.0212
2785.0,0.0209
2784.0,0.0208
2783.0,0.0207
2782.0,0.0207
2781.0,0.0207
2780.0,0.0206
2779.0,0.0205
2778.0,0.0203
2777.0,0.0201
2776.0,0.0199
2775.0,0.0198
2774.0,0.0197
2773.0,0.0197
2772.0,0.0196
2771.0,0.0196
2770.0,0.0196
2769.0,0.0195
2768.0,0.0195
2767.0,0.0195
2766.0,0.0194
2765.0,0.0193
2764.0,0.0192
2763.0,0.0191
2762.0,0.0191
2761.0,0.0191
2760.0,0.0191
2759.0,0.0191
2758.0,0.0191
2757.0,0.019
2756.0,0.0188
2755.0,0.0187
2754.0,0.0186
2753.0,0.0186
2752.0,0.0185
2751.0,0.0185
2750.0,0.0185
2749.0,0.0185
2748.0,0.0185
2747.0,0.0186
2746.0,0.0187
2745.0,0.0188
2744.0,0.0188
2743.0,0.0188
2742.0,0.0187
2741.0,0.0186
2740.0,0.0186
2739.0,0.0186
2738.0,0.0186
2737.0,0.0187
2736.0,0.0187
2735.0,0.0187
2734.0,0.0187
2733.0,0.0188
2732.0,0.0189
2731.0,0.019
2730.0,0.0191
2729.0,0.0192
2728.0,0.0193
2727.0,0.0195
2726.0,0.0196
2725.0,0.0197
2724.0,0.0198
2723.0,0.0198
2722.0,0.0198
2721.0,0.0198
2720.0,0.0197
2719.0,0.0195
2718.0,0.0193
2717.0,0.0192
2716.0,0.0191
2715.0,0.019
2714.0,0.0189
2713.0,0.0189
2712.0,0.0189
2711.0,0.0188
2710.0,0.0188
2709.0,0.0186
2708.0,0.0185
2707.0,0.0184
2706.0,0.0184
2705.0,0.0183
2704.0,0.0182
2703.0,0.0181
2702.0,0.018
2701.0,0.018
2700.0,0.018
2699.0,0.018
2698.0,0.0179
2697.0,0.0179
2696.0,0.0179
2695.0,0.0178
2694.0,0.0177
2693.0,0.0177
2692.0,0.0177
2691.0,0.0177
2690.0,0.0177
2689.0,0.0177
2688.0,0.0177
2687.0,0.0177
2686.0,0.0177
2685.0,0.0177
2684.0,0.0177
2683.0,0.0177
2682.0,0.0177
2681.0,0.0177
2680.0,0.0177
2679.0,0.0177
2678.0,0.0177
2677.0,0.0177
2676.0,0.0177
2675.0,0.0177
2674.0,0.0177
2673.0,0.0177
2672.0,0.0177
2671.0,0.0176
2670.0,0.0176
2669.0,0.0176
2668.0,0.0176
2667.0,0.0176
2666.0,0.0175
2665.0,0.0174
2664.0,0.0174
2663.0,0.0174
2662.0,0.0174
2661.0,0.0174
2660.0,0.0174
2659.0,0.0174
2658.0,0.0173
2657.0,0.0173
2656.0,0.0172
2655.0,0.0172
2654.0,0.0172
2653.0,0.0172
2652.0,0.0172
2651.0,0.0172
2650.0,0.0172
2649.0,0.0172
2648.0,0.0171
2647.0,0.0171
2646.0,0.017
2645.0,0.017
2644.0,0.017
2643.0,0.017
2642.0,0.017
2641.0,0.017
2640.0,0.017
2639.0,0.017
2638.0,0.017
2637.0,0.017
2636.0,0.017
2635.0,0.017
2634.0,0.017
2633.0,0.0169
2632.0,0.0169
2631.0,0.0169
2630.0,0.0169
2629.0,0.0169
2628.0,0.0169
2627.0,0.017
2626.0,0.017
2625.0,0.017
2624.0,0.017
2623.0,0.017
2622.0,0.017
2621.0,0.0169
2620.0,0.0169
2619.0,0.0169
2618.0,0.0169
2617.0,0.0169
2616.0,0.017
2615.0,0.017
2614.0,0.0171
2613.0,0.0172
2612.0,0.0172
2611.0,0.0172
2610.0,0.0171
2609.0,0.0171
2608.0,0.017
2607.0,0.017
2606.0,0.0168
2605.0,0.0167
2604.0,0.0166
2603.0,0.0166
2602.0,0.0166
2601.0,0.0166
2600.0,0.0167
2599.0,0.0167
2598.0,0.0167
2597.0,0.0167
2596.0,0.0167
2595.0,0.0167
2594.0,0.0167
2593.0,0.0166
2592.0,0.0166
2591.0,0.0167
2590.0,0.0169
2589.0,0.017
2588.0,0.0171
2587.0,0.0171
2586.0,0.017
2585.0,0.017
2584.0,0.0169
2583.0,0.0169
2582.0,0.0169
2581.0,0.017
2580.0,0.017
2579.0,0.017
2578.0,0.0169
2577.0,0.0168
2576.0,0.0167
2575.0,0.0167
2574.0,0.0168
2573.0,0.0168
2572.0,0.0168
2571.0,0.0167
2570.0,0.0167
2569.0,0.0166
2568.0,0.0166
2567.0,0.0166
2566.0,0.0166
2565.0,0.0166
2564.0,0.0166
2563.0,0.0166
2562.0,0.0166
2561.0,0.0165
2560.0,0.0165
2559.0,0.0164
2558.0,0.0165
2557.0,0.0165
2556.0,0.0165
2555.0,0.0164
2554.0,0.0164
2553.0,0.0164
2552.0,0.0165
2551.0,0.0165
2550.0,0.0164
2549.0,0.0164
2548.0,0.0164
2547.0,0.0164
2546.0,0.0163
2545.0,0.0163
2544.0,0.0162
2543.0,0.0162
2542.0,0.0162
2541.0,0.0162
2540.0,0.0162
2539.0,0.0162
2538.0,0.0162
2537.0,0.0162
2536.0,0.0162
2535.0,0.0162
2534.0,0.0162
2533.0,0.0161
2532.0,0.0162
2531.0,0.0162
2530.0,0.0161
2529.0,0.0161
2528.0,0.016
2527.0,0.016
2526.0,0.0161
2525.0,0.0162
2524.0,0.0162
2523.0,0.0162
2522.0,0.0161
2521.0,0.0161
2520.0,0.016
2519.0,0.016
2518.0,0.016
2517.0,0.0159
2516.0,0.0159
2515.0,0.0159
2514.0,0.0159
2513.0,0.0159
2512.0,0.0159
2511.0,0.0159
2510.0,0.0159
2509.0,0.0159
2508.0,0.016
2507.0,0.016
2506.0,0.0159
2505.0,0.0159
2504.0,0.0159
2503.0,0.0158
2502.0,0.0158
2501.0,0.0158
2500.0,0.0157
2499.0,0.0157
2498.0,0.0158
2497.0,0.0158
2496.0,0.0159
2495.0,0.0159
2494.0,0.016
2493.0,0.016
2492.0,0.016
2491.0,0.016
2490.0,0.0161
2489.0,0.0161
2488.0,0.016
2487.0,0.0159
2486.0,0.0158
2485.0,0.0158
2484.0,0.0158
2483.0,0.0159
2482.0,0.016
2481.0,0.0161
2480.0,0.0161
2479.0,0.016
2478.0,0.016
2477.0,0.0159
2476.0,0.0158
2475.0,0.0158
2474.0,0.0157
2473.0,0.0158
2472.0,0.0158
2471.0,0.0157
2470.0,0.0157
2469.0,0.0157
2468.0,0.0157
2467.0,0.0158
2466.0,0.0159
2465.0,0.0159
2464.0,0.0158
2463.0,0.0158
2462.0,0.0157
2461.0,0.0157
2460.0,0.0157
2459.0,0.0157
2458.0,0.0156
2457.0,0.0156
2456.0,0.0156
2455.0,0.0156
2454.0,0.0157
2453.0,0.0158
2452.0,0.016
2451.0,0.0161
2450.0,0.0161
2449.0,0.0161
2448.0,0.016
2447.0,0.0159
2446.0,0.0158
2445.0,0.0158
2444.0,0.0159
2443.0,0.0159
2442.0,0.0159
2441.0,0.0159
2440.0,0.0159
2439.0,0.0158
2438.0,0.0159
2437.0,0.0159
2436.0,0.016
2435.0,0.016
2434.0,0.016
2433.0,0.016
2432.0,0.016
2431.0,0.016
2430.0,0.0161
2429.0,0.0161
2428.0,0.0161
2427.0,0.0161
2426.0,0.0161
2425.0,0.0161
2424.0,0.0162
2423.0,0.0162
2422.0,0.0163
2421.0,0.0163
2420.0,0.0162
2419.0,0.0161
2418.0,0.0161
2417.0,0.0161
2416.0,0.0161
2415.0,0.016
2414.0,0.016
2413.0,0.016
2412.0,0.016
2411.0,0.016
2410.0,0.0161
2409.0,0.0161
2408.0,0.0161
2407.0,0.0161
2406.0,0.0162
2405.0,0.0162
2404.0,0.0162
2403.0,0.0162
2402.0,0.0161
2401.0,0.0161
2400.0,0.0161
2399.0,0.0161
2398.0,0.0161
2397.0,0.0161
2396.0,0.0161
2395.0,0.0162
2394.0,0.0161
2393.0,0.0161
2392.0,0.0161
2391.0,0.0162
2390.0,0.0163
2389.0,0.0165
2388.0,0.0167
2387.0,0.017
2386.0,0.0173
2385.0,0.0176
2384.0,0.0178
2383.0,0.0179
2382.0,0.0177
2381.0,0.0174
2380.0,0.0168
2379.0,0.0162
2378.0,0.0157
2377.0,0.0155
2376.0,0.0157
2375.0,0.0163
2374.0,0.017
2373.0,0.0177
2372.0,0.0183
2371.0,0.0187
2370.0,0.0189
2369.0,0.0186
2368.0,0.0179
2367.0,0.0173
2366.0,0.0173
2365.0,0.0177
2364.0,0.0181
2363.0,0.0181
2362.0,0.0178
2361.0,0.0179
2360.0,0.0183
2359.0,0.0186
2358.0,0.0181
2357.0,0.0174
2356.0,0.0171
2355.0,0.0175
2354.0,0.0181
2353.0,0.0182
2352.0,0.018
2351.0,0.0181
2350.0,0.0183
2349.0,0.0181
2348.0,0.0175
2347.0,0.017
2346.0,0.0176
2345.0,0.0192
2344.0,0.0208
2343.0,0.0216
2342.0,0.0211
2341.0,0.0197
2340.0,0.0184
2339.0,0.0176
2338.0,0.0172
2337.0,0.0169
2336.0,0.0169
2335.0,0.0171
2334.0,0.0173
2333.0,0.0172
2332.0,0.0171
2331.0,0.0175
2330.0,0.0185
2329.0,0.0196
2328.0,0.0203
2327.0,0.0203
2326.0,0.0198
2325.0,0.0192
2324.0,0.0186
2323.0,0.0183
2322.0,0.0182
2321.0,0.0184
2320.0,0.0188
2319.0,0.0193
2318.0,0.0197
2317.0,0.0198
2316.0,0.0197
2315.0,0.0197
2314.0,0.0198
2313.0,0.0201
2312.0,0.0204
2311.0,0.0207
2310.0,0.0208
2309.0,0.0207
2308.0,0.0204
2307.0,0.0201
2306.0,0.0198
2305.0,0.0196
2304.0,0.0197
2303.0,0.0199
2302.0,0.0201
2301.0,0.0201
2300.0,0.0199
2299.0,0.0197
2298.0,0.0196
2297.0,0.0195
2296.0,0.0194
2295.0,0.0193
2294.0,0.019
2293.0,0.0188
2292.0,0.0185
2291.0,0.0182
2290.0,0.018
2289.0,0.0177
2288.0,0.0175
2287.0,0.0174
2286.0,0.0173
2285.0,0.0172
2284.0,0.0171
2283.0,0.017
2282.0,0.017
2281.0,0.017
2280.0,0.017
2279.0,0.0171
2278.0,0.0171
2277.0,0.017
2276.0,0.017
2275.0,0.017
2274.0,0.0169
2273.0,0.0169
2272.0,0.0169
2271.0,0.0169
2270.0,0.0169
2269.0,0.017
2268.0,0.0171
2267.0,0.0172
2266.0,0.0172
2265.0,0.0172
2264.0,0.0172
2263.0,0.017
2262.0,0.017
2261.0,0.017
2260.0,0.017
2259.0,0.017
2258.0,0.017
2257.0,0.017
2256.0,0.017
2255.0,0.017
2254.0,0.017
2253.0,0.017
2252.0,0.0169
2251.0,0.0169
2250.0,0.0169
2249.0,0.0168
2248.0,0.0168
2247.0,0.0168
2246.0,0.0168
2245.0,0.0168
2244.0,0.0168
2243.0,0.0167
2242.0,0.0167
2241.0,0.0167
2240.0,0.0167
2239.0,0.0167
2238.0,0.0167
2237.0,0.0167
2236.0,0.0167
2235.0,0.0167
2234.0,0.0166
2233.0,0.0166
2232.0,0.0166
2231.0,0.0167
2230.0,0.0167
2229.0,0.0168
2228.0,0.0168
2227.0,0.0167
2226.0,0.0167
2225.0,0.0167
2224.0,0.0167
2223.0,0.0167
2222.0,0.0167
2221.0,0.0167
2220.0,0.0167
2219.0,0.0166
2218.0,0.0166
2217.0,0.0167
2216.0,0.0167
2215.0,0.0168
2214.0,0.0168
2213.0,0.0168
2212.0,0.0168
2211.0,0.0168
2210.0,0.0167
2209.0,0.0167
2208.0,0.0167
2207.0,0.0167
2206.0,0.0168
2205.0,0.0168
2204.0,0.0168
2203.0,0.0169
2202.0,0.0169
2201.0,0.017
2200.0,0.017
2199.0,0.017
2198.0,0.017
2197.0,0.017
2196.0,0.0169
2195.0,0.0169
2194.0,0.0169
2193.0,0.0169
2192.0,0.0169
2191.0,0.0169
2190.0,0.0169
2189.0,0.017
2188.0,0.017
2187.0,0.017
2186.0,0.0169
2185.0,0.0169
2184.0,0.0168
2183.0,0.0169
2182.0,0.0169
2181.0,0.017
2180.0,0.017
2179.0,0.017
2178.0,0.017
2177.0,0.017
2176.0,0.0171
2175.0,0.0172
2174.0,0.0172
2173.0,0.0172
2172.0,0.0172
2171.0,0.0172
2170.0,0.0172
2169.0,0.0172
2168.0,0.0172
2167.0,0.0172
2166.0,0.0172
2165.0,0.0172
2164.0,0.0172
2163.0,0.0171
2162.0,0.0171
2161.0,0.0171
2160.0,0.0171
2159.0,0.0171
2158.0,0.0171
2157.0,0.0171
2156.0,0.0171
2155.0,0.0171
2154.0,0.0171
2153.0,0.0171
2152.0,0.0171
2151.0,0.0171
2150.0,0.017
2149.0,0.017
2148.0,0.017
2147.0,0.0171
2146.0,0.0171
2145.0,0.0171
2144.0,0.0171
2143.0,0.0171
2142.0,0.0171
2141.0,0.0171
2140.0,0.017
2139.0,0.017
2138.0,0.0171
2137.0,0.0171
2136.0,0.0171
2135.0,0.0171
2134.0,0.0172
2133.0,0.0172
2132.0,0.0172
2131.0,0.0172
2130.0,0.0173
2129.0,0.0173
2128.0,0.0174
2127.0,0.0173
2126.0,0.0173
2125.0,0.0173
2124.0,0.0173
2123.0,0.0173
2122.0,0.0173
2121.0,0.0172
2120.0,0.0172
2119.0,0.0172
2118.0,0.0173
2117.0,0.0174
2116.0,0.0174
2115.0,0.0174
2114.0,0.0173
2113.0,0.0173
2112.0,0.0172
2111.0,0.0172
2110.0,0.0172
2109.0,0.0173
2108.0,0.0173
2107.0,0.0173
2106.0,0.0173
2105.0,0.0173
2104.0,0.0173
2103.0,0.0174
2102.0,0.0174
2101.0,0.0174
2100.0,0.0173
2099.0,0.0173
2098.0,0.0172
2097.0,0.0172
2096.0,0.0173
2095.0,0.0173
2094.0,0.0174
2093.0,0.0175
2092.0,0.0175
2091.0,0.0175
2090.0,0.0175
2089.0,0.0174
2088.0,0.0175
2087.0,0.0175
2086.0,0.0174
2085.0,0.0174
2084.0,0.0174
2083.0,0.0174
2082.0,0.0174
2081.0,0.0174
2080.0,0.0174
2079.0,0.0174
2078.0,0.0175
2077.0,0.0175
2076.0,0.0175
2075.0,0.0175
2074.0,0.0175
2073.0,0.0175
2072.0,0.0175
2071.0,0.0175
2070.0,0.0174
2069.0,0.0175
2068.0,0.0175
2067.0,0.0175
2066.0,0.0175
2065.0,0.0175
2064.0,0.0174
2063.0,0.0174
2062.0,0.0175
2061.0,0.0175
2060.0,0.0176
2059.0,0.0176
2058.0,0.0176
2057.0,0.0176
2056.0,0.0176
2055.0,0.0176
2054.0,0.0175
2053.0,0.0175
2052.0,0.0175
2051.0,0.0176
2050.0,0.0176
2049.0,0.0176
2048.0,0.0176
2047.0,0.0176
2046.0,0.0175
2045.0,0.0176
2044.0,0.0176
2043.0,0.0177
2042.0,0.0177
2041.0,0.0178
2040.0,0.0178
2039.0,0.0178
2038.0,0.0178
2037.0,0.0178
2036.0,0.0178
2035.0,0.0178
2034.0,0.0178
2033.0,0.0177
2032.0,0.0177
2031.0,0.0177
2030.0,0.0177
2029.0,0.0178
2028.0,0.0179
2027.0,0.0179
2026.0,0.0179
2025.0,0.0179
2024.0,0.0179
2023.0,0.018
2022.0,0.0179
2021.0,0.018
2020.0,0.018
2019.0,0.018
2018.0,0.0179
2017.0,0.0179
2016.0,0.0178
2015.0,0.0177
2014.0,0.0177
2013.0,0.0178
2012.0,0.0178
2011.0,0.0178
2010.0,0.0178
2009.0,0.0178
2008.0,0.0178
2007.0,0.0178
2006.0,0.0178
2005.0,0.0178
2004.0,0.0179
2003.0,0.018
2002.0,0.018
2001.0,0.018
2000.0,0.018
1999.0,0.0179
1998.0,0.0179
1997.0,0.018
1996.0,0.018
1995.0,0.018
1994.0,0.018
1993.0,0.018
1992.0,0.018
1991.0,0.018
1990.0,0.0181
1989.0,0.0181
1988.0,0.0181
1987.0,0.0181
1986.0,0.018
1985.0,0.018
1984.0,0.018
1983.0,0.0181
1982.0,0.0181
1981.0,0.0182
1980.0,0.0182
1979.0,0.0182
1978.0,0.0182
1977.0,0.0181
1976.0,0.0181
1975.0,0.0181
1974.0,0.018
1973.0,0.018
1972.0,0.018
1971.0,0.018
1970.0,0.018
1969.0,0.0181
1968.0,0.0181
1967.0,0.0181
1966.0,0.0181
1965.0,0.0181
1964.0,0.0181
1963.0,0.0182
1962.0,0.0182
1961.0,0.0182
1960.0,0.0182
1959.0,0.0182
1958.0,0.0182
1957.0,0.0182
1956.0,0.0183
1955.0,0.0183
1954.0,0.0183
1953.0,0.0182
1952.0,0.0183
1951.0,0.0183
1950.0,0.0183
1949.0,0.0183
1948.0,0.0183
1947.0,0.0183
1946.0,0.0183
1945.0,0.0183
1944.0,0.0183
1943.0,0.0184
1942.0,0.0184
1941.0,0.0184
1940.0,0.0184
1939.0,0.0185
1938.0,0.0185
1937.0,0.0185
1936.0,0.0185
1935.0,0.0184
1934.0,0.0184
1933.0,0.0184
1932.0,0.0185
1931.0,0.0185
1930.0,0.0185
1929.0,0.0184
1928.0,0.0184
1927.0,0.0185
1926.0,0.0185
1925.0,0.0186
1924.0,0.0186
1923.0,0.0186
1922.0,0.0186
1921.0,0.0186
1920.0,0.0186
1919.0,0.0186
1918.0,0.0186
1917.0,0.0186
1916.0,0.0187
1915.0,0.0187
1914.0,0.0187
1913.0,0.0187
1912.0,0.0187
1911.0,0.0187
1910.0,0.0187
1909.0,0.0187
1908.0,0.0187
1907.0,0.0187
1906.0,0.0187
1905.0,0.0187
1904.0,0.0187
1903.0,0.0187
1902.0,0.0186
1901.0,0.0186
1900.0,0.0186
1899.0,0.0187
1898.0,0.0187
1897.0,0.0187
1896.0,0.0187
1895.0,0.0188
1894.0,0.0189
1893.0,0.019
1892.0,0.019
1891.0,0.0189
1890.0,0.0189
1889.0,0.0189
1888.0,0.0189
1887.0,0.019
1886.0,0.019
1885.0,0.019
1884.0,0.019
1883.0,0.019
1882.0,0.019
1881.0,0.019
1880.0,0.019
1879.0,0.019
1878.0,0.0191
1877.0,0.0191
1876.0,0.0191
1875.0,0.0192
1874.0,0.0192
1873.0,0.0192
1872.0,0.0192
1871.0,0.0191
1870.0,0.019
1869.0,0.019
1868.0,0.0191
1867.0,0.0191
1866.0,0.0191
1865.0,0.0191
1864.0,0.0192
1863.0,0.0192
1862.0,0.0191
1861.0,0.0191
1860.0,0.0191
1859.0,0.0191
1858.0,0.0191
1857.0,0.0191
1856.0,0.0191
1855.0,0.0192
1854.0,0.0192
1853.0,0.0192
1852.0,0.0193
1851.0,0.0193
1850.0,0.0193
1849.0,0.0194
1848.0,0.0194
1847.0,0.0195
1846.0,0.0195
1845.0,0.0196
1844.0,0.0196
1843.0,0.0195
1842.0,0.0194
1841.0,0.0194
1840.0,0.0194
1839.0,0.0194
1838.0,0.0194
1837.0,0.0194
1836.0,0.0194
1835.0,0.0194
1834.0,0.0193
1833.0,0.0193
1832.0,0.0193
1831.0,0.0193
1830.0,0.0194
1829.0,0.0194
1828.0,0.0194
1827.0,0.0193
1826.0,0.0193
1825.0,0.0194
1824.0,0.0194
1823.0,0.0194
1822.0,0.0194
1821.0,0.0195
1820.0,0.0195
1819.0,0.0194
1818.0,0.0193
1817.0,0.0194
1816.0,0.0194
1815.0,0.0194
1814.0,0.0194
1813.0,0.0194
1812.0,0.0195
1811.0,0.0194
1810.0,0.0194
1809.0,0.0194
1808.0,0.0195
1807.0,0.0195
1806.0,0.0195
1805.0,0.0195
1804.0,0.0196
1803.0,0.0195
1802.0,0.0196
1801.0,0.0196
1800.0,0.0197
1799.0,0.0197
1798.0,0.0197
1797.0,0.0197
1796.0,0.0197
1795.0,0.0197
1794.0,0.0197
1793.0,0.0198
1792.0,0.0198
1791.0,0.0198
1790.0,0.0197
1789.0,0.0197
1788.0,0.0197
1787.0,0.0197
1786.0,0.0197
1785.0,0.0198
1784.0,0.0198
1783.0,0.0199
1782.0,0.0198
1781.0,0.0198
1780.0,0.0198
1779.0,0.0197
1778.0,0.0197
1777.0,0.0198
1776.0,0.0198
1775.0,0.0199
1774.0,0.0199
1773.0,0.0199
1772.0,0.0199
1771.0,0.0199
1770.0,0.0199
1769.0,0.0199
1768.0,0.02
1767.0,0.02
1766.0,0.02
1765.0,0.02
1764.0,0.02
1763.0,0.02
1762.0,0.0201
1761.0,0.0202
1760.0,0.0203
1759.0,0.0203
1758.0,0.0203
1757.0,0.0203
1756.0,0.0203
1755.0,0.0204
1754.0,0.0204
1753.0,0.0204
1752.0,0.0204
1751.0,0.0204
1750.0,0.0205
1749.0,0.0205
1748.0,0.0205
1747.0,0.0206
1746.0,0.0207
1745.0,0.0208
1744.0,0.0208
1743.0,0.0208
1742.0,0.0207
1741.0,0.0207
1740.0,0.0207
1739.0,0.0207
1738.0,0.0207
1737.0,0.0208
1736.0,0.0209
1735.0,0.021
1734.0,0.021
1733.0,0.0208
1732.0,0.0206
1731.0,0.0205
1730.0,0.0205
1729.0,0.0205
1728.0,0.0205
1727.0,0.0206
1726.0,0.0207
1725.0,0.0207
1724.0,0.0208
1723.0,0.0209
1722.0,0.0209
1721.0,0.0208
1720.0,0.0208
1719.0,0.0207
1718.0,0.0208
1717.0,0.0209
1716.0,0.0209
1715.0,0.0209
1714.0,0.0209
1713.0,0.021
1712.0,0.021
1711.0,0.021
1710.0,0.021
1709.0,0.021
1708.0,0.021
1707.0,0.0211
1706.0,0.0211
1705.0,0.0212
1704.0,0.0213
1703.0,0.0213
1702.0,0.0214
1701.0,0.0216
1700.0,0.0217
1699.0,0.0217
1698.0,0.0215
1697.0,0.0215
1696.0,0.0214
1695.0,0.0214
1694.0,0.0214
1693.0,0.0214
1692.0,0.0214
1691.0,0.0214
1690.0,0.0215
1689.0,0.0216
1688.0,0.0217
1687.0,0.0217
1686.0,0.0216
1685.0,0.0216
1684.0,0.0217
1683.0,0.0217
1682.0,0.0217
1681.0,0.0218
1680.0,0.0218
1679.0,0.0218
1678.0,0.0218
1677.0,0.0218
1676.0,0.0219
1675.0,0.0221
1674.0,0.0221
1673.0,0.0221
1672.0,0.0221
1671.0,0.0221
1670.0,0.022
1669.0,0.022
1668.0,0.0219
1667.0,0.0219
1666.0,0.022
1665.0,0.022
1664.0,0.0221
1663.0,0.0222
1662.0,0.0223
1661.0,0.0222
1660.0,0.0222
1659.0,0.0222
1658.0,0.0222
1657.0,0.0222
1656.0,0.0222
1655.0,0.022
1654.0,0.022
1653.0,0.022
1652.0,0.0221
1651.0,0.0221
1650.0,0.0222
1649.0,0.0223
1648.0,0.0224
1647.0,0.0225
1646.0,0.0225
1645.0,0.0225
1644.0,0.0225
1643.0,0.0225
1642.0,0.0225
1641.0,0.0225
1640.0,0.0225
1639.0,0.0225
1638.0,0.0225
1637.0,0.0224
1636.0,0.0224
1635.0,0.0224
1634.0,0.0225
1633.0,0.0225
1632.0,0.0225
1631.0,0.0225
1630.0,0.0224
1629.0,0.0224
1628.0,0.0224
1627.0,0.0225
1626.0,0.0225
1625.0,0.0225
1624.0,0.0225
1623.0,0.0225
1622.0,0.0225
1621.0,0.0224
1620.0,0.0224
1619.0,0.0224
1618.0,0.0223
1617.0,0.0223
1616.0,0.0223
1615.0,0.0223
1614.0,0.0224
1613.0,0.0224
1612.0,0.0224
1611.0,0.0224
1610.0,0.0224
1609.0,0.0225
1608.0,0.0225
1607.0,0.0224
1606.0,0.0224
1605.0,0.0224
1604.0,0.0225
1603.0,0.0225
1602.0,0.0225
1601.0,0.0225
1600.0,0.0225
1599.0,0.0224
1598.0,0.0224
1597.0,0.0224
1596.0,0.0224
1595.0,0.0224
1594.0,0.0224
1593.0,0.0223
1592.0,0.0223
1591.0,0.0223
1590.0,0.0224
1589.0,0.0224
1588.0,0.0224
1587.0,0.0224
1586.0,0.0224
1585.0,0.0223
1584.0,0.0223
1583.0,0.0224
1582.0,0.0224
1581.0,0.0224
1580.0,0.0224
1579.0,0.0224
1578.0,0.0224
1577.0,0.0224
1576.0,0.0225
1575.0,0.0225
1574.0,0.0224
1573.0,0.0224
1572.0,0.0224
1571.0,0.0223
1570.0,0.0223
1569.0,0.0224
1568.0,0.0224
1567.0,0.0225
1566.0,0.0224
1565.0,0.0224
1564.0,0.0225
1563.0,0.0226
1562.0,0.0226
1561.0,0.0225
1560.0,0.0224
1559.0,0.0228
1558.0,0.0227
1557.0,0.0227
1556.0,0.0228
1555.0,0.0228
1554.0,0.0228
1553.0,0.0227
1552.0,0.0227
1551.0,0.0226
1550.0,0.0226
1549.0,0.0226
1548.0,0.0226
1547.0,0.0226
1546.0,0.0226
1545.0,0.0227
1544.0,0.0229
1543.0,0.0229
1542.0,0.0228
1541.0,0.0228
1540.0,0.0225
1539.0,0.0222
1538.0,0.0223
1537.0,0.0224
1536.0,0.0225
1535.0,0.0225
1534.0,0.0225
1533.0,0.0224
1532.0,0.0224
1531.0,0.0223
1530.0,0.0223
1529.0,0.0223
1528.0,0.0223
1527.0,0.0224
1526.0,0.0224
1525.0,0.0225
1524.0,0.0226
1523.0,0.0226
1522.0,0.0227
1521.0,0.0227
1520.0,0.0225
1519.0,0.0222
1518.0,0.0221
1517.0,0.0221
1516.0,0.0222
1515.0,0.0223
1514.0,0.0223
1513.0,0.0224
1512.0,0.0225
1511.0,0.0223
1510.0,0.0221
1509.0,0.0218
1508.0,0.0216
1507.0,0.0215
1506.0,0.0215
1505.0,0.0218
1504.0,0.0221
1503.0,0.0222
1502.0,0.0222
1501.0,0.0223
1500.0,0.0224
1499.0,0.0224
1498.0,0.0224
1497.0,0.0225
1496.0,0.0224
1495.0,0.0223
1494.0,0.0222
1493.0,0.0221
1492.0,0.0221
1491.0,0.0221
1490.0,0.0222
1489.0,0.0224
1488.0,0.0225
1487.0,0.0226
1486.0,0.0226
1485.0,0.0227
1484.0,0.0229
1483.0,0.023
1482.0,0.0232
1481.0,0.0236
1480.0,0.024
1479.0,0.0243
1478.0,0.0246
1477.0,0.0252
1476.0,0.0261
1475.0,0.027
1474.0,0.0286
1473.0,0.0313
1472.0,0.0345
1471.0,0.0372
1470.0,0.0397
1469.0,0.0425
1468.0,0.0455
1467.0,0.049
1466.0,0.0536
1465.0,0.0591
1464.0,0.0638
1463.0,0.0668
1462.0,0.0685
1461.0,0.0697
1460.0,0.0706
1459.0,0.0715
1458.0,0.0735
1457.0,0.0763
1456.0,0.0777
1455.0,0.0778
1454.0,0.0776
1453.0,0.0773
1452.0,0.0768
1451.0,0.0757
1450.0,0.074
1449.0,0.0713
1448.0,0.0676
1447.0,0.0635
1446.0,0.0597
1445.0,0.0563
1444.0,0.0533
1443.0,0.0506
1442.0,0.0487
1441.0,0.0472
1440.0,0.0462
1439.0,0.0455
1438.0,0.0454
1437.0,0.0457
1436.0,0.0456
1435.0,0.0447
1434.0,0.0432
1433.0,0.0413
1432.0,0.0392
1431.0,0.0373
1430.0,0.0358
1429.0,0.0345
1428.0,0.0336
1427.0,0.0329
1426.0,0.0324
1425.0,0.0319
1424.0,0.0314
1423.0,0.0311
1422.0,0.0308
1421.0,0.0304
1420.0,0.03
1419.0,0.0298
1418.0,0.0296
1417.0,0.0294
1416.0,0.0291
1415.0,0.0288
1414.0,0.0286
1413.0,0.0284
1412.0,0.0281
1411.0,0.0278
1410.0,0.0276
1409.0,0.0274
1408.0,0.0271
1407.0,0.0269
1406.0,0.0268
1405.0,0.0266
1404.0,0.0266
1403.0,0.0265
1402.0,0.0265
1401.0,0.0264
1400.0,0.0263
1399.0,0.0262
1398.0,0.0262
1397.0,0.026
1396.0,0.0257
1395.0,0.0255
1394.0,0.0254
1393.0,0.0254
1392.0,0.0255
1391.0,0.0258
1390.0,0.0261
1389.0,0.0264
1388.0,0.027
1387.0,0.0282
1386.0,0.0299
1385.0,0.0322
1384.0,0.0358
1383.0,0.0411
1382.0,0.0484
1381.0,0.0578
1380.0,0.0697
1379.0,0.0834
1378.0,0.0965
1377.0,0.1061
1376.0,0.11
1375.0,0.1066
1374.0,0.0972
1373.0,0.086
1372.0,0.076
1371.0,0.0677
1370.0,0.0607
1369.0,0.0549
1368.0,0.0508
1367.0,0.048
1366.0,0.0463
1365.0,0.0454
1364.0,0.0451
1363.0,0.0456
1362.0,0.0466
1361.0,0.0477
1360.0,0.0486
1359.0,0.049
1358.0,0.0487
1357.0,0.0477
1356.0,0.0463
1355.0,0.0445
1354.0,0.0428
1353.0,0.0412
1352.0,0.04
1351.0,0.0389
1350.0,0.0381
1349.0,0.0373
1348.0,0.0367
1347.0,0.0361
1346.0,0.0355
1345.0,0.035
1344.0,0.0346
1343.0,0.0343
1342.0,0.034
1341.0,0.0338
1340.0,0.0337
1339.0,0.0335
1338.0,0.0333
1337.0,0.0332
1336.0,0.0332
1335.0,0.0332
1334.0,0.0333
1333.0,0.0335
1332.0,0.0337
1331.0,0.0338
1330.0,0.0339
1329.0,0.0339
1328.0,0.0338
1327.0,0.0336
1326.0,0.0334
1325.0,0.0332
1324.0,0.0329
1323.0,0.0326
1322.0,0.0324
1321.0,0.0322
1320.0,0.032
1319.0,0.0319
1318.0,0.0318
1317.0,0.0316
1316.0,0.0315
1315.0,0.0314
1314.0,0.0313
1313.0,0.0312
1312.0,0.0313
1311.0,0.0313
1310.0,0.0315
1309.0,0.0318
1308.0,0.0323
1307.0,0.0329
1306.0,0.0336
1305.0,0.0341
1304.0,0.0343
1303.0,0.0342
1302.0,0.0338
1301.0,0.0335
1300.0,0.0333
1299.0,0.0332
1298.0,0.0332
1297.0,0.0332
1296.0,0.0332
1295.0,0.0331
1294.0,0.033
1293.0,0.0327
1292.0,0.0325
1291.0,0.0323
1290.0,0.032
1289.0,0.0318
1288.0,0.0317
1287.0,0.0316
1286.0,0.0315
1285.0,0.0314
1284.0,0.0314
1283.0,0.0313
1282.0,0.0312
1281.0,0.0311
1280.0,0.031
1279.0,0.0309
1278.0,0.0308
1277.0,0.0307
1276.0,0.0307
1275.0,0.0307
1274.0,0.0307
1273.0,0.0307
1272.0,0.0307
1271.0,0.0306
1270.0,0.0306
1269.0,0.0305
1268.0,0.0305
1267.0,0.0306
1266.0,0.0307
1265.0,0.0307
1264.0,0.0308
1263.0,0.0309
1262.0,0.031
1261.0,0.0312
1260.0,0.0315
1259.0,0.032
1258.0,0.0325
1257.0,0.033
1256.0,0.0333
1255.0,0.0333
1254.0,0.0331
1253.0,0.0327
1252.0,0.0322
1251.0,0.0318
1250.0,0.0316
1249.0,0.0314
1248.0,0.0313
1247.0,0.0311
1246.0,0.031
1245.0,0.0309
1244.0,0.0307
1243.0,0.0307
1242.0,0.0306
1241.0,0.0307
1240.0,0.0307
1239.0,0.0308
1238.0,0.0308
1237.0,0.0307
1236.0,0.0307
1235.0,0.0306
1234.0,0.0306
1233.0,0.0306
1232.0,0.0306
1231.0,0.0306
1230.0,0.0306
1229.0,0.0306
1228.0,0.0306
1227.0,0.0307
1226.0,0.0308
1225.0,0.0309
1224.0,0.0311
1223.0,0.0312
1222.0,0.0314
1221.0,0.0315
1220.0,0.0316
1219.0,0.0316
1218.0,0.0316
1217.0,0.0316
1216.0,0.0316
1215.0,0.0316
1214.0,0.0315
1213.0,0.0315
1212.0,0.0315
1211.0,0.0314
1210.0,0.0314
1209.0,0.0313
1208.0,0.0313
1207.0,0.0312
1206.0,0.0312
1205.0,0.0312
1204.0,0.0313
1203.0,0.0313
1202.0,0.0313
1201.0,0.0313
1200.0,0.0312
1199.0,0.0312
1198.0,0.0311
1197.0,0.0311
1196.0,0.0312
1195.0,0.0312
1194.0,0.0312
1193.0,0.0313
1192.0,0.0313
1191.0,0.0313
1190.0,0.0313
1189.0,0.0313
1188.0,0.0313
1187.0,0.0313
1186.0,0.0313
1185.0,0.0313
1184.0,0.0314
1183.0,0.0315
1182.0,0.0317
1181.0,0.0319
1180.0,0.0321
1179.0,0.0323
1178.0,0.0325
1177.0,0.0329
1176.0,0.0334
1175.0,0.0341
1174.0,0.0352
1173.0,0.0366
1172.0,0.0385
1171.0,0.0405
1170.0,0.0426
1169.0,0.0443
1168.0,0.0453
1167.0,0.0456
1166.0,0.0452
1165.0,0.0444
1164.0,0.0434
1163.0,0.0425
1162.0,0.0417
1161.0,0.041
1160.0,0.0404
1159.0,0.04
1158.0,0.0397
1157.0,0.0395
1156.0,0.0394
1155.0,0.0394
1154.0,0.0392
1153.0,0.0391
1152.0,0.0389
1151.0,0.0386
1150.0,0.0382
1149.0,0.0378
1148.0,0.0373
1147.0,0.0369
1146.0,0.0365
1145.0,0.0361
1144.0,0.0357
1143.0,0.0353
1142.0,0.035
1141.0,0.0348
1140.0,0.0345
1139.0,0.0344
1138.0,0.0341
1137.0,0.0339
1136.0,0.0337
1135.0,0.0336
1134.0,0.0334
1133.0,0.0333
1132.0,0.0331
1131.0,0.033
1130.0,0.0329
1129.0,0.0328
1128.0,0.0327
1127.0,0.0325
1126.0,0.0323
1125.0,0.0322
1124.0,0.0321
1123.0,0.032
1122.0,0.032
1121.0,0.0319
1120.0,0.0318
1119.0,0.0318
1118.0,0.0319
1117.0,0.0319
1116.0,0.0318
1115.0,0.0318
1114.0,0.0317
1113.0,0.0317
1112.0,0.0318
1111.0,0.0319
1110.0,0.032
1109.0,0.0321
1108.0,0.0322
1107.0,0.0323
1106.0,0.0326
1105.0,0.0329
1104.0,0.0331
1103.0,0.0333
1102.0,0.0334
1101.0,0.0334
1100.0,0.0332
1099.0,0.033
1098.0,0.0326
1097.0,0.0323
1096.0,0.0321
1095.0,0.032
1094.0,0.0318
1093.0,0.0316
1092.0,0.0314
1091.0,0.0312
1090.0,0.031
1089.0,0.0308
1088.0,0.0306
1087.0,0.0303
1086.0,0.0301
1085.0,0.0299
1084.0,0.0298
1083.0,0.0298
1082.0,0.0297
1081.0,0.0296
1080.0,0.0295
1079.0,0.0293
1078.0,0.0291
1077.0,0.0289
1076.0,0.0289
1075.0,0.0289
1074.0,0.029
1073.0,0.0291
1072.0,0.0292
1071.0,0.0293
1070.0,0.0291
1069.0,0.0289
1068.0,0.0286
1067.0,0.0284
1066.0,0.0284
1065.0,0.0285
1064.0,0.0287
1063.0,0.0289
1062.0,0.0291
1061.0,0.0292
1060.0,0.0292
1059.0,0.0291
1058.0,0.029
1057.0,0.029
1056.0,0.0292
1055.0,0.0293
1054.0,0.0294
1053.0,0.0295
1052.0,0.0295
1051.0,0.0295
1050.0,0.0296
1049.0,0.0298
1048.0,0.03
1047.0,0.0303
1046.0,0.0306
1045.0,0.0309
1044.0,0.0311
1043.0,0.0312
1042.0,0.0312
1041.0,0.0311
1040.0,0.031
1039.0,0.031
1038.0,0.031
1037.0,0.0311
1036.0,0.0312
1035.0,0.0314
1034.0,0.0316
1033.0,0.0317
1032.0,0.0317
1031.0,0.0316
1030.0,0.0315
1029.0,0.0313
1028.0,0.0313
1027.0,0.0314
1026.0,0.0316
1025.0,0.0319
1024.0,0.0321
1023.0,0.0322
1022.0,0.0323
1021.0,0.0322
1020.0,0.0322
1019.0,0.0322
1018.0,0.0323
1017.0,0.0324
1016.0,0.0326
1015.0,0.0327
1014.0,0.0329
1013.0,0.0331
1012.0,0.0333
1011.0,0.0336
1010.0,0.0338
1009.0,0.034
1008.0,0.0342
1007.0,0.0345
1006.0,0.0349
1005.0,0.0356
1004.0,0.0366
1003.0,0.0381
1002.0,0.0402
1001.0,0.0427
1000.0,0.0455
999.0,0.048
998.0,0.0495
997.0,0.0498
996.0,0.0487
995.0,0.0467
994.0,0.0445
993.0,0.0425
992.0,0.0409
991.0,0.0397
990.0,0.0388
989.0,0.0381
988.0,0.0376
987.0,0.0372
986.0,0.037
985.0,0.0369
984.0,0.037
983.0,0.0372
982.0,0.0377
981.0,0.0385
980.0,0.0397
979.0,0.0413
978.0,0.0435
977.0,0.0462
976.0,0.0492
975.0,0.0523
974.0,0.0548
973.0,0.056
972.0,0.0557
971.0,0.054
970.0,0.0515
969.0,0.0488
968.0,0.0464
967.0,0.0445
966.0,0.043
965.0,0.0419
964.0,0.0411
963.0,0.0405
962.0,0.0401
961.0,0.0397
960.0,0.0394
959.0,0.0391
958.0,0.0388
957.0,0.0386
956.0,0.0384
955.0,0.0382
954.0,0.038
953.0,0.0378
952.0,0.0377
951.0,0.0377
950.0,0.0377
949.0,0.0376
948.0,0.0376
947.0,0.0377
946.0,0.0379
945.0,0.0381
944.0,0.0384
943.0,0.0386
942.0,0.0388
941.0,0.0389
940.0,0.0389
939.0,0.0388
938.0,0.0386
937.0,0.0383
936.0,0.0381
935.0,0.0379
934.0,0.0378
933.0,0.0377
932.0,0.0377
931.0,0.0376
930.0,0.0375
929.0,0.0375
928.0,0.0375
927.0,0.0375
926.0,0.0374
925.0,0.0374
924.0,0.0374
923.0,0.0375
922.0,0.0375
921.0,0.0375
920.0,0.0375
919.0,0.0376
918.0,0.0376
917.0,0.0377
916.0,0.0376
915.0,0.0376
914.0,0.0376
913.0,0.0377
912.0,0.0379
911.0,0.0379
910.0,0.038
909.0,0.038
908.0,0.0382
907.0,0.0386
906.0,0.039
905.0,0.0395
904.0,0.0402
903.0,0.0411
902.0,0.042
901.0,0.043
900.0,0.0439
899.0,0.0445
898.0,0.0446
897.0,0.0442
896.0,0.0435
895.0,0.0426
894.0,0.0417
893.0,0.0411
892.0,0.0407
891.0,0.0405
890.0,0.0405
889.0,0.0404
888.0,0.0404
887.0,0.0403
886.0,0.0401
885.0,0.04
884.0,0.04
883.0,0.04
882.0,0.04
881.0,0.0401
880.0,0.0402
879.0,0.0403
878.0,0.0403
877.0,0.0403
876.0,0.0403
875.0,0.0405
874.0,0.0406
873.0,0.0407
872.0,0.0407
871.0,0.0407
870.0,0.0406
869.0,0.0407
868.0,0.0408
867.0,0.0409
866.0,0.0411
865.0,0.0412
864.0,0.0412
863.0,0.0412
862.0,0.0412
861.0,0.0412
860.0,0.0413
859.0,0.0415
858.0,0.0416
857.0,0.0418
856.0,0.042
855.0,0.0422
854.0,0.0424
853.0,0.0425
852.0,0.0426
851.0,0.0426
850.0,0.0427
849.0,0.0429
848.0,0.0432
847.0,0.0438
846.0,0.0447
845.0,0.0465
844.0,0.0493
843.0,0.0526
842.0,0.0556
841.0,0.0571
840.0,0.0565
839.0,0.0544
838.0,0.0517
837.0,0.0495
836.0,0.0481
835.0,0.0473
834.0,0.0468
833.0,0.0464
832.0,0.046
831.0,0.0455
830.0,0.0452
829.0,0.0449
828.0,0.0449
827.0,0.0449
826.0,0.0449
825.0,0.045
824.0,0.045
823.0,0.045
822.0,0.045
821.0,0.0449
820.0,0.0449
819.0,0.0449
818.0,0.045
817.0,0.0452
816.0,0.0456
815.0,0.0461
814.0,0.0468
813.0,0.0478
812.0,0.0489
811.0,0.05
810.0,0.0509
809.0,0.0514
808.0,0.0516
807.0,0.0513
806.0,0.0506
805.0,0.0498
804.0,0.0491
803.0,0.0485
802.0,0.0482
801.0,0.0479
800.0,0.0477
799.0,0.0474
798.0,0.0472
797.0,0.0471
796.0,0.047
795.0,0.0468
794.0,0.0466
793.0,0.0464
792.0,0.0461
791.0,0.0459
790.0,0.0459
789.0,0.0459
788.0,0.0461
787.0,0.0461
786.0,0.0461
785.0,0.0459
784.0,0.0458
783.0,0.0458
782.0,0.0458
781.0,0.0458
780.0,0.0457
779.0,0.0456
778.0,0.0456
777.0,0.0456
776.0,0.0457
775.0,0.0458
774.0,0.0458
773.0,0.0457
772.0,0.0458
771.0,0.0458
770.0,0.0459
769.0,0.046
768.0,0.046
767.0,0.0459
766.0,0.0459
765.0,0.0459
764.0,0.0459
763.0,0.0459
762.0,0.0458
761.0,0.0456
760.0,0.0456
759.0,0.0458
758.0,0.046
757.0,0.0462
756.0,0.0464
755.0,0.0466
754.0,0.0465
753.0,0.0464
752.0,0.0462
751.0,0.046
750.0,0.046
749.0,0.046
748.0,0.0461
747.0,0.0463
746.0,0.0465
745.0,0.0467
744.0,0.0468
743.0,0.0468
742.0,0.0468
741.0,0.0468
740.0,0.047
739.0,0.047
738.0,0.0471
737.0,0.0471
736.0,0.047
735.0,0.047
734.0,0.0471
733.0,0.0473
732.0,0.0475
731.0,0.0475
730.0,0.0473
729.0,0.0472
728.0,0.0472
727.0,0.0474
726.0,0.0477
725.0,0.048
724.0,0.0483
723.0,0.0486
722.0,0.049
721.0,0.0494
720.0,0.0495
719.0,0.049
718.0,0.0484
717.0,0.0481
716.0,0.0482
715.0,0.0485
714.0,0.0487
713.0,0.0486
712.0,0.0486
711.0,0.0487
710.0,0.0486
709.0,0.0483
708.0,0.0481
707.0,0.0481
706.0,0.0484
705.0,0.0489
704.0,0.0496
703.0,0.05
702.0,0.0501
701.0,0.0501
700.0,0.0505
699.0,0.051
698.0,0.051
697.0,0.0505
696.0,0.0499
695.0,0.0496
694.0,0.0498
693.0,0.0499
692.0,0.0497
691.0,0.0491
690.0,0.0485
689.0,0.0484
688.0,0.0489
687.0,0.0494
686.0,0.0498
685.0,0.0501
684.0,0.0505
683.0,0.0511
682.0,0.0517
681.0,0.052
680.0,0.052
679.0,0.0516
678.0,0.0509
677.0,0.0504
676.0,0.0503
675.0,0.0502
674.0,0.0502
673.0,0.0502
672.0,0.0496
671.0,0.0472
670.0,0.0427
669.0,0.0376
668.0,0.0356
667.0,0.0398
666.0,0.0456
665.0,0.0492
664.0,0.0507
663.0,0.0509
662.0,0.0506
661.0,0.05
660.0,0.0494
659.0,0.0489
658.0,0.0486
657.0,0.0486
656.0,0.0492
655.0,0.0501
654.0,0.0506
653.0,0.0505
652.0,0.0501
651.0,0.0499
650.0,0.05
649.0,0.0503
648.0,0.0503
647.0,0.05
646.0,0.0494
645.0,0.0492
644.0,0.0493
643.0,0.0495
642.0,0.0496
641.0,0.0497
640.0,0.0503
639.0,0.0514
638.0,0.0527
637.0,0.0538
636.0,0.0547
635.0,0.0548
634.0,0.054
633.0,0.0527
632.0,0.0519
631.0,0.0519
630.0,0.0523
629.0,0.0527
628.0,0.0528
627.0,0.0523
626.0,0.0509
625.0,0.0491
624.0,0.0479
623.0,0.0477
622.0,0.0486
621.0,0.0501
620.0,0.052
619.0,0.054
618.0,0.0551
617.0,0.0547
616.0,0.0533
615.0,0.0519
614.0,0.0514
613.0,0.0516
612.0,0.0521
611.0,0.0524
610.0,0.0526
609.0,0.0529
608.0,0.0531
607.0,0.0531
606.0,0.0528
605.0,0.0525
604.0,0.0523
603.0,0.0524
602.0,0.0526
601.0,0.0529
600.0,0.0528
