cm-1,A
4000.0,0.007
3999.0,0.0069
3998.0,0.0069
3997.0,0.0069
3996.0,0.0069
3995.0,0.007
3994.0,0.007
3993.0,0.0071
3992.0,0.007
3991.0,0.007
3990.0,0.007
3989.0,0.0069
3988.0,0.007
3987.0,0.007
3986.0,0.0071
3985.0,0.0072
3984.0,0.0072
3983.0,0.0072
3982.0,0.0071
3981.0,0.0071
3980.0,0.0071
3979.0,0.0071
3978.0,0.0071
3977.0,0.0071
3976.0,0.0071
3975.0,0.0071
3974.0,0.0071
3973.0,0.0071
3972.0,0.0071
3971.0,0.0071
3970.0,0.0071
3969.0,0.0071
3968.0,0.0071
3967.0,0.0071
3966.0,0.007
3965.0,0.007
3964.0,0.007
3963.0,0.007
3962.0,0.0071
3961.0,0.0072
3960.0,0.0073
3959.0,0.0073
3958.0,0.0073
3957.0,0.0072
3956.0,0.0071
3955.0,0.007
3954.0,0.007
3953.0,0.007
3952.0,0.0071
3951.0,0.0071
3950.0,0.0072
3949.0,0.0072
3948.0,0.0072
3947.0,0.0072
3946.0,0.0072
3945.0,0.0073
3944.0,0.0074
3943.0,0.0075
3942.0,0.0076
3941.0,0.0075
3940.0,0.0074
3939.0,0.0073
3938.0,0.0071
3937.0,0.0071
3936.0,0.0071
3935.0,0.0071
3934.0,0.0072
3933.0,0.0073
3932.0,0.0073
3931.0,0.0073
3930.0,0.0074
3929.0,0.0074
3928.0,0.0074
3927.0,0.0074
3926.0,0.0074
3925.0,0.0074
3924.0,0.0075
3923.0,0.0075
3922.0,0.0075
3921.0,0.0075
3920.0,0.0074
3919.0,0.0073
3918.0,0.0073
3917.0,0.0073
3916.0,0.0073
3915.0,0.0073
3914.0,0.0073
3913.0,0.0073
3912.0,0.0073
3911.0,0.0073
3910.0,0.0073
3909.0,0.0073
3908.0,0.0073
3907.0,0.0073
3906.0,0.0072
3905.0,0.007
3904.0,0.0069
3903.0,0.0069
3902.0,0.0071
3901.0,0.0073
3900.0,0.0075
3899.0,0.0075
3898.0,0.0074
3897.0,0.0073
3896.0,0.0073
3895.0,0.0072
3894.0,0.0072
3893.0,0.0071
3892.0,0.0071
3891.0,0.0072
3890.0,0.0072
3889.0,0.0072
3888.0,0.0074
3887.0,0.0075
3886.0,0.0075
3885.0,0.0076
3884.0,0.0077
3883.0,0.0079
3882.0,0.0081
3881.0,0.0081
3880.0,0.0079
3879.0,0.0078
3878.0,0.0077
3877.0,0.0078
3876.0,0.0079
3875.0,0.0078
3874.0,0.0077
3873.0,0.0076
3872.0,0.0076
3871.0,0.0076
3870.0,0.0075
3869.0,0.0074
3868.0,0.0073
3867.0,0.0074
3866.0,0.0074
3865.0,0.0074
3864.0,0.0074
3863.0,0.0075
3862.0,0.0076
3861.0,0.0076
3860.0,0.0076
3859.0,0.0076
3858.0,0.0076
3857.0,0.0075
3856.0,0.0074
3855.0,0.0074
3854.0,0.0074
3853.0,0.0074
3852.0,0.0074
3851.0,0.0074
3850.0,0.0075
3849.0,0.0075
3848.0,0.0075
3847.0,0.0075
3846.0,0.0076
3845.0,0.0077
3844.0,0.0078
3843.0,0.0079
3842.0,0.008
3841.0,0.0081
3840.0,0.0081
3839.0,0.0081
3838.0,0.0082
3837.0,0.0081
3836.0,0.0081
3835.0,0.008
3834.0,0.0079
3833.0,0.0079
3832.0,0.0079
3831.0,0.0079
3830.0,0.0079
3829.0,0.008
3828.0,0.0081
3827.0,0.0081
3826.0,0.008
3825.0,0.008
3824.0,0.008
3823.0,0.0081
3822.0,0.008
3821.0,0.0079
3820.0,0.0077
3819.0,0.0077
3818.0,0.0078
3817.0,0.0078
3816.0,0.0078
3815.0,0.0077
3814.0,0.0077
3813.0,0.0077
3812.0,0.0078
3811.0,0.0078
3810.0,0.0078
3809.0,0.0079
3808.0,0.0079
3807.0,0.0079
3806.0,0.0079
3805.0,0.008
3804.0,0.0083
3803.0,0.0084
3802.0,0.0084
3801.0,0.0083
3800.0,0.0081
3799.0,0.0081
3798.0,0.008
3797.0,0.0079
3796.0,0.0078
3795.0,0.0077
3794.0,0.0077
3793.0,0.0077
3792.0,0.0077
3791.0,0.0077
3790.0,0.0077
3789.0,0.0077
3788.0,0.0078
3787.0,0.0079
3786.0,0.008
3785.0,0.0081
3784.0,0.0081
3783.0,0.0082
3782.0,0.0083
3781.0,0.0083
3780.0,0.0083
3779.0,0.0081
3778.0,0.008
3777.0,0.0079
3776.0,0.0079
3775.0,0.0078
3774.0,0.0077
3773.0,0.0078
3772.0,0.0079
3771.0,0.0079
3770.0,0.0079
3769.0,0.0078
3768.0,0.0078
3767.0,0.0079
3766.0,0.0078
3765.0,0.0078
3764.0,0.0079
3763.0,0.008
3762.0,0.0082
3761.0,0.0083
3760.0,0.0083
3759.0,0.0083
3758.0,0.0083
3757.0,0.0082
3756.0,0.0081
3755.0,0.0081
3754.0,0.008
3753.0,0.0078
3752.0,0.0074
3751.0,0.0073
3750.0,0.0073
3749.0,0.0074
3748.0,0.0074
3747.0,0.0075
3746.0,0.0075
3745.0,0.0073
3744.0,0.007
3743.0,0.0068
3742.0,0.0069
3741.0,0.0071
3740.0,0.0072
3739.0,0.0072
3738.0,0.0072
3737.0,0.007
3736.0,0.0067
3735.0,0.0065
3734.0,0.0063
3733.0,0.0062
3732.0,0.0061
3731.0,0.006
3730.0,0.006
3729.0,0.006
3728.0,0.006
3727.0,0.0061
3726.0,0.0064
3725.0,0.0067
3724.0,0.0069
3723.0,0.007
3722.0,0.007
3721.0,0.007
3720.0,0.007
3719.0,0.0071
3718.0,0.0072
3717.0,0.0073
3716.0,0.0074
3715.0,0.0076
3714.0,0.0076
3713.0,0.0074
3712.0,0.0071
3711.0,0.007
3710.0,0.0069
3709.0,0.0069
3708.0,0.0069
3707.0,0.0068
3706.0,0.0068
3705.0,0.0069
3704.0,0.007
3703.0,0.0072
3702.0,0.0074
3701.0,0.0074
3700.0,0.0073
3699.0,0.0072
3698.0,0.0072
3697.0,0.0072
3696.0,0.0072
3695.0,0.0072
3694.0,0.0073
3693.0,0.0075
3692.0,0.0076
3691.0,0.0078
3690.0,0.008
3689.0,0.008
3688.0,0.0078
3687.0,0.0076
3686.0,0.0075
3685.0,0.0075
3684.0,0.0076
3683.0,0.0078
3682.0,0.008
3681.0,0.0083
3680.0,0.0084
3679.0,0.0085
3678.0,0.0086
3677.0,0.0088
3676.0,0.0089
3675.0,0.0089
3674.0,0.0087
3673.0,0.0087
3672.0,0.0088
3671.0,0.0087
3670.0,0.0086
3669.0,0.0086
3668.0,0.0085
3667.0,0.0085
3666.0,0.0086
3665.0,0.0087
3664.0,0.0087
3663.0,0.0088
3662.0,0.0088
3661.0,0.0087
3660.0,0.0086
3659.0,0.0086
3658.0,0.0087
3657.0,0.0088
3656.0,0.0089
3655.0,0.009
3654.0,0.0091
3653.0,0.0093
3652.0,0.0094
3651.0,0.0093
3650.0,0.0093
3649.0,0.0096
3648.0,0.0098
3647.0,0.0097
3646.0,0.0095
3645.0,0.0093
3644.0,0.0092
3643.0,0.0091
3642.0,0.009
3641.0,0.0091
3640.0,0.0092
3639.0,0.0092
3638.0,0.0093
3637.0,0.0093
3636.0,0.0093
3635.0,0.0092
3634.0,0.009
3633.0,0.0088
3632.0,0.0087
3631.0,0.0087
3630.0,0.0086
3629.0,0.0085
3628.0,0.0085
3627.0,0.0086
3626.0,0.0088
3625.0,0.0089
3624.0,0.0091
3623.0,0.0093
3622.0,0.0095
3621.0,0.0098
3620.0,0.0099
3619.0,0.0101
3618.0,0.0102
3617.0,0.0102
3616.0,0.0104
3615.0,0.0105
3614.0,0.0105
3613.0,0.0104
3612.0,0.0102
3611.0,0.01
3610.0,0.0099
3609.0,0.0098
3608.0,0.0098
3607.0,0.01
3606.0,0.0101
3605.0,0.0102
3604.0,0.0103
3603.0,0.0103
3602.0,0.0103
3601.0,0.0103
3600.0,0.0103
3599.0,0.0104
3598.0,0.0104
3597.0,0.0104
3596.0,0.0104
3595.0,0.0104
3594.0,0.0105
3593.0,0.0106
3592.0,0.0107
3591.0,0.0108
3590.0,0.0109
3589.0,0.0111
3588.0,0.0113
3587.0,0.0114
3586.0,0.0115
3585.0,0.0115
3584.0,0.0115
3583.0,0.0115
3582.0,0.0116
3581.0,0.0117
3580.0,0.0118
3579.0,0.012
3578.0,0.012
3577.0,0.0121
3576.0,0.0121
3575.0,0.0122
3574.0,0.0123
3573.0,0.0125
3572.0,0.0126
3571.0,0.0126
3570.0,0.0127
3569.0,0.0127
3568.0,0.0127
3567.0,0.0128
3566.0,0.013
3565.0,0.0131
3564.0,0.0131
3563.0,0.0131
3562.0,0.0132
3561.0,0.0133
3560.0,0.0134
3559.0,0.0135
3558.0,0.0135
3557.0,0.0135
3556.0,0.0135
3555.0,0.0135
3554.0,0.0136
3553.0,0.0137
3552.0,0.0139
3551.0,0.0139
3550.0,0.0139
3549.0,0.0139
3548.0,0.0139
3547.0,0.0139
3546.0,0.0141
3545.0,0.0142
3544.0,0.0143
3543.0,0.0144
3542.0,0.0144
3541.0,0.0144
3540.0,0.0144
3539.0,0.0144
3538.0,0.0143
3537.0,0.0143
3536.0,0.0144
3535.0,0.0145
3534.0,0.0146
3533.0,0.0147
3532.0,0.0148
3531.0,0.0149
3530.0,0.0149
3529.0,0.015
3528.0,0.015
3527.0,0.015
3526.0,0.0149
3525.0,0.0148
3524.0,0.0148
3523.0,0.0148
3522.0,0.0149
3521.0,0.0149
3520.0,0.0148
3519.0,0.0146
3518.0,0.0145
3517.0,0.0144
3516.0,0.0144
3515.0,0.0145
3514.0,0.0146
3513.0,0.0146
3512.0,0.0146
3511.0,0.0146
3510.0,0.0146
3509.0,0.0146
3508.0,0.0146
3507.0,0.0146
3506.0,0.0147
3505.0,0.0147
3504.0,0.0147
3503.0,0.0148
3502.0,0.0148
3501.0,0.0148
3500.0,0.0148
3499.0,0.0147
3498.0,0.0146
3497.0,0.0144
3496.0,0.0144
3495.0,0.0143
3494.0,0.0144
3493.0,0.0145
3492.0,0.0146
3491.0,0.0147
3490.0,0.0146
3489.0,0.0145
3488.0,0.0144
3487.0,0.0144
3486.0,0.0144
3485.0,0.0144
3484.0,0.0144
3483.0,0.0143
3482.0,0.0143
3481.0,0.0143
3480.0,0.0144
3479.0,0.0145
3478.0,0.0145
3477.0,0.0145
3476.0,0.0145
3475.0,0.0145
3474.0,0.0146
3473.0,0.0145
3472.0,0.0145
3471.0,0.0144
3470.0,0.0144
3469.0,0.0144
3468.0,0.0144
3467.0,0.0144
3466.0,0.0144
3465.0,0.0143
3464.0,0.0143
3463.0,0.0142
3462.0,0.0142
3461.0,0.0143
3460.0,0.0144
3459.0,0.0145
3458.0,0.0146
3457.0,0.0146
3456.0,0.0145
3455.0,0.0145
3454.0,0.0144
3453.0,0.0144
3452.0,0.0145
3451.0,0.0146
3450.0,0.0148
3449.0,0.0149
3448.0,0.015
3447.0,0.0151
3446.0,0.0152
3445.0,0.0152
3444.0,0.0152
3443.0,0.0152
3442.0,0.0151
3441.0,0.015
3440.0,0.015
3439.0,0.015
3438.0,0.015
3437.0,0.0151
3436.0,0.0153
3435.0,0.0155
3434.0,0.0157
3433.0,0.0159
3432.0,0.0159
3431.0,0.0159
3430.0,0.0159
3429.0,0.0159
3428.0,0.0158
3427.0,0.0159
3426.0,0.0159
3425.0,0.016
3424.0,0.016
3423.0,0.016
3422.0,0.016
3421.0,0.016
3420.0,0.016
3419.0,0.016
3418.0,0.0161
3417.0,0.0162
3416.0,0.0163
3415.0,0.0163
3414.0,0.0162
3413.0,0.0161
3412.0,0.016
3411.0,0.016
3410.0,0.016
3409.0,0.0161
3408.0,0.0161
3407.0,0.0161
3406.0,0.0161
3405.0,0.0161
3404.0,0.016
3403.0,0.016
3402.0,0.0159
3401.0,0.0159
3400.0,0.0159
3399.0,0.0159
3398.0,0.0159
3397.0,0.0159
3396.0,0.0159
3395.0,0.0159
3394.0,0.0159
3393.0,0.0158
3392.0,0.0157
3391.0,0.0156
3390.0,0.0155
3389.0,0.0154
3388.0,0.0153
3387.0,0.0153
3386.0,0.0153
3385.0,0.0153
3384.0,0.0153
3383.0,0.0152
3382.0,0.0151
3381.0,0.015
3380.0,0.0149
3379.0,0.0149
3378.0,0.0148
3377.0,0.0148
3376.0,0.0148
3375.0,0.0148
3374.0,0.0148
3373.0,0.0147
3372.0,0.0145
3371.0,0.0144
3370.0,0.0143
3369.0,0.0142
3368.0,0.0143
3367.0,0.0143
3366.0,0.0143
3365.0,0.0144
3364.0,0.0144
3363.0,0.0144
3362.0,0.0144
3361.0,0.0144
3360.0,0.0143
3359.0,0.0142
3358.0,0.0142
3357.0,0.0142
3356.0,0.0141
3355.0,0.0141
3354.0,0.014
3353.0,0.0139
3352.0,0.0138
3351.0,0.0138
3350.0,0.0137
3349.0,0.0138
3348.0,0.0139
3347.0,0.014
3346.0,0.014
3345.0,0.014
3344.0,0.014
3343.0,0.0139
3342.0,0.0138
3341.0,0.0138
3340.0,0.0138
3339.0,0.0138
3338.0,0.0139
3337.0,0.0139
3336.0,0.0139
3335.0,0.0138
3334.0,0.0138
3333.0,0.0139
3332.0,0.0139
3331.0,0.0139
3330.0,0.0139
3329.0,0.0137
3328.0,0.0136
3327.0,0.0134
3326.0,0.0134
3325.0,0.0134
3324.0,0.0135
3323.0,0.0135
3322.0,0.0135
3321.0,0.0135
3320.0,0.0135
3319.0,0.0135
3318.0,0.0135
3317.0,0.0135
3316.0,0.0136
3315.0,0.0136
3314.0,0.0136
3313.0,0.0135
3312.0,0.0134
3311.0,0.0132
3310.0,0.0131
3309.0,0.0131
3308.0,0.0131
3307.0,0.0132
3306.0,0.0132
3305.0,0.0133
3304.0,0.0134
3303.0,0.0134
3302.0,0.0133
3301.0,0.0132
3300.0,0.0132
3299.0,0.0131
3298.0,0.0131
3297.0,0.0131
3296.0,0.013
3295.0,0.013
3294.0,0.013
3293.0,0.013
3292.0,0.013
3291.0,0.0131
3290.0,0.0131
3289.0,0.0131
3288.0,0.013
3287.0,0.013
3286.0,0.0129
3285.0,0.0128
3284.0,0.0128
3283.0,0.0128
3282.0,0.0128
3281.0,0.0129
3280.0,0.0129
3279.0,0.013
3278.0,0.013
3277.0,0.013
3276.0,0.0129
3275.0,0.0129
3274.0,0.0128
3273.0,0.0128
3272.0,0.0128
3271.0,0.0127
3270.0,0.0127
3269.0,0.0126
3268.0,0.0126
3267.0,0.0125
3266.0,0.0125
3265.0,0.0125
3264.0,0.0125
3263.0,0.0125
3262.0,0.0125
3261.0,0.0125
3260.0,0.0125
3259.0,0.0126
3258.0,0.0126
3257.0,0.0125
3256.0,0.0125
3255.0,0.0125
3254.0,0.0124
3253.0,0.0124
3252.0,0.0124
3251.0,0.0124
3250.0,0.0125
3249.0,0.0125
3248.0,0.0125
3247.0,0.0124
3246.0,0.0123
3245.0,0.0123
3244.0,0.0123
3243.0,0.0123
3242.0,0.0124
3241.0,0.0124
3240.0,0.0123
3239.0,0.0122
3238.0,0.0121
3237.0,0.012
3236.0,0.012
3235.0,0.0121
3234.0,0.0121
3233.0,0.0121
3232.0,0.0121
3231.0,0.0121
3230.0,0.0122
3229.0,0.0122
3228.0,0.0121
3227.0,0.0121
3226.0,0.012
3225.0,0.0121
3224.0,0.0121
3223.0,0.012
3222.0,0.0119
3221.0,0.0118
3220.0,0.0117
3219.0,0.0118
3218.0,0.0119
3217.0,0.0121
3216.0,0.0122
3215.0,0.0121
3214.0,0.012
3213.0,0.0119
3212.0,0.0118
3211.0,0.0118
3210.0,0.0118
3209.0,0.0118
3208.0,0.0118
3207.0,0.0119
3206.0,0.0119
3205.0,0.0119
3204.0,0.0118
3203.0,0.0117
3202.0,0.0116
3201.0,0.0115
3200.0,0.0115
3199.0,0.0115
3198.0,0.0116
3197.0,0.0116
3196.0,0.0117
3195.0,0.0117
3194.0,0.0118
3193.0,0.0117
3192.0,0.0117
3191.0,0.0117
3190.0,0.0116
3189.0,0.0117
3188.0,0.0117
3187.0,0.0117
3186.0,0.0117
3185.0,0.0117
3184.0,0.0116
3183.0,0.0114
3182.0,0.0113
3181.0,0.0111
3180.0,0.0111
3179.0,0.0112
3178.0,0.0113
3177.0,0.0114
3176.0,0.0114
3175.0,0.0115
3174.0,0.0115
3173.0,0.0114
3172.0,0.0113
3171.0,0.0113
3170.0,0.0113
3169.0,0.0114
3168.0,0.0114
3167.0,0.0113
3166.0,0.0112
3165.0,0.0112
3164.0,0.0112
3163.0,0.0112
3162.0,0.0112
3161.0,0.0112
3160.0,0.0113
3159.0,0.0114
3158.0,0.0113
3157.0,0.0112
3156.0,0.0112
3155.0,0.0112
3154.0,0.0112
3153.0,0.0113
3152.0,0.0114
3151.0,0.0113
3150.0,0.0112
3149.0,0.0112
3148.0,0.0111
3147.0,0.011
3146.0,0.011
3145.0,0.0111
3144.0,0.0112
3143.0,0.0113
3142.0,0.0113
3141.0,0.0112
3140.0,0.0111
3139.0,0.011
3138.0,0.011
3137.0,0.011
3136.0,0.0111
3135.0,0.0111
3134.0,0.0111
3133.0,0.0111
3132.0,0.0111
3131.0,0.0111
3130.0,0.0112
3129.0,0.0112
3128.0,0.0113
3127.0,0.0114
3126.0,0.0113
3125.0,0.0113
3124.0,0.0112
3123.0,0.0112
3122.0,0.0111
3121.0,0.0111
3120.0,0.0111
3119.0,0.0111
3118.0,0.0111
3117.0,0.0111
3116.0,0.0111
3115.0,0.0111
3114.0,0.0112
3113.0,0.0112
3112.0,0.0112
3111.0,0.0112
3110.0,0.0112
3109.0,0.0113
3108.0,0.0114
3107.0,0.0115
3106.0,0.0115
3105.0,0.0115
3104.0,0.0115
3103.0,0.0114
3102.0,0.0113
3101.0,0.0112
3100.0,0.0112
3099.0,0.0112
3098.0,0.0113
3097.0,0.0113
3096.0,0.0114
3095.0,0.0115
3094.0,0.0114
3093.0,0.0114
3092.0,0.0114
3091.0,0.0114
3090.0,0.0114
3089.0,0.0114
3088.0,0.0115
3087.0,0.0116
3086.0,0.0117
3085.0,0.0118
3084.0,0.0117
3083.0,0.0116
3082.0,0.0115
3081.0,0.0114
3080.0,0.0115
3079.0,0.0115
3078.0,0.0115
3077.0,0.0115
3076.0,0.0115
3075.0,0.0115
3074.0,0.0114
3073.0,0.0115
3072.0,0.0115
3071.0,0.0116
3070.0,0.0117
3069.0,0.0117
3068.0,0.0117
3067.0,0.0116
3066.0,0.0115
3065.0,0.0114
3064.0,0.0114
3063.0,0.0114
3062.0,0.0114
3061.0,0.0114
3060.0,0.0114
3059.0,0.0115
3058.0,0.0116
3057.0,0.0116
3056.0,0.0117
3055.0,0.0117
3054.0,0.0117
3053.0,0.0117
3052.0,0.0116
3051.0,0.0116
3050.0,0.0116
3049.0,0.0115
3048.0,0.0114
3047.0,0.0113
3046.0,0.0111
3045.0,0.011
3044.0,0.0109
3043.0,0.0109
3042.0,0.0108
3041.0,0.0107
3040.0,0.0107
3039.0,0.0106
3038.0,0.0106
3037.0,0.0106
3036.0,0.0106
3035.0,0.0107
3034.0,0.0108
3033.0,0.0108
3032.0,0.0108
3031.0,0.0107
3030.0,0.0107
3029.0,0.0107
3028.0,0.0107
3027.0,0.0107
3026.0,0.0107
3025.0,0.0107
3024.0,0.0107
3023.0,0.0107
3022.0,0.0108
3021.0,0.011
3020.0,0.0111
3019.0,0.0112
3018.0,0.0113
3017.0,0.0113
3016.0,0.0112
3015.0,0.0112
3014.0,0.0113
3013.0,0.0113
3012.0,0.0114
3011.0,0.0114
3010.0,0.0115
3009.0,0.0115
3008.0,0.0116
3007.0,0.0116
3006.0,0.0116
3005.0,0.0117
3004.0,0.0118
3003.0,0.0119
3002.0,0.012
3001.0,0.0121
3000.0,0.0121
2999.0,0.0122
2998.0,0.0123
2997.0,0.0123
2996.0,0.0123
2995.0,0.0123
2994.0,0.0124
2993.0,0.0124
2992.0,0.0126
2991.0,0.0127
2990.0,0.0128
2989.0,0.0129
2988.0,0.013
2987.0,0.013
2986.0,0.0131
2985.0,0.0132
2984.0,0.0133
2983.0,0.0135
2982.0,0.0137
2981.0,0.0139
2980.0,0.014
2979.0,0.0142
2978.0,0.0143
2977.0,0.0146
2976.0,0.0148
2975.0,0.0151
2974.0,0.0153
2973.0,0.0155
2972.0,0.0156
2971.0,0.0156
2970.0,0.0157
2969.0,0.0157
2968.0,0.0157
2967.0,0.0159
2966.0,0.016
2965.0,0.0162
2964.0,0.0162
2963.0,0.0161
2962.0,0.0161
2961.0,0.016
2960.0,0.016
2959.0,0.016
2958.0,0.016
2957.0,0.0159
2956.0,0.0157
2955.0,0.0155
2954.0,0.0154
2953.0,0.0153
2952.0,0.0151
2951.0,0.015
2950.0,0.0148
2949.0,0.0147
2948.0,0.0145
2947.0,0.0144
2946.0,0.0143
2945.0,0.0141
2944.0,0.014
2943.0,0.0138
2942.0,0.0138
2941.0,0.0137
2940.0,0.0136
2939.0,0.0134
2938.0,0.0133
2937.0,0.0131
2936.0,0.0131
2935.0,0.0131
2934.0,0.0131
2933.0,0.0132
2932.0,0.0132
2931.0,0.0132
2930.0,0.0131
2929.0,0.013
2928.0,0.0129
2927.0,0.0129
2926.0,0.0129
2925.0,0.0129
2924.0,0.013
2923.0,0.013
2922.0,0.013
2921.0,0.013
2920.0,0.013
2919.0,0.0129
2918.0,0.013
2917.0,0.0131
2916.0,0.0133
2915.0,0.0133
2914.0,0.0134
2913.0,0.0134
2912.0,0.0135
2911.0,0.0137
2910.0,0.0138
2909.0,0.0139
2908.0,0.014
2907.0,0.014
2906.0,0.014
2905.0,0.014
2904.0,0.0139
2903.0,0.0138
2902.0,0.0136
2901.0,0.0135
2900.0,0.0134
2899.0,0.0133
2898.0,0.0133
2897.0,0.0132
2896.0,0.0132
2895.0,0.0131
2894.0,0.013
2893.0,0.013
2892.0,0.0129
2891.0,0.013
2890.0,0.013
2889.0,0.013
2888.0,0.013
2887.0,0.013
2886.0,0.013
2885.0,0.0129
2884.0,0.0129
2883.0,0.0128
2882.0,0.0127
2881.0,0.0126
2880.0,0.0126
2879.0,0.0127
2878.0,0.0127
2877.0,0.0126
2876.0,0.0126
2875.0,0.0125
2874.0,0.0124
2873.0,0.0124
2872.0,0.0124
2871.0,0.0124
2870.0,0.0125
2869.0,0.0125
2868.0,0.0125
2867.0,0.0125
2866.0,0.0124
2865.0,0.0124
2864.0,0.0124
2863.0,0.0125
2862.0,0.0125
2861.0,0.0126
2860.0,0.0126
2859.0,0.0126
2858.0,0.0125
2857.0,0.0125
2856.0,0.0125
2855.0,0.0124
2854.0,0.0124
2853.0,0.0123
2852.0,0.0123
2851.0,0.0122
2850.0,0.0122
2849.0,0.0121
2848.0,0.012
2847.0,0.012
2846.0,0.0119
2845.0,0.0119
2844.0,0.0119
2843.0,0.0118
2842.0,0.0118
2841.0,0.0118
2840.0,0.0117
2839.0,0.0117
2838.0,0.0117
2837.0,0.0116
2836.0,0.0115
2835.0,0.0115
2834.0,0.0115
2833.0,0.0115
2832.0,0.0115
2831.0,0.0115
2830.0,0.0115
2829.0,0.0114
2828.0,0.0114
2827.0,0.0114
2826.0,0.0114
2825.0,0.0115
2824.0,0.0115
2823.0,0.0115
2822.0,0.0114
2821.0,0.0114
2820.0,0.0113
2819.0,0.0113
2818.0,0.0113
2817.0,0.0113
2816.0,0.0113
2815.0,0.0113
2814.0,0.0113
2813.0,0.0113
2812.0,0.0112
2811.0,0.0112
2810.0,0.0112
2809.0,0.0112
2808.0,0.0113
2807.0,0.0113
2806.0,0.0113
2805.0,0.0114
2804.0,0.0114
2803.0,0.0113
2802.0,0.0113
2801.0,0.0112
2800.0,0.0112
2799.0,0.0111
2798.0,0.0111
2797.0,0.0111
2796.0,0.0111
2795.0,0.0111
2794.0,0.0112
2793.0,0.0111
2792.0,0.0111
2791.0,0.011
2790.0,0.011
2789.0,0.0111
2788.0,0.0111
2787.0,0.0111
2786.0,0.0111
2785.0,0.0111
2784.0,0.0111
2783.0,0.0111
2782.0,0.011
2781.0,0.011
2780.0,0.0109
2779.0,0.0109
2778.0,0.0109
2777.0,0.0109
2776.0,0.0109
2775.0,0.011
2774.0,0.011
2773.0,0.0109
2772.0,0.0109
2771.0,0.0109
2770.0,0.0109
2769.0,0.011
2768.0,0.011
2767.0,0.011
2766.0,0.011
2765.0,0.011
2764.0,0.011
2763.0,0.011
2762.0,0.011
2761.0,0.011
2760.0,0.011
2759.0,0.0109
2758.0,0.0109
2757.0,0.0109
2756.0,0.0109
2755.0,0.0109
2754.0,0.0109
2753.0,0.0109
2752.0,0.0109
2751.0,0.0109
2750.0,0.0109
2749.0,0.0109
2748.0,0.0108
2747.0,0.0107
2746.0,0.0107
2745.0,0.0107
2744.0,0.0108
2743.0,0.0108
2742.0,0.0108
2741.0,0.0108
2740.0,0.0107
2739.0,0.0107
2738.0,0.0107
2737.0,0.0107
2736.0,0.0108
2735.0,0.0108
2734.0,0.0108
2733.0,0.0108
2732.0,0.0107
2731.0,0.0107
2730.0,0.0107
2729.0,0.0107
2728.0,0.0108
2727.0,0.0108
2726.0,0.0108
2725.0,0.0108
2724.0,0.0108
2723.0,0.0108
2722.0,0.0108
2721.0,0.0107
2720.0,0.0107
2719.0,0.0107
2718.0,0.0107
2717.0,0.0107
2716.0,0.0106
2715.0,0.0106
2714.0,0.0105
2713.0,0.0105
2712.0,0.0105
2711.0,0.0106
2710.0,0.0106
2709.0,0.0106
2708.0,0.0107
2707.0,0.0107
2706.0,0.0106
2705.0,0.0106
2704.0,0.0106
2703.0,0.0105
2702.0,0.0105
2701.0,0.0105
2700.0,0.0105
2699.0,0.0105
2698.0,0.0105
2697.0,0.0105
2696.0,0.0105
2695.0,0.0105
2694.0,0.0105
2693.0,0.0105
2692.0,0.0105
2691.0,0.0105
2690.0,0.0105
2689.0,0.0105
2688.0,0.0106
2687.0,0.0105
2686.0,0.0105
2685.0,0.0105
2684.0,0.0105
2683.0,0.0105
2682.0,0.0106
2681.0,0.0107
2680.0,0.0107
2679.0,0.0107
2678.0,0.0107
2677.0,0.0106
2676.0,0.0106
2675.0,0.0106
2674.0,0.0106
2673.0,0.0106
2672.0,0.0105
2671.0,0.0105
2670.0,0.0105
2669.0,0.0105
2668.0,0.0104
2667.0,0.0104
2666.0,0.0104
2665.0,0.0104
2664.0,0.0105
2663.0,0.0105
2662.0,0.0106
2661.0,0.0105
2660.0,0.0104
2659.0,0.0103
2658.0,0.0103
2657.0,0.0103
2656.0,0.0103
2655.0,0.0104
2654.0,0.0104
2653.0,0.0104
2652.0,0.0104
2651.0,0.0103
2650.0,0.0103
2649.0,0.0103
2648.0,0.0103
2647.0,0.0103
2646.0,0.0103
2645.0,0.0103
2644.0,0.0102
2643.0,0.0103
2642.0,0.0103
2641.0,0.0103
2640.0,0.0103
2639.0,0.0104
2638.0,0.0104
2637.0,0.0104
2636.0,0.0103
2635.0,0.0102
2634.0,0.0102
2633.0,0.0102
2632.0,0.0102
2631.0,0.0103
2630.0,0.0103
2629.0,0.0103
2628.0,0.0103
2627.0,0.0103
2626.0,0.0103
2625.0,0.0103
2624.0,0.0104
2623.0,0.0104
2622.0,0.0104
2621.0,0.0103
2620.0,0.0103
2619.0,0.0102
2618.0,0.0102
2617.0,0.0102
2616.0,0.0102
2615.0,0.0102
2614.0,0.0102
2613.0,0.0102
2612.0,0.0102
2611.0,0.0102
2610.0,0.0102
2609.0,0.0102
2608.0,0.0102
2607.0,0.0102
2606.0,0.0102
2605.0,0.0102
2604.0,0.0102
2603.0,0.0102
2602.0,0.0102
2601.0,0.0102
2600.0,0.0102
2599.0,0.0102
2598.0,0.0102
2597.0,0.0102
2596.0,0.0102
2595.0,0.0102
2594.0,0.0101
2593.0,0.0102
2592.0,0.0102
2591.0,0.0102
2590.0,0.0102
2589.0,0.0103
2588.0,0.0103
2587.0,0.0103
2586.0,0.0102
2585.0,0.0102
2584.0,0.0102
2583.0,0.0102
2582.0,0.0101
2581.0,0.0102
2580.0,0.0102
2579.0,0.0102
2578.0,0.0102
2577.0,0.0102
2576.0,0.0102
2575.0,0.0103
2574.0,0.0103
2573.0,0.0103
2572.0,0.0104
2571.0,0.0104
2570.0,0.0103
2569.0,0.0103
2568.0,0.0103
2567.0,0.0103
2566.0,0.0103
2565.0,0.0103
2564.0,0.0103
2563.0,0.0103
2562.0,0.0103
2561.0,0.0102
2560.0,0.0101
2559.0,0.0101
2558.0,0.0101
2557.0,0.0102
2556.0,0.0103
2555.0,0.0104
2554.0,0.0104
2553.0,0.0103
2552.0,0.0103
2551.0,0.0102
2550.0,0.0102
2549.0,0.0102
2548.0,0.0102
2547.0,0.0102
2546.0,0.0102
2545.0,0.0101
2544.0,0.0101
2543.0,0.0101
2542.0,0.0102
2541.0,0.0102
2540.0,0.0101
2539.0,0.0101
2538.0,0.0101
2537.0,0.0101
2536.0,0.0101
2535.0,0.0101
2534.0,0.0101
2533.0,0.0101
2532.0,0.01
2531.0,0.01
2530.0,0.0101
2529.0,0.0101
2528.0,0.0101
2527.0,0.0101
2526.0,0.0102
2525.0,0.0102
2524.0,0.0102
2523.0,0.0102
2522.0,0.0102
2521.0,0.0101
2520.0,0.0101
2519.0,0.0101
2518.0,0.01
2517.0,0.01
2516.0,0.01
2515.0,0.01
2514.0,0.01
2513.0,0.01
2512.0,0.01
2511.0,0.01
2510.0,0.0099
2509.0,0.0099
2508.0,0.0099
2507.0,0.0099
2506.0,0.0099
2505.0,0.0099
2504.0,0.0099
2503.0,0.0099
2502.0,0.0099
2501.0,0.0099
2500.0,0.0099
2499.0,0.0099
2498.0,0.0099
2497.0,0.0099
2496.0,0.0098
2495.0,0.0098
2494.0,0.0098
2493.0,0.0098
2492.0,0.0098
2491.0,0.0098
2490.0,0.0098
2489.0,0.0098
2488.0,0.0098
2487.0,0.0098
2486.0,0.0098
2485.0,0.0098
2484.0,0.0098
2483.0,0.0097
2482.0,0.0097
2481.0,0.0097
2480.0,0.0097
2479.0,0.0097
2478.0,0.0097
2477.0,0.0096
2476.0,0.0095
2475.0,0.0095
2474.0,0.0095
2473.0,0.0095
2472.0,0.0096
2471.0,0.0096
2470.0,0.0096
2469.0,0.0095
2468.0,0.0095
2467.0,0.0094
2466.0,0.0095
2465.0,0.0095
2464.0,0.0095
2463.0,0.0095
2462.0,0.0094
2461.0,0.0094
2460.0,0.0094
2459.0,0.0094
2458.0,0.0093
2457.0,0.0093
2456.0,0.0093
2455.0,0.0093
2454.0,0.0093
2453.0,0.0093
2452.0,0.0093
2451.0,0.0093
2450.0,0.0093
2449.0,0.0093
2448.0,0.0092
2447.0,0.0092
2446.0,0.0092
2445.0,0.0093
2444.0,0.0094
2443.0,0.0093
2442.0,0.0093
2441.0,0.0092
2440.0,0.0091
2439.0,0.0091
2438.0,0.0092
2437.0,0.0092
2436.0,0.0092
2435.0,0.0092
2434.0,0.0092
2433.0,0.0092
2432.0,0.0092
2431.0,0.0091
2430.0,0.0091
2429.0,0.0092
2428.0,0.0092
2427.0,0.0092
2426.0,0.0092
2425.0,0.0092
2424.0,0.0093
2423.0,0.0093
2422.0,0.0092
2421.0,0.0092
2420.0,0.0092
2419.0,0.0092
2418.0,0.0093
2417.0,0.0093
2416.0,0.0093
2415.0,0.0093
2414.0,0.0093
2413.0,0.0092
2412.0,0.0092
2411.0,0.0092
2410.0,0.0092
2409.0,0.0093
2408.0,0.0093
2407.0,0.0093
2406.0,0.0093
2405.0,0.0093
2404.0,0.0093
2403.0,0.0093
2402.0,0.0093
2401.0,0.0093
2400.0,0.0093
2399.0,0.0093
2398.0,0.0093
2397.0,0.0093
2396.0,0.0093
2395.0,0.0093
2394.0,0.0093
2393.0,0.0093
2392.0,0.0093
2391.0,0.0092
2390.0,0.0091
2389.0,0.0089
2388.0,0.0087
2387.0,0.0085
2386.0,0.0082
2385.0,0.0078
2384.0,0.0075
2383.0,0.0072
2382.0,0.007
2381.0,0.0068
2380.0,0.0067
2379.0,0.0066
2378.0,0.0065
2377.0,0.0063
2376.0,0.0059
2375.0,0.0052
2374.0,0.0043
2373.0,0.0036
2372.0,0.0033
2371.0,0.0036
2370.0,0.0042
2369.0,0.0048
2368.0,0.0051
2367.0,0.005
2366.0,0.0046
2365.0,0.004
2364.0,0.0035
2363.0,0.0036
2362.0,0.0045
2361.0,0.0057
2360.0,0.0062
2359.0,0.0055
2358.0,0.0044
2357.0,0.0036
2356.0,0.0028
2355.0,0.0016
2354.0,0.0001
2353.0,-0.0013
2352.0,-0.0026
2351.0,-0.0034
2350.0,-0.0031
2349.0,-0.0013
2348.0,0.0007
2347.0,0.0018
2346.0,0.0016
2345.0,0.0005
2344.0,-0.0006
2343.0,-0.0012
2342.0,-0.0012
2341.0,-0.0004
2340.0,0.0008
2339.0,0.0017
2338.0,0.0021
2337.0,0.0017
2336.0,0.0009
2335.0,0.0003
2334.0,0.0003
2333.0,0.0008
2332.0,0.0015
2331.0,0.002
2330.0,0.0019
2329.0,0.0016
2328.0,0.0012
2327.0,0.0013
2326.0,0.002
2325.0,0.003
2324.0,0.0039
2323.0,0.0043
2322.0,0.0042
2321.0,0.0037
2320.0,0.0031
2319.0,0.0028
2318.0,0.0028
2317.0,0.003
2316.0,0.0033
2315.0,0.0034
2314.0,0.0034
2313.0,0.0033
2312.0,0.0032
2311.0,0.0031
2310.0,0.0032
2309.0,0.0034
2308.0,0.0038
2307.0,0.0043
2306.0,0.0047
2305.0,0.005
2304.0,0.005
2303.0,0.005
2302.0,0.005
2301.0,0.0051
2300.0,0.0052
2299.0,0.0053
2298.0,0.0054
2297.0,0.0056
2296.0,0.0057
2295.0,0.0059
2294.0,0.0061
2293.0,0.0064
2292.0,0.0067
2291.0,0.007
2290.0,0.0072
2289.0,0.0075
2288.0,0.0077
2287.0,0.0079
2286.0,0.0081
2285.0,0.0081
2284.0,0.0082
2283.0,0.0082
2282.0,0.0082
2281.0,0.0082
2280.0,0.0081
2279.0,0.008
2278.0,0.008
2277.0,0.008
2276.0,0.008
2275.0,0.008
2274.0,0.0079
2273.0,0.0079
2272.0,0.0079
2271.0,0.0079
2270.0,0.008
2269.0,0.008
2268.0,0.008
2267.0,0.008
2266.0,0.008
2265.0,0.008
2264.0,0.008
2263.0,0.0079
2262.0,0.008
2261.0,0.008
2260.0,0.0081
2259.0,0.0082
2258.0,0.0083
2257.0,0.0083
2256.0,0.0083
2255.0,0.0084
2254.0,0.0084
2253.0,0.0084
2252.0,0.0084
2251.0,0.0084
2250.0,0.0084
2249.0,0.0084
2248.0,0.0084
2247.0,0.0084
2246.0,0.0084
2245.0,0.0085
2244.0,0.0085
2243.0,0.0085
2242.0,0.0085
2241.0,0.0085
2240.0,0.0085
2239.0,0.0085
2238.0,0.0085
2237.0,0.0084
2236.0,0.0084
2235.0,0.0083
2234.0,0.0084
2233.0,0.0084
2232.0,0.0085
2231.0,0.0085
2230.0,0.0085
2229.0,0.0085
2228.0,0.0085
2227.0,0.0085
2226.0,0.0085
2225.0,0.0085
2224.0,0.0085
2223.0,0.0085
2222.0,0.0084
2221.0,0.0083
2220.0,0.0082
2219.0,0.0082
2218.0,0.0082
2217.0,0.0082
2216.0,0.0082
2215.0,0.0082
2214.0,0.0082
2213.0,0.0082
2212.0,0.0082
2211.0,0.0082
2210.0,0.0082
2209.0,0.0082
2208.0,0.0082
2207.0,0.0082
2206.0,0.0081
2205.0,0.0081
2204.0,0.0081
2203.0,0.0081
2202.0,0.0081
2201.0,0.0081
2200.0,0.0081
2199.0,0.0081
2198.0,0.0081
2197.0,0.0081
2196.0,0.008
2195.0,0.008
2194.0,0.008
2193.0,0.008
2192.0,0.0079
2191.0,0.0079
2190.0,0.0079
2189.0,0.0078
2188.0,0.0078
2187.0,0.0078
2186.0,0.0078
2185.0,0.0078
2184.0,0.0077
2183.0,0.0077
2182.0,0.0077
2181.0,0.0076
2180.0,0.0076
2179.0,0.0077
2178.0,0.0077
2177.0,0.0077
2176.0,0.0077
2175.0,0.0077
2174.0,0.0076
2173.0,0.0076
2172.0,0.0075
2171.0,0.0074
2170.0,0.0074
2169.0,0.0075
2168.0,0.0075
2167.0,0.0075
2166.0,0.0075
2165.0,0.0075
2164.0,0.0075
2163.0,0.0075
2162.0,0.0075
2161.0,0.0074
2160.0,0.0074
2159.0,0.0075
2158.0,0.0075
2157.0,0.0074
2156.0,0.0074
2155.0,0.0074
2154.0,0.0074
2153.0,0.0074
2152.0,0.0074
2151.0,0.0075
2150.0,0.0075
2149.0,0.0075
2148.0,0.0075
2147.0,0.0075
2146.0,0.0075
2145.0,0.0075
2144.0,0.0075
2143.0,0.0075
2142.0,0.0075
2141.0,0.0075
2140.0,0.0075
2139.0,0.0075
2138.0,0.0075
2137.0,0.0074
2136.0,0.0074
2135.0,0.0074
2134.0,0.0074
2133.0,0.0074
2132.0,0.0074
2131.0,0.0074
2130.0,0.0075
2129.0,0.0075
2128.0,0.0075
2127.0,0.0075
2126.0,0.0075
2125.0,0.0075
2124.0,0.0075
2123.0,0.0075
2122.0,0.0076
2121.0,0.0076
2120.0,0.0076
2119.0,0.0075
2118.0,0.0075
2117.0,0.0076
2116.0,0.0076
2115.0,0.0077
2114.0,0.0077
2113.0,0.0077
2112.0,0.0076
2111.0,0.0076
2110.0,0.0075
2109.0,0.0075
2108.0,0.0075
2107.0,0.0075
2106.0,0.0076
2105.0,0.0076
2104.0,0.0076
2103.0,0.0076
2102.0,0.0075
2101.0,0.0075
2100.0,0.0074
2099.0,0.0074
2098.0,0.0073
2097.0,0.0073
2096.0,0.0072
2095.0,0.0072
2094.0,0.0072
2093.0,0.0072
2092.0,0.0072
2091.0,0.0072
2090.0,0.0072
2089.0,0.0071
2088.0,0.0071
2087.0,0.007
2086.0,0.007
2085.0,0.007
2084.0,0.007
2083.0,0.007
2082.0,0.007
2081.0,0.007
2080.0,0.007
2079.0,0.0069
2078.0,0.0069
2077.0,0.0069
2076.0,0.0069
2075.0,0.0069
2074.0,0.0068
2073.0,0.0068
2072.0,0.0067
2071.0,0.0067
2070.0,0.0067
2069.0,0.0067
2068.0,0.0067
2067.0,0.0066
2066.0,0.0065
2065.0,0.0065
2064.0,0.0065
2063.0,0.0065
2062.0,0.0064
2061.0,0.0064
2060.0,0.0064
2059.0,0.0063
2058.0,0.0063
2057.0,0.0062
2056.0,0.0062
2055.0,0.0061
2054.0,0.0061
2053.0,0.006
2052.0,0.006
2051.0,0.0059
2050.0,0.0059
2049.0,0.006
2048.0,0.0059
2047.0,0.0059
2046.0,0.0058
2045.0,0.0058
2044.0,0.0058
2043.0,0.0058
2042.0,0.0058
2041.0,0.0057
2040.0,0.0057
2039.0,0.0056
2038.0,0.0056
2037.0,0.0056
2036.0,0.0055
2035.0,0.0055
2034.0,0.0055
2033.0,0.0055
2032.0,0.0056
2031.0,0.0055
2030.0,0.0055
2029.0,0.0054
2028.0,0.0054
2027.0,0.0054
2026.0,0.0054
2025.0,0.0054
2024.0,0.0054
2023.0,0.0054
2022.0,0.0053
2021.0,0.0053
2020.0,0.0053
2019.0,0.0053
2018.0,0.0052
2017.0,0.0053
2016.0,0.0053
2015.0,0.0053
2014.0,0.0053
2013.0,0.0053
2012.0,0.0053
2011.0,0.0052
2010.0,0.0052
2009.0,0.0052
2008.0,0.0053
2007.0,0.0053
2006.0,0.0053
2005.0,0.0053
2004.0,0.0052
2003.0,0.0052
2002.0,0.0052
2001.0,0.0052
2000.0,0.0052
1999.0,0.0052
1998.0,0.0052
1997.0,0.0052
1996.0,0.0052
1995.0,0.0053
1994.0,0.0052
1993.0,0.0052
1992.0,0.0052
1991.0,0.0053
1990.0,0.0053
1989.0,0.0053
1988.0,0.0053
1987.0,0.0053
1986.0,0.0053
1985.0,0.0053
1984.0,0.0053
1983.0,0.0053
1982.0,0.0053
1981.0,0.0053
1980.0,0.0053
1979.0,0.0053
1978.0,0.0052
1977.0,0.0052
1976.0,0.0052
1975.0,0.0052
1974.0,0.0053
1973.0,0.0053
1972.0,0.0054
1971.0,0.0055
1970.0,0.0055
1969.0,0.0055
1968.0,0.0055
1967.0,0.0055
1966.0,0.0056
1965.0,0.0057
1964.0,0.0057
1963.0,0.0057
1962.0,0.0058
1961.0,0.0058
1960.0,0.0059
1959.0,0.006
1958.0,0.006
1957.0,0.006
1956.0,0.006
1955.0,0.0061
1954.0,0.0061
1953.0,0.006
1952.0,0.006
1951.0,0.0059
1950.0,0.0059
1949.0,0.0058
1948.0,0.0058
1947.0,0.0058
1946.0,0.0058
1945.0,0.0058
1944.0,0.0057
1943.0,0.0056
1942.0,0.0054
1941.0,0.0053
1940.0,0.0052
1939.0,0.0051
1938.0,0.0051
1937.0,0.005
1936.0,0.0049
1935.0,0.0048
1934.0,0.0047
1933.0,0.0046
1932.0,0.0045
1931.0,0.0044
1930.0,0.0043
1929.0,0.0042
1928.0,0.0041
1927.0,0.0041
1926.0,0.0041
1925.0,0.004
1924.0,0.0039
1923.0,0.0038
1922.0,0.0038
1921.0,0.0037
1920.0,0.0036
1919.0,0.0035
1918.0,0.0034
1917.0,0.0033
1916.0,0.0033
1915.0,0.0032
1914.0,0.0032
1913.0,0.0032
1912.0,0.0031
1911.0,0.003
1910.0,0.0029
1909.0,0.0028
1908.0,0.0027
1907.0,0.0027
1906.0,0.0027
1905.0,0.0026
1904.0,0.0026
1903.0,0.0025
1902.0,0.0025
1901.0,0.0024
1900.0,0.0024
1899.0,0.0023
1898.0,0.0023
1897.0,0.0022
1896.0,0.0021
1895.0,0.0021
1894.0,0.002
1893.0,0.0021
1892.0,0.0021
1891.0,0.0021
1890.0,0.002
1889.0,0.0019
1888.0,0.0018
1887.0,0.0017
1886.0,0.0017
1885.0,0.0016
1884.0,0.0015
1883.0,0.0014
1882.0,0.0013
1881.0,0.0012
1880.0,0.0011
1879.0,0.001
1878.0,0.001
1877.0,0.001
1876.0,0.0009
1875.0,0.0009
1874.0,0.0009
1873.0,0.0008
1872.0,0.0008
1871.0,0.0008
1870.0,0.0007
1869.0,0.0007
1868.0,0.0006
1867.0,0.0006
1866.0,0.0005
1865.0,0.0004
1864.0,0.0003
1863.0,0.0003
1862.0,0.0002
1861.0,0.0002
1860.0,0.0001
1859.0,0.0001
1858.0,0.0001
1857.0,0.0001
1856.0,0.0001
1855.0,0.0001
1854.0,0.0
1853.0,0.0
1852.0,0.0
1851.0,0.0
1850.0,0.0001
1849.0,0.0001
1848.0,0.0001
1847.0,0.0001
1846.0,-0.0001
1845.0,-0.0002
1844.0,-0.0003
1843.0,-0.0002
1842.0,-0.0
1841.0,0.0
1840.0,0.0001
1839.0,0.0001
1838.0,0.0001
1837.0,0.0001
1836.0,0.0
1835.0,0.0001
1834.0,0.0001
1833.0,0.0002
1832.0,0.0002
1831.0,0.0003
1830.0,0.0003
1829.0,0.0003
1828.0,0.0004
1827.0,0.0004
1826.0,0.0003
1825.0,0.0002
1824.0,0.0001
1823.0,0.0
1822.0,0.0
1821.0,-0.0
1820.0,-0.0
1819.0,-0.0001
1818.0,-0.0002
1817.0,-0.0003
1816.0,-0.0003
1815.0,-0.0003
1814.0,-0.0003
1813.0,-0.0004
1812.0,-0.0005
1811.0,-0.0005
1810.0,-0.0006
1809.0,-0.0008
1808.0,-0.001
1807.0,-0.0011
1806.0,-0.0011
1805.0,-0.0012
1804.0,-0.0012
1803.0,-0.0013
1802.0,-0.0014
1801.0,-0.0016
1800.0,-0.0018
1799.0,-0.0019
1798.0,-0.002
1797.0,-0.0022
1796.0,-0.0023
1795.0,-0.0024
1794.0,-0.0025
1793.0,-0.0028
1792.0,-0.003
1791.0,-0.003
1790.0,-0.0029
1789.0,-0.003
1788.0,-0.0031
1787.0,-0.0032
1786.0,-0.0033
1785.0,-0.0035
1784.0,-0.0035
1783.0,-0.0034
1782.0,-0.0033
1781.0,-0.0034
1780.0,-0.0036
1779.0,-0.0037
1778.0,-0.0038
1777.0,-0.0039
1776.0,-0.0039
1775.0,-0.004
1774.0,-0.004
1773.0,-0.0042
1772.0,-0.0043
1771.0,-0.0042
1770.0,-0.0042
1769.0,-0.0044
1768.0,-0.0046
1767.0,-0.0045
1766.0,-0.0042
1765.0,-0.0041
1764.0,-0.004
1763.0,-0.0039
1762.0,-0.0037
1761.0,-0.0035
1760.0,-0.0032
1759.0,-0.0028
1758.0,-0.0024
1757.0,-0.002
1756.0,-0.0014
1755.0,-0.0006
1754.0,0.0002
1753.0,0.0009
1752.0,0.002
1751.0,0.0037
1750.0,0.0058
1749.0,0.0081
1748.0,0.0106
1747.0,0.0135
1746.0,0.0168
1745.0,0.0205
1744.0,0.025
1743.0,0.0299
1742.0,0.0351
1741.0,0.0408
1740.0,0.0477
1739.0,0.0549
1738.0,0.0608
1737.0,0.0653
1736.0,0.07
1735.0,0.0782
1734.0,0.0897
1733.0,0.0997
1732.0,0.1069
1731.0,0.114
1730.0,0.122
1729.0,0.1302
1728.0,0.1379
1727.0,0.1453
1726.0,0.1527
1725.0,0.1606
1724.0,0.169
1723.0,0.1773
1722.0,0.1848
1721.0,0.1908
1720.0,0.196
1719.0,0.2023
1718.0,0.2105
1717.0,0.2176
1716.0,0.2211
1715.0,0.2221
1714.0,0.2212
1713.0,0.2176
1712.0,0.2114
1711.0,0.2032
1710.0,0.1938
1709.0,0.1839
1708.0,0.1734
1707.0,0.1618
1706.0,0.1493
1705.0,0.1384
1704.0,0.1307
1703.0,0.1248
1702.0,0.1184
1701.0,0.1099
1700.0,0.1015
1699.0,0.0962
1698.0,0.0927
1697.0,0.0889
1696.0,0.0847
1695.0,0.0809
1694.0,0.0785
1693.0,0.0768
1692.0,0.075
1691.0,0.0731
1690.0,0.0711
1689.0,0.0695
1688.0,0.0684
1687.0,0.0673
1686.0,0.066
1685.0,0.0645
1684.0,0.0632
1683.0,0.0621
1682.0,0.0609
1681.0,0.0597
1680.0,0.0584
1679.0,0.0571
1678.0,0.0557
1677.0,0.0544
1676.0,0.0529
1675.0,0.0514
1674.0,0.0503
1673.0,0.0495
1672.0,0.0486
1671.0,0.0474
1670.0,0.0461
1669.0,0.045
1668.0,0.0441
1667.0,0.0433
1666.0,0.0425
1665.0,0.0415
1664.0,0.0405
1663.0,0.0394
1662.0,0.0384
1661.0,0.0376
1660.0,0.0369
1659.0,0.0362
1658.0,0.0356
1657.0,0.0351
1656.0,0.0345
1655.0,0.0338
1654.0,0.0329
1653.0,0.0324
1652.0,0.032
1651.0,0.0319
1650.0,0.0317
1649.0,0.0313
1648.0,0.0306
1647.0,0.0299
1646.0,0.0294
1645.0,0.0292
1644.0,0.0289
1643.0,0.0286
1642.0,0.0283
1641.0,0.0281
1640.0,0.028
1639.0,0.0277
1638.0,0.0273
1637.0,0.0269
1636.0,0.0268
1635.0,0.0267
1634.0,0.0265
1633.0,0.0264
1632.0,0.0262
1631.0,0.0261
1630.0,0.0259
1629.0,0.0259
1628.0,0.0259
1627.0,0.0259
1626.0,0.0258
1625.0,0.0257
1624.0,0.0256
1623.0,0.0257
1622.0,0.0257
1621.0,0.0258
1620.0,0.0257
1619.0,0.0255
1618.0,0.0253
1617.0,0.0254
1616.0,0.0256
1615.0,0.0256
1614.0,0.0255
1613.0,0.0251
1612.0,0.0247
1611.0,0.0243
1610.0,0.0238
1609.0,0.0233
1608.0,0.0229
1607.0,0.0223
1606.0,0.0218
1605.0,0.0212
1604.0,0.0207
1603.0,0.0201
1602.0,0.0196
1601.0,0.0192
1600.0,0.0188
1599.0,0.0185
1598.0,0.0181
1597.0,0.0178
1596.0,0.0175
1595.0,0.0173
1594.0,0.0171
1593.0,0.0169
1592.0,0.0167
1591.0,0.0166
1590.0,0.0165
1589.0,0.0165
1588.0,0.0165
1587.0,0.0165
1586.0,0.0167
1585.0,0.017
1584.0,0.0175
1583.0,0.0183
1582.0,0.0192
1581.0,0.0201
1580.0,0.021
1579.0,0.0216
1578.0,0.0217
1577.0,0.0216
1576.0,0.0211
1575.0,0.0206
1574.0,0.02
1573.0,0.0195
1572.0,0.0188
1571.0,0.018
1570.0,0.0172
1569.0,0.0167
1568.0,0.0163
1567.0,0.0159
1566.0,0.0156
1565.0,0.0152
1564.0,0.015
1563.0,0.0147
1562.0,0.0145
1561.0,0.0143
1560.0,0.0141
1559.0,0.0138
1558.0,0.0135
1557.0,0.0132
1556.0,0.0129
1555.0,0.0126
1554.0,0.0125
1553.0,0.0124
1552.0,0.0124
1551.0,0.0122
1550.0,0.0121
1549.0,0.0119
1548.0,0.0117
1547.0,0.0115
1546.0,0.0112
1545.0,0.011
1544.0,0.0107
1543.0,0.0105
1542.0,0.0103
1541.0,0.0103
1540.0,0.0107
1539.0,0.0107
1538.0,0.0104
1537.0,0.0102
1536.0,0.0101
1535.0,0.01
1534.0,0.01
1533.0,0.0103
1532.0,0.0104
1531.0,0.0104
1530.0,0.0104
1529.0,0.0103
1528.0,0.0102
1527.0,0.0101
1526.0,0.0101
1525.0,0.01
1524.0,0.0099
1523.0,0.0096
1522.0,0.0093
1521.0,0.0091
1520.0,0.0092
1519.0,0.0091
1518.0,0.0089
1517.0,0.0087
1516.0,0.0085
1515.0,0.0084
1514.0,0.0083
1513.0,0.0085
1512.0,0.009
1511.0,0.0098
1510.0,0.011
1509.0,0.0127
1508.0,0.0162
1507.0,0.022
1506.0,0.0259
1505.0,0.0262
1504.0,0.025
1503.0,0.0231
1502.0,0.0206
1501.0,0.0181
1500.0,0.0157
1499.0,0.0135
1498.0,0.0115
1497.0,0.01
1496.0,0.0091
1495.0,0.0085
1494.0,0.0081
1493.0,0.0079
1492.0,0.0078
1491.0,0.0076
1490.0,0.0075
1489.0,0.0077
1488.0,0.0081
1487.0,0.0084
1486.0,0.0088
1485.0,0.0094
1484.0,0.01
1483.0,0.0107
1482.0,0.0115
1481.0,0.0125
1480.0,0.0134
1479.0,0.0141
1478.0,0.0148
1477.0,0.0155
1476.0,0.0161
1475.0,0.0166
1474.0,0.0168
1473.0,0.017
1472.0,0.0173
1471.0,0.0173
1470.0,0.0171
1469.0,0.0169
1468.0,0.0168
1467.0,0.0167
1466.0,0.0167
1465.0,0.017
1464.0,0.0174
1463.0,0.0179
1462.0,0.0184
1461.0,0.0189
1460.0,0.0193
1459.0,0.0194
1458.0,0.0195
1457.0,0.0201
1456.0,0.0207
1455.0,0.0211
1454.0,0.0212
1453.0,0.021
1452.0,0.0207
1451.0,0.0203
1450.0,0.0198
1449.0,0.0193
1448.0,0.0189
1447.0,0.0185
1446.0,0.0181
1445.0,0.0178
1444.0,0.0175
1443.0,0.0172
1442.0,0.017
1441.0,0.0167
1440.0,0.0164
1439.0,0.0159
1438.0,0.0151
1437.0,0.0141
1436.0,0.0132
1435.0,0.0125
1434.0,0.0119
1433.0,0.0112
1432.0,0.0103
1431.0,0.0093
1430.0,0.0083
1429.0,0.0074
1428.0,0.0068
1427.0,0.0065
1426.0,0.0062
1425.0,0.006
1424.0,0.0059
1423.0,0.006
1422.0,0.0062
1421.0,0.0067
1420.0,0.0079
1419.0,0.0103
1418.0,0.0135
1417.0,0.0171
1416.0,0.0213
1415.0,0.0264
1414.0,0.0326
1413.0,0.0398
1412.0,0.0476
1411.0,0.0547
1410.0,0.0602
1409.0,0.0634
1408.0,0.0643
1407.0,0.0626
1406.0,0.0586
1405.0,0.0533
1404.0,0.0479
1403.0,0.0432
1402.0,0.0393
1401.0,0.0358
1400.0,0.0324
1399.0,0.0291
1398.0,0.0265
1397.0,0.0245
1396.0,0.0228
1395.0,0.0211
1394.0,0.0197
1393.0,0.0187
1392.0,0.018
1391.0,0.0174
1390.0,0.0168
1389.0,0.0163
1388.0,0.016
1387.0,0.0159
1386.0,0.0159
1385.0,0.016
1384.0,0.0162
1383.0,0.0163
1382.0,0.0164
1381.0,0.0166
1380.0,0.0169
1379.0,0.0172
1378.0,0.0175
1377.0,0.0178
1376.0,0.0182
1375.0,0.0187
1374.0,0.0191
1373.0,0.0195
1372.0,0.0196
1371.0,0.0195
1370.0,0.0192
1369.0,0.0186
1368.0,0.0178
1367.0,0.0168
1366.0,0.0157
1365.0,0.0145
1364.0,0.0132
1363.0,0.0119
1362.0,0.0107
1361.0,0.0099
1360.0,0.0094
1359.0,0.0091
1358.0,0.009
1357.0,0.009
1356.0,0.0093
1355.0,0.0097
1354.0,0.0104
1353.0,0.0114
1352.0,0.0127
1351.0,0.0144
1350.0,0.0165
1349.0,0.0192
1348.0,0.0226
1347.0,0.0267
1346.0,0.0317
1345.0,0.0376
1344.0,0.0442
1343.0,0.051
1342.0,0.0576
1341.0,0.0639
1340.0,0.069
1339.0,0.072
1338.0,0.0721
1337.0,0.0695
1336.0,0.0648
1335.0,0.0585
1334.0,0.0511
1333.0,0.0435
1332.0,0.0362
1331.0,0.0298
1330.0,0.0246
1329.0,0.0206
1328.0,0.0177
1327.0,0.0157
1326.0,0.0144
1325.0,0.0137
1324.0,0.0133
1323.0,0.0133
1322.0,0.0136
1321.0,0.014
1320.0,0.0145
1319.0,0.0151
1318.0,0.0158
1317.0,0.0165
1316.0,0.0174
1315.0,0.0183
1314.0,0.0194
1313.0,0.0206
1312.0,0.0219
1311.0,0.0233
1310.0,0.0248
1309.0,0.0263
1308.0,0.0279
1307.0,0.0295
1306.0,0.031
1305.0,0.0325
1304.0,0.034
1303.0,0.0356
1302.0,0.0376
1301.0,0.0398
1300.0,0.0425
1299.0,0.0455
1298.0,0.0487
1297.0,0.0521
1296.0,0.0555
1295.0,0.059
1294.0,0.0624
1293.0,0.0658
1292.0,0.0691
1291.0,0.0723
1290.0,0.0754
1289.0,0.0785
1288.0,0.0815
1287.0,0.0844
1286.0,0.0871
1285.0,0.0897
1284.0,0.0922
1283.0,0.0947
1282.0,0.0971
1281.0,0.0997
1280.0,0.1024
1279.0,0.1052
1278.0,0.1082
1277.0,0.1115
1276.0,0.1153
1275.0,0.1196
1274.0,0.1244
1273.0,0.13
1272.0,0.1363
1271.0,0.1431
1270.0,0.1502
1269.0,0.1576
1268.0,0.1652
1267.0,0.1725
1266.0,0.1796
1265.0,0.1863
1264.0,0.1925
1263.0,0.1978
1262.0,0.2023
1261.0,0.2059
1260.0,0.2089
1259.0,0.2111
1258.0,0.2128
1257.0,0.2145
1256.0,0.2165
1255.0,0.2189
1254.0,0.2218
1253.0,0.2255
1252.0,0.23
1251.0,0.2349
1250.0,0.2402
1249.0,0.2458
1248.0,0.2517
1247.0,0.2573
1246.0,0.2625
1245.0,0.2673
1244.0,0.2715
1243.0,0.2748
1242.0,0.2767
1241.0,0.2773
1240.0,0.2767
1239.0,0.2747
1238.0,0.2712
1237.0,0.2667
1236.0,0.2614
1235.0,0.2554
1234.0,0.2487
1233.0,0.2419
1232.0,0.2351
1231.0,0.2282
1230.0,0.2212
1229.0,0.2144
1228.0,0.2079
1227.0,0.2015
1226.0,0.1951
1225.0,0.1889
1224.0,0.183
1223.0,0.1772
1222.0,0.1714
1221.0,0.1657
1220.0,0.1602
1219.0,0.1548
1218.0,0.1493
1217.0,0.1442
1216.0,0.1393
1215.0,0.1346
1214.0,0.1301
1213.0,0.1259
1212.0,0.1219
1211.0,0.1182
1210.0,0.1146
1209.0,0.1113
1208.0,0.1081
1207.0,0.1051
1206.0,0.1022
1205.0,0.0994
1204.0,0.0967
1203.0,0.0942
1202.0,0.0916
1201.0,0.0892
1200.0,0.0869
1199.0,0.0846
1198.0,0.0823
1197.0,0.0802
1196.0,0.0782
1195.0,0.0762
1194.0,0.0743
1193.0,0.0725
1192.0,0.0708
1191.0,0.0691
1190.0,0.0675
1189.0,0.066
1188.0,0.0647
1187.0,0.0636
1186.0,0.0626
1185.0,0.0618
1184.0,0.0613
1183.0,0.061
1182.0,0.0609
1181.0,0.0609
1180.0,0.0613
1179.0,0.0617
1178.0,0.0622
1177.0,0.0627
1176.0,0.063
1175.0,0.0631
1174.0,0.0628
1173.0,0.0622
1172.0,0.0612
1171.0,0.0599
1170.0,0.0583
1169.0,0.0566
1168.0,0.0549
1167.0,0.0534
1166.0,0.0521
1165.0,0.0511
1164.0,0.0504
1163.0,0.0498
1162.0,0.0493
1161.0,0.0489
1160.0,0.0486
1159.0,0.0484
1158.0,0.0483
1157.0,0.0483
1156.0,0.0485
1155.0,0.0488
1154.0,0.0493
1153.0,0.0499
1152.0,0.0508
1151.0,0.0518
1150.0,0.053
1149.0,0.0545
1148.0,0.0561
1147.0,0.0579
1146.0,0.0599
1145.0,0.0621
1144.0,0.0644
1143.0,0.067
1142.0,0.0698
1141.0,0.0729
1140.0,0.0763
1139.0,0.0798
1138.0,0.0836
1137.0,0.0878
1136.0,0.0924
1135.0,0.0975
1134.0,0.103
1133.0,0.1089
1132.0,0.1153
1131.0,0.122
1130.0,0.1289
1129.0,0.1359
1128.0,0.1432
1127.0,0.1505
1126.0,0.1577
1125.0,0.1649
1124.0,0.1719
1123.0,0.1785
1122.0,0.1846
1121.0,0.1901
1120.0,0.1949
1119.0,0.1986
1118.0,0.2009
1117.0,0.202
1116.0,0.2018
1115.0,0.2005
1114.0,0.1987
1113.0,0.1973
1112.0,0.197
1111.0,0.1983
1110.0,0.2013
1109.0,0.2063
1108.0,0.2129
1107.0,0.2204
1106.0,0.2283
1105.0,0.2364
1104.0,0.2444
1103.0,0.2518
1102.0,0.2584
1101.0,0.2643
1100.0,0.2693
1099.0,0.2732
1098.0,0.2759
1097.0,0.2776
1096.0,0.2784
1095.0,0.2779
1094.0,0.2763
1093.0,0.2739
1092.0,0.2709
1091.0,0.2672
1090.0,0.2629
1089.0,0.2585
1088.0,0.2541
1087.0,0.2496
1086.0,0.2451
1085.0,0.2406
1084.0,0.2361
1083.0,0.2312
1082.0,0.2259
1081.0,0.2202
1080.0,0.2141
1079.0,0.2075
1078.0,0.2005
1077.0,0.1935
1076.0,0.1866
1075.0,0.1797
1074.0,0.173
1073.0,0.1666
1072.0,0.1607
1071.0,0.1551
1070.0,0.1499
1069.0,0.145
1068.0,0.1405
1067.0,0.1363
1066.0,0.1323
1065.0,0.1287
1064.0,0.1254
1063.0,0.1223
1062.0,0.1193
1061.0,0.1166
1060.0,0.1141
1059.0,0.1119
1058.0,0.1099
1057.0,0.1081
1056.0,0.1068
1055.0,0.1057
1054.0,0.1047
1053.0,0.104
1052.0,0.1035
1051.0,0.1032
1050.0,0.1031
1049.0,0.1031
1048.0,0.1031
1047.0,0.103
1046.0,0.1028
1045.0,0.1026
1044.0,0.1023
1043.0,0.1018
1042.0,0.1011
1041.0,0.1001
1040.0,0.0989
1039.0,0.0974
1038.0,0.0957
1037.0,0.094
1036.0,0.0922
1035.0,0.0904
1034.0,0.0885
1033.0,0.0866
1032.0,0.0848
1031.0,0.0831
1030.0,0.0816
1029.0,0.0809
1028.0,0.0816
1027.0,0.0841
1026.0,0.0891
1025.0,0.0967
1024.0,0.107
1023.0,0.1193
1022.0,0.1332
1021.0,0.1483
1020.0,0.1635
1019.0,0.1773
1018.0,0.1876
1017.0,0.1924
1016.0,0.1909
1015.0,0.1837
1014.0,0.1727
1013.0,0.1604
1012.0,0.1487
1011.0,0.1384
1010.0,0.1298
1009.0,0.1228
1008.0,0.1171
1007.0,0.1124
1006.0,0.1084
1005.0,0.1048
1004.0,0.1018
1003.0,0.099
1002.0,0.0966
1001.0,0.0945
1000.0,0.0928
999.0,0.0911
998.0,0.0896
997.0,0.0882
996.0,0.0869
995.0,0.0858
994.0,0.0847
993.0,0.0838
992.0,0.0831
991.0,0.0826
990.0,0.0821
989.0,0.0816
988.0,0.0813
987.0,0.0811
986.0,0.081
985.0,0.0811
984.0,0.0815
983.0,0.082
982.0,0.0828
981.0,0.0838
980.0,0.085
979.0,0.0864
978.0,0.0879
977.0,0.0895
976.0,0.0912
975.0,0.0927
974.0,0.094
973.0,0.095
972.0,0.0956
971.0,0.0958
970.0,0.0956
969.0,0.0951
968.0,0.0942
967.0,0.093
966.0,0.0915
965.0,0.09
964.0,0.0884
963.0,0.0867
962.0,0.085
961.0,0.0834
960.0,0.082
959.0,0.0805
958.0,0.0791
957.0,0.0778
956.0,0.0765
955.0,0.0753
954.0,0.0741
953.0,0.0731
952.0,0.0722
951.0,0.0713
950.0,0.0705
949.0,0.0698
948.0,0.0691
947.0,0.0684
946.0,0.0677
945.0,0.067
944.0,0.0664
943.0,0.0658
942.0,0.0652
941.0,0.0647
940.0,0.0643
939.0,0.064
938.0,0.0637
937.0,0.0633
936.0,0.0629
935.0,0.0625
934.0,0.062
933.0,0.0616
932.0,0.0612
931.0,0.0608
930.0,0.0604
929.0,0.06
928.0,0.0596
927.0,0.0591
926.0,0.0586
925.0,0.0582
924.0,0.0577
923.0,0.0572
922.0,0.0568
921.0,0.0565
920.0,0.0562
919.0,0.0559
918.0,0.0556
917.0,0.0552
916.0,0.055
915.0,0.0548
914.0,0.0547
913.0,0.0547
912.0,0.0548
911.0,0.0549
910.0,0.0552
909.0,0.0555
908.0,0.0561
907.0,0.0567
906.0,0.0574
905.0,0.0581
904.0,0.0588
903.0,0.0595
902.0,0.06
901.0,0.0606
900.0,0.061
899.0,0.0613
898.0,0.0614
897.0,0.0614
896.0,0.0612
895.0,0.0609
894.0,0.0605
893.0,0.0601
892.0,0.0598
891.0,0.0595
890.0,0.0593
889.0,0.0592
888.0,0.0595
887.0,0.0601
886.0,0.0611
885.0,0.0628
884.0,0.0652
883.0,0.0684
882.0,0.0723
881.0,0.0769
880.0,0.0821
879.0,0.0879
878.0,0.0941
877.0,0.1011
876.0,0.1088
875.0,0.1168
874.0,0.1238
873.0,0.128
872.0,0.1281
871.0,0.1239
870.0,0.1169
869.0,0.1091
868.0,0.102
867.0,0.096
866.0,0.0913
865.0,0.0878
864.0,0.0853
863.0,0.0835
862.0,0.0821
861.0,0.0812
860.0,0.0805
859.0,0.0801
858.0,0.0798
857.0,0.0798
856.0,0.08
855.0,0.0805
854.0,0.081
853.0,0.0818
852.0,0.0827
851.0,0.0839
850.0,0.0852
849.0,0.0865
848.0,0.0875
847.0,0.0879
846.0,0.0877
845.0,0.0871
844.0,0.0862
843.0,0.0852
842.0,0.0839
841.0,0.0826
840.0,0.0812
839.0,0.0798
838.0,0.0785
837.0,0.0772
836.0,0.076
835.0,0.0747
834.0,0.0733
833.0,0.0719
832.0,0.0706
831.0,0.0693
830.0,0.0682
829.0,0.0674
828.0,0.0666
827.0,0.0658
826.0,0.0649
825.0,0.0641
824.0,0.0634
823.0,0.0628
822.0,0.0621
821.0,0.0615
820.0,0.061
819.0,0.0606
818.0,0.0603
817.0,0.0601
816.0,0.06
815.0,0.0598
814.0,0.0596
813.0,0.0594
812.0,0.0592
811.0,0.0589
810.0,0.0584
809.0,0.0579
808.0,0.0575
807.0,0.057
806.0,0.0566
805.0,0.0561
804.0,0.0557
803.0,0.0551
802.0,0.0546
801.0,0.0542
800.0,0.0542
799.0,0.0544
798.0,0.0553
797.0,0.0571
796.0,0.0594
795.0,0.0618
794.0,0.0636
793.0,0.0644
792.0,0.0641
791.0,0.0629
790.0,0.0612
789.0,0.0593
788.0,0.0576
787.0,0.056
786.0,0.0545
785.0,0.0532
784.0,0.052
783.0,0.051
782.0,0.0501
781.0,0.0493
780.0,0.0485
779.0,0.0476
778.0,0.0467
777.0,0.0458
776.0,0.0449
775.0,0.044
774.0,0.0432
773.0,0.0425
772.0,0.0419
771.0,0.0412
770.0,0.0404
769.0,0.0396
768.0,0.0388
767.0,0.0379
766.0,0.0369
765.0,0.036
764.0,0.0353
763.0,0.0345
762.0,0.0338
761.0,0.033
760.0,0.0321
759.0,0.0312
758.0,0.0304
757.0,0.0298
756.0,0.0293
755.0,0.0289
754.0,0.0283
753.0,0.0277
752.0,0.0272
751.0,0.0268
750.0,0.0265
749.0,0.0264
748.0,0.0264
747.0,0.0264
746.0,0.0268
745.0,0.0278
744.0,0.0295
743.0,0.0319
742.0,0.0354
741.0,0.0408
740.0,0.0486
739.0,0.0592
738.0,0.0723
737.0,0.0878
736.0,0.1054
735.0,0.1245
734.0,0.1448
733.0,0.1664
732.0,0.1892
731.0,0.2131
730.0,0.2383
729.0,0.2654
728.0,0.2936
727.0,0.3203
726.0,0.342
725.0,0.3556
724.0,0.3597
723.0,0.3544
722.0,0.3422
721.0,0.3263
720.0,0.3094
719.0,0.2925
718.0,0.2761
717.0,0.2604
716.0,0.2455
715.0,0.2317
714.0,0.2194
713.0,0.2089
712.0,0.2001
711.0,0.1924
710.0,0.1852
709.0,0.1785
708.0,0.1723
707.0,0.1663
706.0,0.1608
705.0,0.156
704.0,0.152
703.0,0.1484
702.0,0.1445
701.0,0.14
700.0,0.135
699.0,0.1298
698.0,0.1248
697.0,0.1203
696.0,0.1164
695.0,0.1131
694.0,0.1106
693.0,0.1089
692.0,0.1075
691.0,0.1056
690.0,0.1033
689.0,0.1015
688.0,0.1005
687.0,0.1001
686.0,0.0994
685.0,0.0984
684.0,0.0971
683.0,0.0963
682.0,0.0964
681.0,0.0972
680.0,0.0977
679.0,0.0968
678.0,0.0949
677.0,0.093
676.0,0.0915
675.0,0.0903
674.0,0.0894
673.0,0.0886
672.0,0.0882
671.0,0.0885
670.0,0.0897
669.0,0.0914
668.0,0.093
667.0,0.0912
666.0,0.0869
665.0,0.0837
664.0,0.0821
663.0,0.0812
662.0,0.0803
661.0,0.0795
660.0,0.0791
659.0,0.0787
658.0,0.078
657.0,0.0774
656.0,0.077
655.0,0.0766
654.0,0.0759
653.0,0.0748
652.0,0.0738
651.0,0.0729
650.0,0.0727
649.0,0.0732
648.0,0.0743
647.0,0.0749
646.0,0.0747
645.0,0.0741
644.0,0.0733
643.0,0.0727
642.0,0.0725
641.0,0.073
640.0,0.0738
639.0,0.0743
638.0,0.0741
637.0,0.0739
636.0,0.0742
635.0,0.0753
634.0,0.0771
633.0,0.0791
632.0,0.0803
631.0,0.0798
630.0,0.0782
629.0,0.0767
628.0,0.076
627.0,0.0757
626.0,0.0755
625.0,0.0753
624.0,0.0752
623.0,0.0752
622.0,0.0753
621.0,0.0754
620.0,0.0754
619.0,0.075
618.0,0.0743
617.0,0.0737
616.0,0.0735
615.0,0.0736
614.0,0.074
613.0,0.0748
612.0,0.0759
611.0,0.0766
610.0,0.0768
609.0,0.0771
608.0,0.0774
607.0,0.0773
606.0,0.0764
605.0,0.0753
604.0,0.0749
603.0,0.075
602.0,0.0755
601.0,0.0758
600.0,0.0755
