cm-1,A
4000.0,0.0088
3999.0,0.0088
3998.0,0.0089
3997.0,0.0088
3996.0,0.0087
3995.0,0.0086
3994.0,0.0086
3993.0,0.0085
3992.0,0.0085
3991.0,0.0085
3990.0,0.0086
3989.0,0.0086
3988.0,0.0086
3987.0,0.0086
3986.0,0.0086
3985.0,0.0086
3984.0,0.0086
3983.0,0.0087
3982.0,0.0087
3981.0,0.0087
3980.0,0.0087
3979.0,0.0087
3978.0,0.0087
3977.0,0.0087
3976.0,0.0087
3975.0,0.0087
3974.0,0.0087
3973.0,0.0087
3972.0,0.0088
3971.0,0.0088
3970.0,0.0089
3969.0,0.0089
3968.0,0.0089
3967.0,0.0088
3966.0,0.0088
3965.0,0.0087
3964.0,0.0087
3963.0,0.0088
3962.0,0.0088
3961.0,0.0088
3960.0,0.0087
3959.0,0.0086
3958.0,0.0085
3957.0,0.0085
3956.0,0.0085
3955.0,0.0086
3954.0,0.0086
3953.0,0.0087
3952.0,0.0087
3951.0,0.0087
3950.0,0.0088
3949.0,0.0088
3948.0,0.0088
3947.0,0.0089
3946.0,0.0089
3945.0,0.0089
3944.0,0.0088
3943.0,0.0088
3942.0,0.0087
3941.0,0.0087
3940.0,0.0087
3939.0,0.0087
3938.0,0.0087
3937.0,0.0087
3936.0,0.0087
3935.0,0.0087
3934.0,0.0087
3933.0,0.0087
3932.0,0.0087
3931.0,0.0087
3930.0,0.0087
3929.0,0.0088
3928.0,0.0089
3927.0,0.009
3926.0,0.009
3925.0,0.009
3924.0,0.009
3923.0,0.0089
3922.0,0.0089
3921.0,0.0088
3920.0,0.0087
3919.0,0.0087
3918.0,0.0088
3917.0,0.0089
3916.0,0.009
3915.0,0.009
3914.0,0.009
3913.0,0.009
3912.0,0.009
3911.0,0.009
3910.0,0.0091
3909.0,0.009
3908.0,0.009
3907.0,0.0089
3906.0,0.0088
3905.0,0.0088
3904.0,0.0088
3903.0,0.0089
3902.0,0.0089
3901.0,0.0089
3900.0,0.0089
3899.0,0.0089
3898.0,0.0089
3897.0,0.0089
3896.0,0.0089
3895.0,0.0089
3894.0,0.0088
3893.0,0.0087
3892.0,0.0086
3891.0,0.0085
3890.0,0.0086
3889.0,0.0086
3888.0,0.0088
3887.0,0.0088
3886.0,0.0089
3885.0,0.009
3884.0,0.0091
3883.0,0.0092
3882.0,0.0091
3881.0,0.009
3880.0,0.009
3879.0,0.009
3878.0,0.0091
3877.0,0.0093
3876.0,0.0093
3875.0,0.0093
3874.0,0.0092
3873.0,0.0092
3872.0,0.0091
3871.0,0.009
3870.0,0.0089
3869.0,0.0089
3868.0,0.0089
3867.0,0.009
3866.0,0.009
3865.0,0.0089
3864.0,0.0089
3863.0,0.0089
3862.0,0.0089
3861.0,0.0089
3860.0,0.0089
3859.0,0.0089
3858.0,0.0088
3857.0,0.0088
3856.0,0.0088
3855.0,0.0088
3854.0,0.0088
3853.0,0.0087
3852.0,0.0088
3851.0,0.0088
3850.0,0.0089
3849.0,0.0089
3848.0,0.009
3847.0,0.009
3846.0,0.0091
3845.0,0.0091
3844.0,0.0091
3843.0,0.0091
3842.0,0.009
3841.0,0.009
3840.0,0.009
3839.0,0.009
3838.0,0.009
3837.0,0.009
3836.0,0.009
3835.0,0.009
3834.0,0.009
3833.0,0.009
3832.0,0.0091
3831.0,0.0092
3830.0,0.0092
3829.0,0.0093
3828.0,0.0093
3827.0,0.0093
3826.0,0.0094
3825.0,0.0095
3824.0,0.0096
3823.0,0.0097
3822.0,0.0095
3821.0,0.0093
3820.0,0.0092
3819.0,0.0092
3818.0,0.0091
3817.0,0.009
3816.0,0.0089
3815.0,0.0089
3814.0,0.009
3813.0,0.0091
3812.0,0.0091
3811.0,0.0092
3810.0,0.0092
3809.0,0.0093
3808.0,0.0093
3807.0,0.0092
3806.0,0.0092
3805.0,0.0093
3804.0,0.0093
3803.0,0.0092
3802.0,0.0091
3801.0,0.009
3800.0,0.009
3799.0,0.0091
3798.0,0.009
3797.0,0.009
3796.0,0.009
3795.0,0.0091
3794.0,0.0092
3793.0,0.0092
3792.0,0.0092
3791.0,0.0091
3790.0,0.0091
3789.0,0.0091
3788.0,0.0091
3787.0,0.0092
3786.0,0.0092
3785.0,0.0092
3784.0,0.0093
3783.0,0.0093
3782.0,0.0094
3781.0,0.0094
3780.0,0.0094
3779.0,0.0094
3778.0,0.0094
3777.0,0.0094
3776.0,0.0094
3775.0,0.0093
3774.0,0.0092
3773.0,0.0092
3772.0,0.0092
3771.0,0.0092
3770.0,0.0091
3769.0,0.0092
3768.0,0.0092
3767.0,0.0093
3766.0,0.0094
3765.0,0.0094
3764.0,0.0094
3763.0,0.0094
3762.0,0.0094
3761.0,0.0093
3760.0,0.0093
3759.0,0.0094
3758.0,0.0094
3757.0,0.0093
3756.0,0.0092
3755.0,0.0092
3754.0,0.0092
3753.0,0.0091
3752.0,0.009
3751.0,0.0089
3750.0,0.0088
3749.0,0.0088
3748.0,0.0089
3747.0,0.009
3746.0,0.0092
3745.0,0.0093
3744.0,0.0095
3743.0,0.0097
3742.0,0.0099
3741.0,0.0101
3740.0,0.0102
3739.0,0.0104
3738.0,0.0106
3737.0,0.0107
3736.0,0.0105
3735.0,0.0103
3734.0,0.0101
3733.0,0.01
3732.0,0.0101
3731.0,0.0101
3730.0,0.0102
3729.0,0.0103
3728.0,0.0103
3727.0,0.0104
3726.0,0.0105
3725.0,0.0106
3724.0,0.0107
3723.0,0.0106
3722.0,0.0105
3721.0,0.0103
3720.0,0.0101
3719.0,0.01
3718.0,0.0098
3717.0,0.0096
3716.0,0.0095
3715.0,0.0095
3714.0,0.0097
3713.0,0.01
3712.0,0.0103
3711.0,0.0106
3710.0,0.0107
3709.0,0.0107
3708.0,0.0106
3707.0,0.0104
3706.0,0.0103
3705.0,0.0101
3704.0,0.01
3703.0,0.0099
3702.0,0.01
3701.0,0.01
3700.0,0.0101
3699.0,0.0102
3698.0,0.0102
3697.0,0.0102
3696.0,0.0101
3695.0,0.0101
3694.0,0.0101
3693.0,0.01
3692.0,0.0099
3691.0,0.0097
3690.0,0.0095
3689.0,0.0095
3688.0,0.0097
3687.0,0.0098
3686.0,0.01
3685.0,0.0101
3684.0,0.0101
3683.0,0.0102
3682.0,0.0104
3681.0,0.0105
3680.0,0.0105
3679.0,0.0107
3678.0,0.0108
3677.0,0.0108
3676.0,0.0106
3675.0,0.0104
3674.0,0.0101
3673.0,0.01
3672.0,0.01
3671.0,0.0099
3670.0,0.01
3669.0,0.0101
3668.0,0.0101
3667.0,0.0101
3666.0,0.0101
3665.0,0.0101
3664.0,0.0101
3663.0,0.0102
3662.0,0.0101
3661.0,0.01
3660.0,0.0099
3659.0,0.0099
3658.0,0.0099
3657.0,0.0099
3656.0,0.01
3655.0,0.01
3654.0,0.0101
3653.0,0.0102
3652.0,0.0103
3651.0,0.0103
3650.0,0.0106
3649.0,0.0109
3648.0,0.0111
3647.0,0.011
3646.0,0.011
3645.0,0.0109
3644.0,0.0108
3643.0,0.0108
3642.0,0.0108
3641.0,0.0109
3640.0,0.011
3639.0,0.0111
3638.0,0.0111
3637.0,0.0112
3636.0,0.0113
3635.0,0.0114
3634.0,0.0115
3633.0,0.0115
3632.0,0.0115
3631.0,0.0116
3630.0,0.0115
3629.0,0.0116
3628.0,0.0117
3627.0,0.0118
3626.0,0.0119
3625.0,0.012
3624.0,0.012
3623.0,0.012
3622.0,0.0119
3621.0,0.0117
3620.0,0.0116
3619.0,0.0116
3618.0,0.0117
3617.0,0.0118
3616.0,0.0119
3615.0,0.0118
3614.0,0.0116
3613.0,0.0116
3612.0,0.0117
3611.0,0.0119
3610.0,0.0122
3609.0,0.0126
3608.0,0.0128
3607.0,0.0129
3606.0,0.0128
3605.0,0.0127
3604.0,0.0127
3603.0,0.0127
3602.0,0.0127
3601.0,0.0127
3600.0,0.0127
3599.0,0.0125
3598.0,0.0124
3597.0,0.0123
3596.0,0.0124
3595.0,0.0125
3594.0,0.0125
3593.0,0.0125
3592.0,0.0123
3591.0,0.0121
3590.0,0.012
3589.0,0.012
3588.0,0.0121
3587.0,0.0123
3586.0,0.0124
3585.0,0.0125
3584.0,0.0124
3583.0,0.0124
3582.0,0.0123
3581.0,0.0122
3580.0,0.0122
3579.0,0.0122
3578.0,0.0122
3577.0,0.0123
3576.0,0.0124
3575.0,0.0124
3574.0,0.0125
3573.0,0.0125
3572.0,0.0125
3571.0,0.0125
3570.0,0.0125
3569.0,0.0126
3568.0,0.0126
3567.0,0.0127
3566.0,0.0128
3565.0,0.0128
3564.0,0.0128
3563.0,0.0128
3562.0,0.0128
3561.0,0.0128
3560.0,0.0127
3559.0,0.0127
3558.0,0.0128
3557.0,0.013
3556.0,0.0132
3555.0,0.0133
3554.0,0.0132
3553.0,0.0131
3552.0,0.0129
3551.0,0.0128
3550.0,0.0128
3549.0,0.0128
3548.0,0.0129
3547.0,0.0131
3546.0,0.0132
3545.0,0.0133
3544.0,0.0133
3543.0,0.0132
3542.0,0.0131
3541.0,0.013
3540.0,0.013
3539.0,0.0129
3538.0,0.013
3537.0,0.013
3536.0,0.0131
3535.0,0.0132
3534.0,0.0132
3533.0,0.0132
3532.0,0.0132
3531.0,0.0132
3530.0,0.0132
3529.0,0.0132
3528.0,0.0132
3527.0,0.0132
3526.0,0.0133
3525.0,0.0133
3524.0,0.0133
3523.0,0.0133
3522.0,0.0132
3521.0,0.0132
3520.0,0.0132
3519.0,0.0133
3518.0,0.0134
3517.0,0.0135
3516.0,0.0136
3515.0,0.0136
3514.0,0.0136
3513.0,0.0135
3512.0,0.0136
3511.0,0.0136
3510.0,0.0136
3509.0,0.0137
3508.0,0.0137
3507.0,0.0138
3506.0,0.0138
3505.0,0.0138
3504.0,0.0138
3503.0,0.0137
3502.0,0.0137
3501.0,0.0137
3500.0,0.0137
3499.0,0.0137
3498.0,0.0138
3497.0,0.0139
3496.0,0.014
3495.0,0.0141
3494.0,0.0142
3493.0,0.0142
3492.0,0.0143
3491.0,0.0142
3490.0,0.0142
3489.0,0.0141
3488.0,0.014
3487.0,0.0139
3486.0,0.014
3485.0,0.014
3484.0,0.0141
3483.0,0.0142
3482.0,0.0142
3481.0,0.0142
3480.0,0.0143
3479.0,0.0143
3478.0,0.0143
3477.0,0.0143
3476.0,0.0143
3475.0,0.0142
3474.0,0.0142
3473.0,0.0142
3472.0,0.0142
3471.0,0.0142
3470.0,0.0142
3469.0,0.0141
3468.0,0.0141
3467.0,0.0141
3466.0,0.0142
3465.0,0.0142
3464.0,0.0143
3463.0,0.0144
3462.0,0.0145
3461.0,0.0145
3460.0,0.0146
3459.0,0.0146
3458.0,0.0145
3457.0,0.0144
3456.0,0.0144
3455.0,0.0143
3454.0,0.0143
3453.0,0.0144
3452.0,0.0145
3451.0,0.0146
3450.0,0.0146
3449.0,0.0146
3448.0,0.0145
3447.0,0.0144
3446.0,0.0143
3445.0,0.0143
3444.0,0.0143
3443.0,0.0144
3442.0,0.0144
3441.0,0.0145
3440.0,0.0146
3439.0,0.0146
3438.0,0.0147
3437.0,0.0148
3436.0,0.0148
3435.0,0.0149
3434.0,0.0149
3433.0,0.0149
3432.0,0.0149
3431.0,0.0149
3430.0,0.0148
3429.0,0.0148
3428.0,0.0147
3427.0,0.0147
3426.0,0.0147
3425.0,0.0147
3424.0,0.0147
3423.0,0.0147
3422.0,0.0147
3421.0,0.0148
3420.0,0.0148
3419.0,0.0147
3418.0,0.0147
3417.0,0.0146
3416.0,0.0146
3415.0,0.0146
3414.0,0.0147
3413.0,0.0147
3412.0,0.0148
3411.0,0.0148
3410.0,0.0149
3409.0,0.0149
3408.0,0.0149
3407.0,0.0148
3406.0,0.0147
3405.0,0.0146
3404.0,0.0146
3403.0,0.0146
3402.0,0.0145
3401.0,0.0144
3400.0,0.0143
3399.0,0.0143
3398.0,0.0144
3397.0,0.0146
3396.0,0.0147
3395.0,0.0149
3394.0,0.0151
3393.0,0.0152
3392.0,0.0152
3391.0,0.0151
3390.0,0.015
3389.0,0.0149
3388.0,0.0149
3387.0,0.0149
3386.0,0.015
3385.0,0.015
3384.0,0.015
3383.0,0.0149
3382.0,0.0148
3381.0,0.0147
3380.0,0.0147
3379.0,0.0148
3378.0,0.0148
3377.0,0.0149
3376.0,0.015
3375.0,0.0151
3374.0,0.0151
3373.0,0.015
3372.0,0.015
3371.0,0.0149
3370.0,0.0149
3369.0,0.0149
3368.0,0.0149
3367.0,0.0149
3366.0,0.0149
3365.0,0.0148
3364.0,0.0148
3363.0,0.0148
3362.0,0.0148
3361.0,0.0147
3360.0,0.0146
3359.0,0.0145
3358.0,0.0145
3357.0,0.0145
3356.0,0.0145
3355.0,0.0145
3354.0,0.0145
3353.0,0.0145
3352.0,0.0145
3351.0,0.0145
3350.0,0.0145
3349.0,0.0144
3348.0,0.0144
3347.0,0.0144
3346.0,0.0144
3345.0,0.0145
3344.0,0.0146
3343.0,0.0146
3342.0,0.0145
3341.0,0.0145
3340.0,0.0144
3339.0,0.0145
3338.0,0.0145
3337.0,0.0145
3336.0,0.0143
3335.0,0.0142
3334.0,0.0141
3333.0,0.0141
3332.0,0.0141
3331.0,0.0141
3330.0,0.014
3329.0,0.014
3328.0,0.0141
3327.0,0.0141
3326.0,0.0141
3325.0,0.0142
3324.0,0.0142
3323.0,0.0142
3322.0,0.0142
3321.0,0.0143
3320.0,0.0143
3319.0,0.0142
3318.0,0.0142
3317.0,0.0141
3316.0,0.0141
3315.0,0.014
3314.0,0.014
3313.0,0.0139
3312.0,0.014
3311.0,0.014
3310.0,0.014
3309.0,0.014
3308.0,0.014
3307.0,0.014
3306.0,0.014
3305.0,0.014
3304.0,0.0138
3303.0,0.0137
3302.0,0.0136
3301.0,0.0136
3300.0,0.0137
3299.0,0.0138
3298.0,0.0139
3297.0,0.0139
3296.0,0.0139
3295.0,0.0138
3294.0,0.0137
3293.0,0.0136
3292.0,0.0136
3291.0,0.0136
3290.0,0.0136
3289.0,0.0137
3288.0,0.0138
3287.0,0.0138
3286.0,0.0138
3285.0,0.0138
3284.0,0.0137
3283.0,0.0136
3282.0,0.0136
3281.0,0.0135
3280.0,0.0135
3279.0,0.0135
3278.0,0.0135
3277.0,0.0134
3276.0,0.0134
3275.0,0.0134
3274.0,0.0134
3273.0,0.0135
3272.0,0.0135
3271.0,0.0134
3270.0,0.0134
3269.0,0.0133
3268.0,0.0133
3267.0,0.0133
3266.0,0.0132
3265.0,0.0132
3264.0,0.0132
3263.0,0.0132
3262.0,0.0132
3261.0,0.0133
3260.0,0.0133
3259.0,0.0133
3258.0,0.0132
3257.0,0.0132
3256.0,0.0131
3255.0,0.0131
3254.0,0.0131
3253.0,0.0131
3252.0,0.013
3251.0,0.013
3250.0,0.013
3249.0,0.013
3248.0,0.013
3247.0,0.013
3246.0,0.013
3245.0,0.0129
3244.0,0.0128
3243.0,0.0128
3242.0,0.0128
3241.0,0.0128
3240.0,0.0128
3239.0,0.0128
3238.0,0.0128
3237.0,0.0128
3236.0,0.0127
3235.0,0.0127
3234.0,0.0127
3233.0,0.0128
3232.0,0.0128
3231.0,0.0127
3230.0,0.0126
3229.0,0.0125
3228.0,0.0124
3227.0,0.0124
3226.0,0.0124
3225.0,0.0124
3224.0,0.0124
3223.0,0.0124
3222.0,0.0124
3221.0,0.0124
3220.0,0.0123
3219.0,0.0123
3218.0,0.0123
3217.0,0.0123
3216.0,0.0122
3215.0,0.0122
3214.0,0.0122
3213.0,0.0121
3212.0,0.0121
3211.0,0.012
3210.0,0.012
3209.0,0.012
3208.0,0.012
3207.0,0.0119
3206.0,0.0119
3205.0,0.0119
3204.0,0.012
3203.0,0.0121
3202.0,0.0122
3201.0,0.0121
3200.0,0.012
3199.0,0.0118
3198.0,0.0117
3197.0,0.0117
3196.0,0.0117
3195.0,0.0117
3194.0,0.0117
3193.0,0.0116
3192.0,0.0116
3191.0,0.0116
3190.0,0.0117
3189.0,0.0117
3188.0,0.0117
3187.0,0.0116
3186.0,0.0115
3185.0,0.0114
3184.0,0.0114
3183.0,0.0114
3182.0,0.0114
3181.0,0.0113
3180.0,0.0112
3179.0,0.0111
3178.0,0.011
3177.0,0.011
3176.0,0.0111
3175.0,0.0112
3174.0,0.0112
3173.0,0.0111
3172.0,0.011
3171.0,0.0108
3170.0,0.0108
3169.0,0.0107
3168.0,0.0107
3167.0,0.0106
3166.0,0.0106
3165.0,0.0106
3164.0,0.0106
3163.0,0.0106
3162.0,0.0106
3161.0,0.0106
3160.0,0.0105
3159.0,0.0105
3158.0,0.0105
3157.0,0.0105
3156.0,0.0104
3155.0,0.0104
3154.0,0.0103
3153.0,0.0103
3152.0,0.0103
3151.0,0.0102
3150.0,0.0102
3149.0,0.0101
3148.0,0.0101
3147.0,0.0101
3146.0,0.01
3145.0,0.0099
3144.0,0.0099
3143.0,0.0099
3142.0,0.0099
3141.0,0.01
3140.0,0.01
3139.0,0.0099
3138.0,0.0099
3137.0,0.0098
3136.0,0.0097
3135.0,0.0096
3134.0,0.0096
3133.0,0.0095
3132.0,0.0095
3131.0,0.0094
3130.0,0.0094
3129.0,0.0093
3128.0,0.0093
3127.0,0.0094
3126.0,0.0094
3125.0,0.0095
3124.0,0.0095
3123.0,0.0095
3122.0,0.0094
3121.0,0.0093
3120.0,0.0092
3119.0,0.0091
3118.0,0.0091
3117.0,0.009
3116.0,0.009
3115.0,0.009
3114.0,0.009
3113.0,0.009
3112.0,0.009
3111.0,0.009
3110.0,0.0089
3109.0,0.0088
3108.0,0.0088
3107.0,0.0087
3106.0,0.0087
3105.0,0.0087
3104.0,0.0087
3103.0,0.0087
3102.0,0.0086
3101.0,0.0086
3100.0,0.0086
3099.0,0.0087
3098.0,0.0087
3097.0,0.0087
3096.0,0.0086
3095.0,0.0086
3094.0,0.0085
3093.0,0.0085
3092.0,0.0084
3091.0,0.0084
3090.0,0.0083
3089.0,0.0083
3088.0,0.0083
3087.0,0.0082
3086.0,0.0082
3085.0,0.0082
3084.0,0.0082
3083.0,0.0083
3082.0,0.0084
3081.0,0.0084
3080.0,0.0082
3079.0,0.0081
3078.0,0.0079
3077.0,0.0078
3076.0,0.0077
3075.0,0.0077
3074.0,0.0076
3073.0,0.0076
3072.0,0.0076
3071.0,0.0076
3070.0,0.0076
3069.0,0.0076
3068.0,0.0075
3067.0,0.0075
3066.0,0.0074
3065.0,0.0074
3064.0,0.0074
3063.0,0.0074
3062.0,0.0074
3061.0,0.0074
3060.0,0.0073
3059.0,0.0071
3058.0,0.007
3057.0,0.007
3056.0,0.007
3055.0,0.007
3054.0,0.007
3053.0,0.007
3052.0,0.0069
3051.0,0.0069
3050.0,0.0068
3049.0,0.0068
3048.0,0.0067
3047.0,0.0067
3046.0,0.0066
3045.0,0.0066
3044.0,0.0066
3043.0,0.0066
3042.0,0.0066
3041.0,0.0066
3040.0,0.0065
3039.0,0.0064
3038.0,0.0063
3037.0,0.0062
3036.0,0.0061
3035.0,0.0061
3034.0,0.006
3033.0,0.006
3032.0,0.006
3031.0,0.006
3030.0,0.006
3029.0,0.0061
3028.0,0.006
3027.0,0.0059
3026.0,0.0058
3025.0,0.0058
3024.0,0.0057
3023.0,0.0057
3022.0,0.0056
3021.0,0.0055
3020.0,0.0054
3019.0,0.0054
3018.0,0.0054
3017.0,0.0053
3016.0,0.0052
3015.0,0.0051
3014.0,0.0049
3013.0,0.0048
3012.0,0.0046
3011.0,0.0045
3010.0,0.0044
3009.0,0.0043
3008.0,0.0042
3007.0,0.0041
3006.0,0.004
3005.0,0.004
3004.0,0.004
3003.0,0.0039
3002.0,0.0039
3001.0,0.0038
3000.0,0.0038
2999.0,0.0037
2998.0,0.0036
2997.0,0.0035
2996.0,0.0034
2995.0,0.0034
2994.0,0.0035
2993.0,0.0035
2992.0,0.0035
2991.0,0.0035
2990.0,0.0034
2989.0,0.0034
2988.0,0.0034
2987.0,0.0035
2986.0,0.0035
2985.0,0.0035
2984.0,0.0035
2983.0,0.0035
2982.0,0.0037
2981.0,0.0038
2980.0,0.004
2979.0,0.0042
2978.0,0.0044
2977.0,0.0047
2976.0,0.005
2975.0,0.0054
2974.0,0.0058
2973.0,0.0063
2972.0,0.0069
2971.0,0.0076
2970.0,0.0084
2969.0,0.0092
2968.0,0.01
2967.0,0.0108
2966.0,0.0116
2965.0,0.0124
2964.0,0.0133
2963.0,0.0142
2962.0,0.015
2961.0,0.0158
2960.0,0.0165
2959.0,0.0172
2958.0,0.0177
2957.0,0.0181
2956.0,0.0185
2955.0,0.0188
2954.0,0.019
2953.0,0.0192
2952.0,0.0195
2951.0,0.0197
2950.0,0.0202
2949.0,0.0209
2948.0,0.0218
2947.0,0.0232
2946.0,0.0248
2945.0,0.0269
2944.0,0.0293
2943.0,0.0321
2942.0,0.0352
2941.0,0.0385
2940.0,0.0422
2939.0,0.0461
2938.0,0.0505
2937.0,0.0552
2936.0,0.0603
2935.0,0.0658
2934.0,0.0716
2933.0,0.078
2932.0,0.0847
2931.0,0.092
2930.0,0.0999
2929.0,0.1083
2928.0,0.1176
2927.0,0.1278
2926.0,0.139
2925.0,0.1515
2924.0,0.1654
2923.0,0.1806
2922.0,0.1973
2921.0,0.2152
2920.0,0.2336
2919.0,0.2515
2918.0,0.2668
2917.0,0.2772
2916.0,0.2807
2915.0,0.2765
2914.0,0.266
2913.0,0.2514
2912.0,0.2353
2911.0,0.2197
2910.0,0.2056
2909.0,0.1933
2908.0,0.1827
2907.0,0.1737
2906.0,0.1659
2905.0,0.1593
2904.0,0.1535
2903.0,0.1485
2902.0,0.1442
2901.0,0.1403
2900.0,0.1367
2899.0,0.1333
2898.0,0.1301
2897.0,0.1269
2896.0,0.1238
2895.0,0.1208
2894.0,0.1178
2893.0,0.1147
2892.0,0.1116
2891.0,0.1084
2890.0,0.1052
2889.0,0.1019
2888.0,0.0987
2887.0,0.0955
2886.0,0.0922
2885.0,0.0891
2884.0,0.086
2883.0,0.0831
2882.0,0.0802
2881.0,0.0773
2880.0,0.0745
2879.0,0.0717
2878.0,0.0692
2877.0,0.067
2876.0,0.065
2875.0,0.0633
2874.0,0.0619
2873.0,0.0606
2872.0,0.0594
2871.0,0.0583
2870.0,0.0575
2869.0,0.0568
2868.0,0.0564
2867.0,0.0564
2866.0,0.0569
2865.0,0.0581
2864.0,0.06
2863.0,0.0626
2862.0,0.0661
2861.0,0.0705
2860.0,0.076
2859.0,0.0829
2858.0,0.0915
2857.0,0.1019
2856.0,0.1145
2855.0,0.1298
2854.0,0.148
2853.0,0.1694
2852.0,0.1931
2851.0,0.217
2850.0,0.2368
2849.0,0.248
2848.0,0.2476
2847.0,0.2364
2846.0,0.2181
2845.0,0.1972
2844.0,0.1769
2843.0,0.1587
2842.0,0.1431
2841.0,0.1299
2840.0,0.1187
2839.0,0.1094
2838.0,0.1016
2837.0,0.0949
2836.0,0.0892
2835.0,0.0844
2834.0,0.0801
2833.0,0.0765
2832.0,0.0732
2831.0,0.0704
2830.0,0.0678
2829.0,0.0655
2828.0,0.0635
2827.0,0.0616
2826.0,0.0598
2825.0,0.0582
2824.0,0.0568
2823.0,0.0555
2822.0,0.0543
2821.0,0.0532
2820.0,0.0521
2819.0,0.0511
2818.0,0.0502
2817.0,0.0493
2816.0,0.0484
2815.0,0.0475
2814.0,0.0467
2813.0,0.046
2812.0,0.0453
2811.0,0.0447
2810.0,0.0441
2809.0,0.0436
2808.0,0.0431
2807.0,0.0425
2806.0,0.042
2805.0,0.0415
2804.0,0.041
2803.0,0.0405
2802.0,0.04
2801.0,0.0395
2800.0,0.039
2799.0,0.0385
2798.0,0.0382
2797.0,0.0378
2796.0,0.0374
2795.0,0.037
2794.0,0.0367
2793.0,0.0363
2792.0,0.036
2791.0,0.0356
2790.0,0.0352
2789.0,0.0349
2788.0,0.0345
2787.0,0.0342
2786.0,0.0338
2785.0,0.0334
2784.0,0.0331
2783.0,0.0328
2782.0,0.0325
2781.0,0.0322
2780.0,0.032
2779.0,0.0317
2778.0,0.0315
2777.0,0.0313
2776.0,0.0311
2775.0,0.0308
2774.0,0.0306
2773.0,0.0305
2772.0,0.0303
2771.0,0.03
2770.0,0.0298
2769.0,0.0296
2768.0,0.0293
2767.0,0.0291
2766.0,0.029
2765.0,0.0289
2764.0,0.0288
2763.0,0.0287
2762.0,0.0286
2761.0,0.0284
2760.0,0.0282
2759.0,0.0281
2758.0,0.0279
2757.0,0.0278
2756.0,0.0277
2755.0,0.0275
2754.0,0.0274
2753.0,0.0273
2752.0,0.0272
2751.0,0.0272
2750.0,0.0271
2749.0,0.027
2748.0,0.0269
2747.0,0.0269
2746.0,0.0268
2745.0,0.0267
2744.0,0.0266
2743.0,0.0264
2742.0,0.0263
2741.0,0.0262
2740.0,0.0262
2739.0,0.0262
2738.0,0.0261
2737.0,0.026
2736.0,0.0259
2735.0,0.0258
2734.0,0.0257
2733.0,0.0256
2732.0,0.0255
2731.0,0.0254
2730.0,0.0253
2729.0,0.0253
2728.0,0.0253
2727.0,0.0252
2726.0,0.0252
2725.0,0.025
2724.0,0.0249
2723.0,0.0247
2722.0,0.0246
2721.0,0.0245
2720.0,0.0245
2719.0,0.0244
2718.0,0.0243
2717.0,0.0243
2716.0,0.0243
2715.0,0.0242
2714.0,0.0241
2713.0,0.024
2712.0,0.0239
2711.0,0.0238
2710.0,0.0237
2709.0,0.0237
2708.0,0.0237
2707.0,0.0236
2706.0,0.0236
2705.0,0.0235
2704.0,0.0234
2703.0,0.0233
2702.0,0.0231
2701.0,0.023
2700.0,0.023
2699.0,0.023
2698.0,0.0229
2697.0,0.0229
2696.0,0.0229
2695.0,0.0228
2694.0,0.0228
2693.0,0.0227
2692.0,0.0228
2691.0,0.0228
2690.0,0.0227
2689.0,0.0227
2688.0,0.0226
2687.0,0.0225
2686.0,0.0225
2685.0,0.0225
2684.0,0.0225
2683.0,0.0225
2682.0,0.0225
2681.0,0.0225
2680.0,0.0225
2679.0,0.0224
2678.0,0.0224
2677.0,0.0224
2676.0,0.0225
2675.0,0.0226
2674.0,0.0226
2673.0,0.0226
2672.0,0.0225
2671.0,0.0224
2670.0,0.0224
2669.0,0.0224
2668.0,0.0225
2667.0,0.0225
2666.0,0.0225
2665.0,0.0225
2664.0,0.0224
2663.0,0.0223
2662.0,0.0222
2661.0,0.0222
2660.0,0.0221
2659.0,0.0221
2658.0,0.0221
2657.0,0.022
2656.0,0.022
2655.0,0.0219
2654.0,0.0219
2653.0,0.0219
2652.0,0.0219
2651.0,0.0218
2650.0,0.0218
2649.0,0.0217
2648.0,0.0217
2647.0,0.0217
2646.0,0.0217
2645.0,0.0217
2644.0,0.0217
2643.0,0.0216
2642.0,0.0216
2641.0,0.0216
2640.0,0.0216
2639.0,0.0216
2638.0,0.0216
2637.0,0.0216
2636.0,0.0216
2635.0,0.0216
2634.0,0.0216
2633.0,0.0215
2632.0,0.0215
2631.0,0.0214
2630.0,0.0213
2629.0,0.0212
2628.0,0.0212
2627.0,0.0211
2626.0,0.0211
2625.0,0.021
2624.0,0.0209
2623.0,0.0208
2622.0,0.0208
2621.0,0.0207
2620.0,0.0207
2619.0,0.0207
2618.0,0.0206
2617.0,0.0205
2616.0,0.0205
2615.0,0.0204
2614.0,0.0204
2613.0,0.0203
2612.0,0.0202
2611.0,0.0202
2610.0,0.0202
2609.0,0.0201
2608.0,0.0201
2607.0,0.02
2606.0,0.02
2605.0,0.0199
2604.0,0.0198
2603.0,0.0197
2602.0,0.0196
2601.0,0.0196
2600.0,0.0196
2599.0,0.0196
2598.0,0.0196
2597.0,0.0196
2596.0,0.0196
2595.0,0.0195
2594.0,0.0194
2593.0,0.0194
2592.0,0.0194
2591.0,0.0193
2590.0,0.0192
2589.0,0.0192
2588.0,0.0191
2587.0,0.019
2586.0,0.019
2585.0,0.019
2584.0,0.0189
2583.0,0.0189
2582.0,0.0189
2581.0,0.0188
2580.0,0.0188
2579.0,0.0188
2578.0,0.0188
2577.0,0.0187
2576.0,0.0187
2575.0,0.0186
2574.0,0.0186
2573.0,0.0186
2572.0,0.0186
2571.0,0.0185
2570.0,0.0184
2569.0,0.0184
2568.0,0.0183
2567.0,0.0183
2566.0,0.0182
2565.0,0.0182
2564.0,0.0181
2563.0,0.0181
2562.0,0.0181
2561.0,0.0181
2560.0,0.0181
2559.0,0.0181
2558.0,0.0181
2557.0,0.0181
2556.0,0.018
2555.0,0.018
2554.0,0.0179
2553.0,0.0178
2552.0,0.0178
2551.0,0.0178
2550.0,0.0179
2549.0,0.0179
2548.0,0.0179
2547.0,0.0179
2546.0,0.0178
2545.0,0.0178
2544.0,0.0177
2543.0,0.0176
2542.0,0.0175
2541.0,0.0174
2540.0,0.0173
2539.0,0.0173
2538.0,0.0173
2537.0,0.0173
2536.0,0.0173
2535.0,0.0174
2534.0,0.0174
2533.0,0.0174
2532.0,0.0173
2531.0,0.0173
2530.0,0.0173
2529.0,0.0173
2528.0,0.0173
2527.0,0.0172
2526.0,0.0172
2525.0,0.0171
2524.0,0.0171
2523.0,0.0171
2522.0,0.0172
2521.0,0.0171
2520.0,0.0171
2519.0,0.017
2518.0,0.0169
2517.0,0.0169
2516.0,0.0169
2515.0,0.017
2514.0,0.0169
2513.0,0.0168
2512.0,0.0167
2511.0,0.0167
2510.0,0.0166
2509.0,0.0167
2508.0,0.0167
2507.0,0.0168
2506.0,0.0167
2505.0,0.0167
2504.0,0.0166
2503.0,0.0166
2502.0,0.0166
2501.0,0.0167
2500.0,0.0167
2499.0,0.0167
2498.0,0.0166
2497.0,0.0166
2496.0,0.0165
2495.0,0.0165
2494.0,0.0165
2493.0,0.0166
2492.0,0.0166
2491.0,0.0166
2490.0,0.0166
2489.0,0.0166
2488.0,0.0165
2487.0,0.0165
2486.0,0.0164
2485.0,0.0164
2484.0,0.0163
2483.0,0.0162
2482.0,0.0162
2481.0,0.0162
2480.0,0.0162
2479.0,0.0162
2478.0,0.0162
2477.0,0.0163
2476.0,0.0163
2475.0,0.0163
2474.0,0.0163
2473.0,0.0162
2472.0,0.0162
2471.0,0.0162
2470.0,0.0162
2469.0,0.0162
2468.0,0.0161
2467.0,0.0159
2466.0,0.0159
2465.0,0.0158
2464.0,0.0159
2463.0,0.0159
2462.0,0.0159
2461.0,0.016
2460.0,0.016
2459.0,0.016
2458.0,0.0159
2457.0,0.0158
2456.0,0.0157
2455.0,0.0157
2454.0,0.0157
2453.0,0.0158
2452.0,0.0158
2451.0,0.0159
2450.0,0.0159
2449.0,0.0158
2448.0,0.0158
2447.0,0.0157
2446.0,0.0157
2445.0,0.0157
2444.0,0.0157
2443.0,0.0158
2442.0,0.0158
2441.0,0.0158
2440.0,0.0158
2439.0,0.0158
2438.0,0.0158
2437.0,0.0157
2436.0,0.0157
2435.0,0.0157
2434.0,0.0157
2433.0,0.0157
2432.0,0.0157
2431.0,0.0157
2430.0,0.0157
2429.0,0.0157
2428.0,0.0157
2427.0,0.0157
2426.0,0.0157
2425.0,0.0156
2424.0,0.0156
2423.0,0.0156
2422.0,0.0156
2421.0,0.0156
2420.0,0.0156
2419.0,0.0156
2418.0,0.0156
2417.0,0.0156
2416.0,0.0155
2415.0,0.0155
2414.0,0.0155
2413.0,0.0155
2412.0,0.0156
2411.0,0.0156
2410.0,0.0156
2409.0,0.0155
2408.0,0.0155
2407.0,0.0155
2406.0,0.0155
2405.0,0.0155
2404.0,0.0155
2403.0,0.0155
2402.0,0.0155
2401.0,0.0155
2400.0,0.0154
2399.0,0.0154
2398.0,0.0154
2397.0,0.0154
2396.0,0.0153
2395.0,0.0153
2394.0,0.0153
2393.0,0.0154
2392.0,0.0154
2391.0,0.0155
2390.0,0.0156
2389.0,0.0158
2388.0,0.0159
2387.0,0.016
2386.0,0.016
2385.0,0.0159
2384.0,0.0157
2383.0,0.0153
2382.0,0.0146
2381.0,0.0138
2380.0,0.0131
2379.0,0.0126
2378.0,0.0123
2377.0,0.0123
2376.0,0.0125
2375.0,0.0129
2374.0,0.0135
2373.0,0.0141
2372.0,0.0147
2371.0,0.015
2370.0,0.015
2369.0,0.0152
2368.0,0.0157
2367.0,0.0163
2366.0,0.0161
2365.0,0.0149
2364.0,0.0135
2363.0,0.0129
2362.0,0.0136
2361.0,0.0149
2360.0,0.0159
2359.0,0.0161
2358.0,0.0155
2357.0,0.0147
2356.0,0.0146
2355.0,0.0153
2354.0,0.0156
2353.0,0.0147
2352.0,0.0134
2351.0,0.0125
2350.0,0.0124
2349.0,0.0133
2348.0,0.0151
2347.0,0.0173
2346.0,0.0193
2345.0,0.0204
2344.0,0.0205
2343.0,0.0199
2342.0,0.0184
2341.0,0.0166
2340.0,0.0156
2339.0,0.0156
2338.0,0.0159
2337.0,0.0157
2336.0,0.0155
2335.0,0.0151
2334.0,0.0144
2333.0,0.013
2332.0,0.0116
2331.0,0.0108
2330.0,0.0113
2329.0,0.0124
2328.0,0.0137
2327.0,0.0145
2326.0,0.0146
2325.0,0.0141
2324.0,0.0131
2323.0,0.0122
2322.0,0.0116
2321.0,0.0115
2320.0,0.0121
2319.0,0.013
2318.0,0.0139
2317.0,0.0145
2316.0,0.0147
2315.0,0.0144
2314.0,0.0142
2313.0,0.014
2312.0,0.0142
2311.0,0.0144
2310.0,0.0145
2309.0,0.0145
2308.0,0.0145
2307.0,0.0144
2306.0,0.0144
2305.0,0.0145
2304.0,0.0148
2303.0,0.0153
2302.0,0.0158
2301.0,0.0161
2300.0,0.0163
2299.0,0.0164
2298.0,0.0166
2297.0,0.0167
2296.0,0.0167
2295.0,0.0167
2294.0,0.0166
2293.0,0.0164
2292.0,0.0163
2291.0,0.0161
2290.0,0.016
2289.0,0.0159
2288.0,0.0158
2287.0,0.0156
2286.0,0.0155
2285.0,0.0153
2284.0,0.0153
2283.0,0.0153
2282.0,0.0153
2281.0,0.0155
2280.0,0.0155
2279.0,0.0155
2278.0,0.0155
2277.0,0.0154
2276.0,0.0153
2275.0,0.0153
2274.0,0.0153
2273.0,0.0154
2272.0,0.0154
2271.0,0.0154
2270.0,0.0153
2269.0,0.0152
2268.0,0.0152
2267.0,0.0151
2266.0,0.0151
2265.0,0.0151
2264.0,0.0151
2263.0,0.0151
2262.0,0.015
2261.0,0.015
2260.0,0.015
2259.0,0.015
2258.0,0.015
2257.0,0.015
2256.0,0.0149
2255.0,0.0149
2254.0,0.0149
2253.0,0.0149
2252.0,0.0148
2251.0,0.0148
2250.0,0.0147
2249.0,0.0147
2248.0,0.0147
2247.0,0.0146
2246.0,0.0146
2245.0,0.0146
2244.0,0.0147
2243.0,0.0147
2242.0,0.0147
2241.0,0.0146
2240.0,0.0145
2239.0,0.0144
2238.0,0.0144
2237.0,0.0144
2236.0,0.0144
2235.0,0.0143
2234.0,0.0143
2233.0,0.0143
2232.0,0.0143
2231.0,0.0143
2230.0,0.0142
2229.0,0.0142
2228.0,0.0142
2227.0,0.0142
2226.0,0.0143
2225.0,0.0143
2224.0,0.0143
2223.0,0.0143
2222.0,0.0142
2221.0,0.0142
2220.0,0.0142
2219.0,0.0142
2218.0,0.0142
2217.0,0.0142
2216.0,0.0142
2215.0,0.0142
2214.0,0.0141
2213.0,0.0141
2212.0,0.0141
2211.0,0.0141
2210.0,0.0141
2209.0,0.0142
2208.0,0.0142
2207.0,0.0142
2206.0,0.0142
2205.0,0.0142
2204.0,0.0142
2203.0,0.0142
2202.0,0.0141
2201.0,0.0141
2200.0,0.0141
2199.0,0.0141
2198.0,0.0141
2197.0,0.0141
2196.0,0.0141
2195.0,0.0141
2194.0,0.0141
2193.0,0.0142
2192.0,0.0142
2191.0,0.0142
2190.0,0.0142
2189.0,0.0142
2188.0,0.0141
2187.0,0.0141
2186.0,0.0141
2185.0,0.0141
2184.0,0.0141
2183.0,0.0141
2182.0,0.0141
2181.0,0.0141
2180.0,0.0142
2179.0,0.0141
2178.0,0.0141
2177.0,0.0141
2176.0,0.0141
2175.0,0.0141
2174.0,0.0141
2173.0,0.0141
2172.0,0.0141
2171.0,0.0141
2170.0,0.014
2169.0,0.014
2168.0,0.014
2167.0,0.014
2166.0,0.0141
2165.0,0.0141
2164.0,0.0141
2163.0,0.0142
2162.0,0.0142
2161.0,0.0141
2160.0,0.0141
2159.0,0.0141
2158.0,0.0141
2157.0,0.0142
2156.0,0.0142
2155.0,0.0142
2154.0,0.0142
2153.0,0.0142
2152.0,0.0142
2151.0,0.0142
2150.0,0.0142
2149.0,0.0141
2148.0,0.0142
2147.0,0.0142
2146.0,0.0142
2145.0,0.0142
2144.0,0.0142
2143.0,0.0142
2142.0,0.0141
2141.0,0.014
2140.0,0.014
2139.0,0.0139
2138.0,0.0139
2137.0,0.014
2136.0,0.014
2135.0,0.0141
2134.0,0.0141
2133.0,0.0141
2132.0,0.0141
2131.0,0.0141
2130.0,0.014
2129.0,0.014
2128.0,0.0139
2127.0,0.0138
2126.0,0.0138
2125.0,0.0139
2124.0,0.0139
2123.0,0.0139
2122.0,0.0139
2121.0,0.0139
2120.0,0.0139
2119.0,0.014
2118.0,0.014
2117.0,0.014
2116.0,0.014
2115.0,0.014
2114.0,0.014
2113.0,0.014
2112.0,0.0139
2111.0,0.0139
2110.0,0.0139
2109.0,0.0138
2108.0,0.0138
2107.0,0.0138
2106.0,0.0138
2105.0,0.0138
2104.0,0.0137
2103.0,0.0137
2102.0,0.0138
2101.0,0.0138
2100.0,0.0138
2099.0,0.0138
2098.0,0.0138
2097.0,0.0138
2096.0,0.0138
2095.0,0.0138
2094.0,0.0137
2093.0,0.0137
2092.0,0.0137
2091.0,0.0137
2090.0,0.0137
2089.0,0.0138
2088.0,0.0138
2087.0,0.0138
2086.0,0.0138
2085.0,0.0138
2084.0,0.0138
2083.0,0.0138
2082.0,0.0138
2081.0,0.0139
2080.0,0.0139
2079.0,0.0139
2078.0,0.0139
2077.0,0.0139
2076.0,0.0138
2075.0,0.0138
2074.0,0.0138
2073.0,0.0138
2072.0,0.0139
2071.0,0.0139
2070.0,0.0139
2069.0,0.014
2068.0,0.0139
2067.0,0.0139
2066.0,0.0138
2065.0,0.0138
2064.0,0.0138
2063.0,0.0139
2062.0,0.0139
2061.0,0.0139
2060.0,0.0139
2059.0,0.014
2058.0,0.014
2057.0,0.014
2056.0,0.0139
2055.0,0.0139
2054.0,0.0139
2053.0,0.0139
2052.0,0.014
2051.0,0.014
2050.0,0.0139
2049.0,0.0139
2048.0,0.0139
2047.0,0.0139
2046.0,0.0139
2045.0,0.0139
2044.0,0.014
2043.0,0.014
2042.0,0.014
2041.0,0.014
2040.0,0.014
2039.0,0.014
2038.0,0.014
2037.0,0.014
2036.0,0.014
2035.0,0.0141
2034.0,0.0141
2033.0,0.0141
2032.0,0.0141
2031.0,0.0141
2030.0,0.0141
2029.0,0.0141
2028.0,0.0141
2027.0,0.0141
2026.0,0.0141
2025.0,0.0141
2024.0,0.0141
2023.0,0.0142
2022.0,0.0142
2021.0,0.0143
2020.0,0.0143
2019.0,0.0143
2018.0,0.0143
2017.0,0.0143
2016.0,0.0143
2015.0,0.0143
2014.0,0.0143
2013.0,0.0142
2012.0,0.0142
2011.0,0.0141
2010.0,0.014
2009.0,0.014
2008.0,0.0139
2007.0,0.0139
2006.0,0.0139
2005.0,0.0139
2004.0,0.0139
2003.0,0.014
2002.0,0.014
2001.0,0.014
2000.0,0.0139
1999.0,0.0139
1998.0,0.0139
1997.0,0.014
1996.0,0.014
1995.0,0.014
1994.0,0.0139
1993.0,0.0139
1992.0,0.0138
1991.0,0.0138
1990.0,0.0138
1989.0,0.0138
1988.0,0.0139
1987.0,0.0139
1986.0,0.0138
1985.0,0.0138
1984.0,0.0138
1983.0,0.0138
1982.0,0.0138
1981.0,0.0137
1980.0,0.0137
1979.0,0.0137
1978.0,0.0137
1977.0,0.0137
1976.0,0.0138
1975.0,0.0138
1974.0,0.0138
1973.0,0.0138
1972.0,0.0139
1971.0,0.0139
1970.0,0.0139
1969.0,0.0139
1968.0,0.0138
1967.0,0.0138
1966.0,0.0137
1965.0,0.0137
1964.0,0.0137
1963.0,0.0137
1962.0,0.0137
1961.0,0.0138
1960.0,0.0138
1959.0,0.0138
1958.0,0.0137
1957.0,0.0137
1956.0,0.0137
1955.0,0.0138
1954.0,0.0139
1953.0,0.0139
1952.0,0.0139
1951.0,0.0139
1950.0,0.0138
1949.0,0.0138
1948.0,0.0138
1947.0,0.0138
1946.0,0.0139
1945.0,0.0139
1944.0,0.0139
1943.0,0.0139
1942.0,0.0139
1941.0,0.0138
1940.0,0.0138
1939.0,0.0138
1938.0,0.0138
1937.0,0.0138
1936.0,0.0138
1935.0,0.0138
1934.0,0.0138
1933.0,0.0138
1932.0,0.0138
1931.0,0.0139
1930.0,0.0139
1929.0,0.014
1928.0,0.0139
1927.0,0.0139
1926.0,0.0138
1925.0,0.0138
1924.0,0.0138
1923.0,0.0137
1922.0,0.0137
1921.0,0.0137
1920.0,0.0137
1919.0,0.0137
1918.0,0.0138
1917.0,0.0138
1916.0,0.0139
1915.0,0.0139
1914.0,0.0139
1913.0,0.0139
1912.0,0.0139
1911.0,0.0139
1910.0,0.0138
1909.0,0.0139
1908.0,0.0139
1907.0,0.014
1906.0,0.0141
1905.0,0.0142
1904.0,0.0142
1903.0,0.0142
1902.0,0.0142
1901.0,0.0142
1900.0,0.0141
1899.0,0.0141
1898.0,0.0141
1897.0,0.0141
1896.0,0.0141
1895.0,0.0141
1894.0,0.0141
1893.0,0.0141
1892.0,0.0141
1891.0,0.0141
1890.0,0.0141
1889.0,0.0141
1888.0,0.0141
1887.0,0.0141
1886.0,0.014
1885.0,0.014
1884.0,0.0139
1883.0,0.0138
1882.0,0.0138
1881.0,0.0138
1880.0,0.0138
1879.0,0.0138
1878.0,0.0138
1877.0,0.0138
1876.0,0.0137
1875.0,0.0137
1874.0,0.0137
1873.0,0.0138
1872.0,0.0138
1871.0,0.0138
1870.0,0.0138
1869.0,0.0137
1868.0,0.0137
1867.0,0.0137
1866.0,0.0137
1865.0,0.0138
1864.0,0.0139
1863.0,0.0139
1862.0,0.0138
1861.0,0.0138
1860.0,0.0138
1859.0,0.0137
1858.0,0.0137
1857.0,0.0137
1856.0,0.0137
1855.0,0.0137
1854.0,0.0137
1853.0,0.0137
1852.0,0.0137
1851.0,0.0137
1850.0,0.0137
1849.0,0.0137
1848.0,0.0137
1847.0,0.0136
1846.0,0.0136
1845.0,0.0135
1844.0,0.0136
1843.0,0.0136
1842.0,0.0137
1841.0,0.0137
1840.0,0.0137
1839.0,0.0137
1838.0,0.0137
1837.0,0.0136
1836.0,0.0136
1835.0,0.0136
1834.0,0.0136
1833.0,0.0136
1832.0,0.0136
1831.0,0.0136
1830.0,0.0137
1829.0,0.0137
1828.0,0.0138
1827.0,0.0138
1826.0,0.0138
1825.0,0.0138
1824.0,0.0138
1823.0,0.0138
1822.0,0.0137
1821.0,0.0137
1820.0,0.0137
1819.0,0.0137
1818.0,0.0137
1817.0,0.0138
1816.0,0.0138
1815.0,0.0138
1814.0,0.0138
1813.0,0.0138
1812.0,0.0138
1811.0,0.0138
1810.0,0.0138
1809.0,0.0138
1808.0,0.0138
1807.0,0.0138
1806.0,0.0138
1805.0,0.0138
1804.0,0.0138
1803.0,0.0138
1802.0,0.0138
1801.0,0.0139
1800.0,0.0139
1799.0,0.0139
1798.0,0.0138
1797.0,0.0138
1796.0,0.0137
1795.0,0.0137
1794.0,0.0136
1793.0,0.0135
1792.0,0.0135
1791.0,0.0135
1790.0,0.0136
1789.0,0.0136
1788.0,0.0136
1787.0,0.0136
1786.0,0.0136
1785.0,0.0137
1784.0,0.0137
1783.0,0.0137
1782.0,0.0137
1781.0,0.0137
1780.0,0.0137
1779.0,0.0138
1778.0,0.0138
1777.0,0.0138
1776.0,0.0139
1775.0,0.0139
1774.0,0.0138
1773.0,0.0137
1772.0,0.0137
1771.0,0.0137
1770.0,0.0137
1769.0,0.0138
1768.0,0.0138
1767.0,0.0139
1766.0,0.0139
1765.0,0.014
1764.0,0.014
1763.0,0.0139
1762.0,0.0139
1761.0,0.0139
1760.0,0.0139
1759.0,0.0139
1758.0,0.014
1757.0,0.014
1756.0,0.014
1755.0,0.014
1754.0,0.014
1753.0,0.014
1752.0,0.014
1751.0,0.0141
1750.0,0.0141
1749.0,0.0142
1748.0,0.0142
1747.0,0.0143
1746.0,0.0144
1745.0,0.0145
1744.0,0.0146
1743.0,0.0147
1742.0,0.0147
1741.0,0.0147
1740.0,0.0147
1739.0,0.0147
1738.0,0.0146
1737.0,0.0146
1736.0,0.0145
1735.0,0.0144
1734.0,0.0144
1733.0,0.0146
1732.0,0.0148
1731.0,0.0149
1730.0,0.0151
1729.0,0.0151
1728.0,0.0152
1727.0,0.0153
1726.0,0.0154
1725.0,0.0155
1724.0,0.0156
1723.0,0.0157
1722.0,0.0158
1721.0,0.0159
1720.0,0.016
1719.0,0.016
1718.0,0.0159
1717.0,0.0159
1716.0,0.0159
1715.0,0.0159
1714.0,0.0159
1713.0,0.0159
1712.0,0.0159
1711.0,0.0158
1710.0,0.0157
1709.0,0.0156
1708.0,0.0156
1707.0,0.0155
1706.0,0.0155
1705.0,0.0155
1704.0,0.0155
1703.0,0.0154
1702.0,0.0153
1701.0,0.0152
1700.0,0.0152
1699.0,0.0152
1698.0,0.0152
1697.0,0.0153
1696.0,0.0155
1695.0,0.0155
1694.0,0.0155
1693.0,0.0155
1692.0,0.0156
1691.0,0.0156
1690.0,0.0156
1689.0,0.0156
1688.0,0.0157
1687.0,0.0157
1686.0,0.0158
1685.0,0.0159
1684.0,0.0161
1683.0,0.016
1682.0,0.016
1681.0,0.0161
1680.0,0.0163
1679.0,0.0163
1678.0,0.0163
1677.0,0.0162
1676.0,0.0161
1675.0,0.0161
1674.0,0.0161
1673.0,0.0162
1672.0,0.0162
1671.0,0.0163
1670.0,0.0164
1669.0,0.0166
1668.0,0.0168
1667.0,0.0168
1666.0,0.0169
1665.0,0.0169
1664.0,0.0168
1663.0,0.0168
1662.0,0.0169
1661.0,0.017
1660.0,0.0171
1659.0,0.0171
1658.0,0.0171
1657.0,0.0171
1656.0,0.0171
1655.0,0.0172
1654.0,0.0173
1653.0,0.0175
1652.0,0.0174
1651.0,0.0172
1650.0,0.0172
1649.0,0.0171
1648.0,0.0171
1647.0,0.0172
1646.0,0.0173
1645.0,0.0173
1644.0,0.0173
1643.0,0.0172
1642.0,0.0172
1641.0,0.0171
1640.0,0.0171
1639.0,0.0171
1638.0,0.0171
1637.0,0.0172
1636.0,0.0172
1635.0,0.0172
1634.0,0.0172
1633.0,0.0171
1632.0,0.0171
1631.0,0.0171
1630.0,0.0171
1629.0,0.0171
1628.0,0.0171
1627.0,0.017
1626.0,0.0169
1625.0,0.0168
1624.0,0.0168
1623.0,0.0168
1622.0,0.0168
1621.0,0.0168
1620.0,0.0168
1619.0,0.0168
1618.0,0.0167
1617.0,0.0166
1616.0,0.0166
1615.0,0.0165
1614.0,0.0165
1613.0,0.0165
1612.0,0.0165
1611.0,0.0165
1610.0,0.0165
1609.0,0.0165
1608.0,0.0165
1607.0,0.0164
1606.0,0.0164
1605.0,0.0164
1604.0,0.0164
1603.0,0.0163
1602.0,0.0163
1601.0,0.0163
1600.0,0.0163
1599.0,0.0163
1598.0,0.0162
1597.0,0.0162
1596.0,0.0162
1595.0,0.0162
1594.0,0.0161
1593.0,0.0161
1592.0,0.016
1591.0,0.016
1590.0,0.016
1589.0,0.016
1588.0,0.0161
1587.0,0.0161
1586.0,0.016
1585.0,0.016
1584.0,0.016
1583.0,0.016
1582.0,0.016
1581.0,0.016
1580.0,0.016
1579.0,0.0159
1578.0,0.0157
1577.0,0.0156
1576.0,0.0156
1575.0,0.0156
1574.0,0.0157
1573.0,0.0157
1572.0,0.0157
1571.0,0.0156
1570.0,0.0155
1569.0,0.0156
1568.0,0.0156
1567.0,0.0156
1566.0,0.0155
1565.0,0.0155
1564.0,0.0155
1563.0,0.0155
1562.0,0.0156
1561.0,0.0157
1560.0,0.0158
1559.0,0.0157
1558.0,0.0155
1557.0,0.0152
1556.0,0.0152
1555.0,0.0152
1554.0,0.0153
1553.0,0.0154
1552.0,0.0154
1551.0,0.0155
1550.0,0.0155
1549.0,0.0156
1548.0,0.0156
1547.0,0.0156
1546.0,0.0154
1545.0,0.0153
1544.0,0.0151
1543.0,0.0148
1542.0,0.0146
1541.0,0.0147
1540.0,0.015
1539.0,0.0151
1538.0,0.015
1537.0,0.015
1536.0,0.015
1535.0,0.015
1534.0,0.0149
1533.0,0.0149
1532.0,0.0149
1531.0,0.0148
1530.0,0.0147
1529.0,0.0147
1528.0,0.0147
1527.0,0.0146
1526.0,0.0144
1525.0,0.0143
1524.0,0.0144
1523.0,0.0144
1522.0,0.0144
1521.0,0.0147
1520.0,0.0148
1519.0,0.0146
1518.0,0.0144
1517.0,0.0144
1516.0,0.0143
1515.0,0.0142
1514.0,0.0141
1513.0,0.0141
1512.0,0.0141
1511.0,0.0141
1510.0,0.0141
1509.0,0.0142
1508.0,0.0144
1507.0,0.0143
1506.0,0.0141
1505.0,0.014
1504.0,0.014
1503.0,0.0139
1502.0,0.0138
1501.0,0.0137
1500.0,0.0137
1499.0,0.0136
1498.0,0.0135
1497.0,0.0137
1496.0,0.0138
1495.0,0.0137
1494.0,0.0136
1493.0,0.0137
1492.0,0.0138
1491.0,0.0137
1490.0,0.0135
1489.0,0.0136
1488.0,0.0136
1487.0,0.0135
1486.0,0.0134
1485.0,0.0135
1484.0,0.0137
1483.0,0.0138
1482.0,0.014
1481.0,0.0146
1480.0,0.0154
1479.0,0.0166
1478.0,0.0193
1477.0,0.0251
1476.0,0.0344
1475.0,0.0468
1474.0,0.0612
1473.0,0.0739
1472.0,0.0788
1471.0,0.0777
1470.0,0.0761
1469.0,0.0759
1468.0,0.0768
1467.0,0.0792
1466.0,0.0847
1465.0,0.0933
1464.0,0.1007
1463.0,0.1027
1462.0,0.0994
1461.0,0.0927
1460.0,0.0841
1459.0,0.0751
1458.0,0.0669
1457.0,0.061
1456.0,0.0575
1455.0,0.055
1454.0,0.0528
1453.0,0.0503
1452.0,0.0477
1451.0,0.0455
1450.0,0.0437
1449.0,0.0422
1448.0,0.0409
1447.0,0.0399
1446.0,0.0392
1445.0,0.0385
1444.0,0.0378
1443.0,0.0372
1442.0,0.0367
1441.0,0.0361
1440.0,0.0355
1439.0,0.0348
1438.0,0.0342
1437.0,0.0334
1436.0,0.0327
1435.0,0.032
1434.0,0.0314
1433.0,0.0307
1432.0,0.0298
1431.0,0.0289
1430.0,0.0281
1429.0,0.0273
1428.0,0.0266
1427.0,0.026
1426.0,0.0255
1425.0,0.0249
1424.0,0.0243
1423.0,0.0239
1422.0,0.0236
1421.0,0.0232
1420.0,0.0228
1419.0,0.0227
1418.0,0.0226
1417.0,0.0225
1416.0,0.0224
1415.0,0.0222
1414.0,0.0221
1413.0,0.0219
1412.0,0.0217
1411.0,0.0215
1410.0,0.0214
1409.0,0.0213
1408.0,0.0211
1407.0,0.021
1406.0,0.0209
1405.0,0.0207
1404.0,0.0206
1403.0,0.0205
1402.0,0.0203
1401.0,0.0202
1400.0,0.02
1399.0,0.02
1398.0,0.02
1397.0,0.02
1396.0,0.02
1395.0,0.0199
1394.0,0.0199
1393.0,0.0199
1392.0,0.0198
1391.0,0.0199
1390.0,0.0199
1389.0,0.0199
1388.0,0.0199
1387.0,0.0201
1386.0,0.0203
1385.0,0.0207
1384.0,0.0211
1383.0,0.0218
1382.0,0.0227
1381.0,0.0237
1380.0,0.0248
1379.0,0.0257
1378.0,0.0262
1377.0,0.0262
1376.0,0.026
1375.0,0.0257
1374.0,0.0255
1373.0,0.0254
1372.0,0.0254
1371.0,0.0254
1370.0,0.0256
1369.0,0.0257
1368.0,0.0256
1367.0,0.0255
1366.0,0.0254
1365.0,0.0251
1364.0,0.0248
1363.0,0.0246
1362.0,0.0244
1361.0,0.0241
1360.0,0.0238
1359.0,0.0236
1358.0,0.0235
1357.0,0.0234
1356.0,0.0235
1355.0,0.0235
1354.0,0.0236
1353.0,0.0237
1352.0,0.0236
1351.0,0.0235
1350.0,0.0234
1349.0,0.0233
1348.0,0.0231
1347.0,0.023
1346.0,0.0229
1345.0,0.0227
1344.0,0.0226
1343.0,0.0224
1342.0,0.0223
1341.0,0.0222
1340.0,0.0221
1339.0,0.022
1338.0,0.0218
1337.0,0.0216
1336.0,0.0213
1335.0,0.0212
1334.0,0.021
1333.0,0.0209
1332.0,0.0207
1331.0,0.0207
1330.0,0.0206
1329.0,0.0206
1328.0,0.0205
1327.0,0.0205
1326.0,0.0206
1325.0,0.0206
1324.0,0.0206
1323.0,0.0207
1322.0,0.0208
1321.0,0.0209
1320.0,0.0209
1319.0,0.021
1318.0,0.0211
1317.0,0.0213
1316.0,0.0214
1315.0,0.0215
1314.0,0.0216
1313.0,0.0218
1312.0,0.0219
1311.0,0.022
1310.0,0.0221
1309.0,0.0221
1308.0,0.0222
1307.0,0.0223
1306.0,0.0223
1305.0,0.0224
1304.0,0.0224
1303.0,0.0224
1302.0,0.0224
1301.0,0.0224
1300.0,0.0224
1299.0,0.0224
1298.0,0.0224
1297.0,0.0223
1296.0,0.0223
1295.0,0.0222
1294.0,0.0221
1293.0,0.022
1292.0,0.0219
1291.0,0.0218
1290.0,0.0218
1289.0,0.0217
1288.0,0.0216
1287.0,0.0215
1286.0,0.0214
1285.0,0.0214
1284.0,0.0213
1283.0,0.0213
1282.0,0.0213
1281.0,0.0212
1280.0,0.0212
1279.0,0.0212
1278.0,0.0212
1277.0,0.0212
1276.0,0.0212
1275.0,0.0211
1274.0,0.0211
1273.0,0.0211
1272.0,0.0211
1271.0,0.0211
1270.0,0.0211
1269.0,0.0211
1268.0,0.0212
1267.0,0.0212
1266.0,0.0213
1265.0,0.0213
1264.0,0.0213
1263.0,0.0213
1262.0,0.0212
1261.0,0.0212
1260.0,0.0212
1259.0,0.0212
1258.0,0.0212
1257.0,0.0211
1256.0,0.0211
1255.0,0.021
1254.0,0.021
1253.0,0.0209
1252.0,0.0208
1251.0,0.0208
1250.0,0.0208
1249.0,0.0208
1248.0,0.0209
1247.0,0.0209
1246.0,0.0209
1245.0,0.0209
1244.0,0.0208
1243.0,0.0208
1242.0,0.0207
1241.0,0.0207
1240.0,0.0207
1239.0,0.0208
1238.0,0.0208
1237.0,0.0208
1236.0,0.0208
1235.0,0.0208
1234.0,0.0208
1233.0,0.0208
1232.0,0.0208
1231.0,0.0208
1230.0,0.0208
1229.0,0.0208
1228.0,0.0209
1227.0,0.0209
1226.0,0.0209
1225.0,0.0209
1224.0,0.0209
1223.0,0.0209
1222.0,0.0209
1221.0,0.0209
1220.0,0.0209
1219.0,0.0209
1218.0,0.021
1217.0,0.021
1216.0,0.0211
1215.0,0.0212
1214.0,0.0213
1213.0,0.0213
1212.0,0.0214
1211.0,0.0215
1210.0,0.0216
1209.0,0.0216
1208.0,0.0217
1207.0,0.0218
1206.0,0.0219
1205.0,0.0219
1204.0,0.022
1203.0,0.022
1202.0,0.0221
1201.0,0.0221
1200.0,0.0222
1199.0,0.0223
1198.0,0.0224
1197.0,0.0225
1196.0,0.0226
1195.0,0.0227
1194.0,0.0228
1193.0,0.0229
1192.0,0.023
1191.0,0.0231
1190.0,0.0232
1189.0,0.0233
1188.0,0.0234
1187.0,0.0235
1186.0,0.0236
1185.0,0.0236
1184.0,0.0237
1183.0,0.0238
1182.0,0.0239
1181.0,0.024
1180.0,0.0241
1179.0,0.0242
1178.0,0.0244
1177.0,0.0244
1176.0,0.0245
1175.0,0.0245
1174.0,0.0246
1173.0,0.0246
1172.0,0.0247
1171.0,0.0248
1170.0,0.0249
1169.0,0.0249
1168.0,0.025
1167.0,0.025
1166.0,0.0251
1165.0,0.0252
1164.0,0.0253
1163.0,0.0253
1162.0,0.0253
1161.0,0.0254
1160.0,0.0255
1159.0,0.0256
1158.0,0.0256
1157.0,0.0255
1156.0,0.0255
1155.0,0.0256
1154.0,0.0257
1153.0,0.0259
1152.0,0.0259
1151.0,0.0259
1150.0,0.0259
1149.0,0.0259
1148.0,0.026
1147.0,0.0261
1146.0,0.0262
1145.0,0.0263
1144.0,0.0263
1143.0,0.0263
1142.0,0.0263
1141.0,0.0264
1140.0,0.0265
1139.0,0.0266
1138.0,0.0267
1137.0,0.0267
1136.0,0.0268
1135.0,0.0268
1134.0,0.0267
1133.0,0.0267
1132.0,0.0267
1131.0,0.0268
1130.0,0.0269
1129.0,0.0269
1128.0,0.0269
1127.0,0.0269
1126.0,0.0269
1125.0,0.0269
1124.0,0.0269
1123.0,0.027
1122.0,0.0271
1121.0,0.0272
1120.0,0.0273
1119.0,0.0273
1118.0,0.0273
1117.0,0.0273
1116.0,0.0273
1115.0,0.0274
1114.0,0.0275
1113.0,0.0276
1112.0,0.0277
1111.0,0.0278
1110.0,0.0279
1109.0,0.0279
1108.0,0.0279
1107.0,0.0279
1106.0,0.0279
1105.0,0.028
1104.0,0.0282
1103.0,0.0283
1102.0,0.0284
1101.0,0.0284
1100.0,0.0284
1099.0,0.0285
1098.0,0.0287
1097.0,0.0288
1096.0,0.0289
1095.0,0.0289
1094.0,0.029
1093.0,0.029
1092.0,0.0291
1091.0,0.0292
1090.0,0.0292
1089.0,0.0293
1088.0,0.0293
1087.0,0.0294
1086.0,0.0294
1085.0,0.0295
1084.0,0.0295
1083.0,0.0296
1082.0,0.0296
1081.0,0.0296
1080.0,0.0296
1079.0,0.0296
1078.0,0.0295
1077.0,0.0294
1076.0,0.0294
1075.0,0.0294
1074.0,0.0294
1073.0,0.0295
1072.0,0.0295
1071.0,0.0296
1070.0,0.0297
1069.0,0.0297
1068.0,0.0296
1067.0,0.0295
1066.0,0.0295
1065.0,0.0296
1064.0,0.0298
1063.0,0.03
1062.0,0.0301
1061.0,0.0302
1060.0,0.0301
1059.0,0.0301
1058.0,0.0301
1057.0,0.0302
1056.0,0.0303
1055.0,0.0304
1054.0,0.0304
1053.0,0.0304
1052.0,0.0304
1051.0,0.0303
1050.0,0.0302
1049.0,0.03
1048.0,0.0298
1047.0,0.0297
1046.0,0.0296
1045.0,0.0295
1044.0,0.0294
1043.0,0.0293
1042.0,0.0291
1041.0,0.029
1040.0,0.0289
1039.0,0.0288
1038.0,0.0287
1037.0,0.0285
1036.0,0.0284
1035.0,0.0282
1034.0,0.028
1033.0,0.0279
1032.0,0.0278
1031.0,0.0277
1030.0,0.0276
1029.0,0.0276
1028.0,0.0275
1027.0,0.0273
1026.0,0.0272
1025.0,0.0271
1024.0,0.0271
1023.0,0.0271
1022.0,0.0272
1021.0,0.0272
1020.0,0.0272
1019.0,0.0271
1018.0,0.0269
1017.0,0.0267
1016.0,0.0264
1015.0,0.0263
1014.0,0.0262
1013.0,0.0261
1012.0,0.0261
1011.0,0.026
1010.0,0.0259
1009.0,0.0257
1008.0,0.0256
1007.0,0.0255
1006.0,0.0254
1005.0,0.0253
1004.0,0.0253
1003.0,0.0252
1002.0,0.0251
1001.0,0.025
1000.0,0.0249
999.0,0.0248
998.0,0.0248
997.0,0.0247
996.0,0.0246
995.0,0.0245
994.0,0.0243
993.0,0.0242
992.0,0.0241
991.0,0.0241
990.0,0.0241
989.0,0.0241
988.0,0.0241
987.0,0.0241
986.0,0.024
985.0,0.0238
984.0,0.0237
983.0,0.0236
982.0,0.0235
981.0,0.0235
980.0,0.0234
979.0,0.0234
978.0,0.0234
977.0,0.0234
976.0,0.0233
975.0,0.0233
974.0,0.0232
973.0,0.0233
972.0,0.0233
971.0,0.0233
970.0,0.0233
969.0,0.0233
968.0,0.0233
967.0,0.0232
966.0,0.0231
965.0,0.023
964.0,0.0229
963.0,0.0229
962.0,0.0228
961.0,0.0228
960.0,0.0228
959.0,0.0228
958.0,0.0228
957.0,0.0228
956.0,0.0228
955.0,0.0227
954.0,0.0227
953.0,0.0227
952.0,0.0227
951.0,0.0226
950.0,0.0226
949.0,0.0226
948.0,0.0226
947.0,0.0226
946.0,0.0226
945.0,0.0227
944.0,0.0227
943.0,0.0227
942.0,0.0227
941.0,0.0227
940.0,0.0227
939.0,0.0227
938.0,0.0227
937.0,0.0227
936.0,0.0227
935.0,0.0227
934.0,0.0228
933.0,0.0228
932.0,0.0229
931.0,0.0229
930.0,0.0228
929.0,0.0227
928.0,0.0226
927.0,0.0225
926.0,0.0225
925.0,0.0225
924.0,0.0224
923.0,0.0224
922.0,0.0224
921.0,0.0225
920.0,0.0225
919.0,0.0226
918.0,0.0226
917.0,0.0226
916.0,0.0226
915.0,0.0226
914.0,0.0226
913.0,0.0227
912.0,0.0227
911.0,0.0227
910.0,0.0228
909.0,0.0228
908.0,0.0228
907.0,0.0229
906.0,0.0229
905.0,0.023
904.0,0.023
903.0,0.023
902.0,0.023
901.0,0.023
900.0,0.023
899.0,0.0231
898.0,0.0231
897.0,0.0232
896.0,0.0232
895.0,0.0232
894.0,0.0232
893.0,0.0231
892.0,0.023
891.0,0.023
890.0,0.0231
889.0,0.0233
888.0,0.0235
887.0,0.0236
886.0,0.0237
885.0,0.0236
884.0,0.0235
883.0,0.0234
882.0,0.0234
881.0,0.0234
880.0,0.0235
879.0,0.0235
878.0,0.0234
877.0,0.0232
876.0,0.023
875.0,0.0228
874.0,0.0228
873.0,0.0229
872.0,0.023
871.0,0.023
870.0,0.0229
869.0,0.0228
868.0,0.0228
867.0,0.0229
866.0,0.0229
865.0,0.023
864.0,0.023
863.0,0.023
862.0,0.0229
861.0,0.0227
860.0,0.0226
859.0,0.0224
858.0,0.0224
857.0,0.0224
856.0,0.0224
855.0,0.0225
854.0,0.0226
853.0,0.0226
852.0,0.0226
851.0,0.0225
850.0,0.0225
849.0,0.0224
848.0,0.0224
847.0,0.0223
846.0,0.0223
845.0,0.0224
844.0,0.0225
843.0,0.0226
842.0,0.0226
841.0,0.0225
840.0,0.0225
839.0,0.0224
838.0,0.0223
837.0,0.0222
836.0,0.0222
835.0,0.0222
834.0,0.0222
833.0,0.0222
832.0,0.0223
831.0,0.0223
830.0,0.0224
829.0,0.0224
828.0,0.0224
827.0,0.0224
826.0,0.0224
825.0,0.0224
824.0,0.0223
823.0,0.0222
822.0,0.0222
821.0,0.0222
820.0,0.0222
819.0,0.0222
818.0,0.0222
817.0,0.0222
816.0,0.0222
815.0,0.0222
814.0,0.0223
813.0,0.0225
812.0,0.0226
811.0,0.0226
810.0,0.0226
809.0,0.0226
808.0,0.0227
807.0,0.0228
806.0,0.0229
805.0,0.0229
804.0,0.0228
803.0,0.0227
802.0,0.0227
801.0,0.0228
800.0,0.0231
799.0,0.0232
798.0,0.0231
797.0,0.0231
796.0,0.023
795.0,0.0231
794.0,0.0232
793.0,0.0232
792.0,0.0233
791.0,0.0232
790.0,0.0232
789.0,0.0232
788.0,0.0233
787.0,0.0234
786.0,0.0234
785.0,0.0235
784.0,0.0235
783.0,0.0236
782.0,0.0235
781.0,0.0233
780.0,0.0233
779.0,0.0234
778.0,0.0235
777.0,0.0235
776.0,0.0234
775.0,0.0234
774.0,0.0234
773.0,0.0235
772.0,0.0236
771.0,0.0236
770.0,0.0236
769.0,0.0237
768.0,0.0237
767.0,0.0236
766.0,0.0236
765.0,0.0237
764.0,0.0238
763.0,0.0237
762.0,0.0235
761.0,0.0233
760.0,0.0231
759.0,0.0231
758.0,0.0232
757.0,0.0233
756.0,0.0234
755.0,0.0234
754.0,0.0235
753.0,0.0236
752.0,0.0238
751.0,0.0238
750.0,0.0239
749.0,0.024
748.0,0.0242
747.0,0.0243
746.0,0.0241
745.0,0.0239
744.0,0.0238
743.0,0.0238
742.0,0.0241
741.0,0.0244
740.0,0.0249
739.0,0.0252
738.0,0.0255
737.0,0.0261
736.0,0.0275
735.0,0.0303
734.0,0.0358
733.0,0.0451
732.0,0.0572
731.0,0.0687
730.0,0.0754
729.0,0.0757
728.0,0.0717
727.0,0.0672
726.0,0.0648
725.0,0.0652
724.0,0.0686
723.0,0.0757
722.0,0.0876
721.0,0.1034
720.0,0.1174
719.0,0.1228
718.0,0.1178
717.0,0.1061
716.0,0.0925
715.0,0.0801
714.0,0.0703
713.0,0.0632
712.0,0.058
711.0,0.0541
710.0,0.0507
709.0,0.0478
708.0,0.0453
707.0,0.0434
706.0,0.0419
705.0,0.0407
704.0,0.0397
703.0,0.0389
702.0,0.0384
701.0,0.0379
700.0,0.0371
699.0,0.0362
698.0,0.0351
697.0,0.0338
696.0,0.0324
695.0,0.0312
694.0,0.0303
693.0,0.0298
692.0,0.0295
691.0,0.0296
690.0,0.0301
689.0,0.0308
688.0,0.0312
687.0,0.0307
686.0,0.0296
685.0,0.0288
684.0,0.0289
683.0,0.0294
682.0,0.0294
681.0,0.0287
680.0,0.028
679.0,0.0278
678.0,0.0281
677.0,0.0285
676.0,0.0286
675.0,0.0287
674.0,0.0289
673.0,0.0289
672.0,0.028
671.0,0.0253
670.0,0.021
669.0,0.0163
668.0,0.0141
667.0,0.0173
666.0,0.0223
665.0,0.0256
664.0,0.0276
663.0,0.0285
662.0,0.0289
661.0,0.0288
660.0,0.0287
659.0,0.0287
658.0,0.0286
657.0,0.0283
656.0,0.0279
655.0,0.0278
654.0,0.0279
653.0,0.028
652.0,0.0281
651.0,0.0279
650.0,0.0276
649.0,0.0275
648.0,0.0275
647.0,0.0276
646.0,0.0277
645.0,0.0276
644.0,0.0276
643.0,0.0278
642.0,0.028
641.0,0.0282
640.0,0.0284
639.0,0.0285
638.0,0.0286
637.0,0.029
636.0,0.0298
635.0,0.0309
634.0,0.0316
633.0,0.0315
632.0,0.0309
631.0,0.0303
630.0,0.0297
629.0,0.0292
628.0,0.0285
627.0,0.028
626.0,0.0278
625.0,0.0277
624.0,0.0273
623.0,0.0266
622.0,0.0258
621.0,0.0252
620.0,0.0252
619.0,0.026
618.0,0.0276
617.0,0.0293
616.0,0.0303
615.0,0.0303
614.0,0.0297
613.0,0.0289
612.0,0.0285
611.0,0.0283
610.0,0.0287
609.0,0.0295
608.0,0.0304
607.0,0.0311
606.0,0.031
605.0,0.0303
604.0,0.0294
603.0,0.0283
602.0,0.0271
601.0,0.0263
600.0,0.0262
