cm-1,A
4000.0,0.0075
3999.0,0.0075
3998.0,0.0075
3997.0,0.0075
3996.0,0.0075
3995.0,0.0075
3994.0,0.0075
3993.0,0.0075
3992.0,0.0075
3991.0,0.0075
3990.0,0.0075
3989.0,0.0075
3988.0,0.0074
3987.0,0.0073
3986.0,0.0073
3985.0,0.0073
3984.0,0.0073
3983.0,0.0073
3982.0,0.0074
3981.0,0.0074
3980.0,0.0075
3979.0,0.0075
3978.0,0.0075
3977.0,0.0075
3976.0,0.0075
3975.0,0.0075
3974.0,0.0075
3973.0,0.0075
3972.0,0.0076
3971.0,0.0076
3970.0,0.0075
3969.0,0.0075
3968.0,0.0075
3967.0,0.0075
3966.0,0.0076
3965.0,0.0076
3964.0,0.0076
3963.0,0.0076
3962.0,0.0076
3961.0,0.0076
3960.0,0.0076
3959.0,0.0076
3958.0,0.0077
3957.0,0.0077
3956.0,0.0077
3955.0,0.0078
3954.0,0.0078
3953.0,0.0078
3952.0,0.0077
3951.0,0.0077
3950.0,0.0076
3949.0,0.0076
3948.0,0.0077
3947.0,0.0078
3946.0,0.0079
3945.0,0.0079
3944.0,0.008
3943.0,0.008
3942.0,0.0079
3941.0,0.0079
3940.0,0.0078
3939.0,0.0077
3938.0,0.0077
3937.0,0.0077
3936.0,0.0078
3935.0,0.0079
3934.0,0.0079
3933.0,0.0079
3932.0,0.0079
3931.0,0.0079
3930.0,0.0079
3929.0,0.0079
3928.0,0.0079
3927.0,0.0079
3926.0,0.0079
3925.0,0.008
3924.0,0.008
3923.0,0.0081
3922.0,0.0081
3921.0,0.0081
3920.0,0.0081
3919.0,0.0081
3918.0,0.008
3917.0,0.008
3916.0,0.0079
3915.0,0.0078
3914.0,0.0078
3913.0,0.0078
3912.0,0.0078
3911.0,0.0079
3910.0,0.008
3909.0,0.0082
3908.0,0.0084
3907.0,0.0085
3906.0,0.0085
3905.0,0.0085
3904.0,0.0085
3903.0,0.0085
3902.0,0.0086
3901.0,0.0085
3900.0,0.0085
3899.0,0.0083
3898.0,0.0082
3897.0,0.0081
3896.0,0.0081
3895.0,0.0081
3894.0,0.008
3893.0,0.008
3892.0,0.008
3891.0,0.0081
3890.0,0.0083
3889.0,0.0084
3888.0,0.0083
3887.0,0.0081
3886.0,0.0081
3885.0,0.0083
3884.0,0.0086
3883.0,0.0087
3882.0,0.0087
3881.0,0.0086
3880.0,0.0085
3879.0,0.0085
3878.0,0.0085
3877.0,0.0084
3876.0,0.0083
3875.0,0.0082
3874.0,0.0083
3873.0,0.0085
3872.0,0.0084
3871.0,0.0082
3870.0,0.0082
3869.0,0.0082
3868.0,0.0083
3867.0,0.0084
3866.0,0.0083
3865.0,0.0084
3864.0,0.0084
3863.0,0.0085
3862.0,0.0084
3861.0,0.0083
3860.0,0.0083
3859.0,0.0084
3858.0,0.0086
3857.0,0.0089
3856.0,0.0091
3855.0,0.009
3854.0,0.0092
3853.0,0.0093
3852.0,0.0091
3851.0,0.0089
3850.0,0.0086
3849.0,0.0084
3848.0,0.0083
3847.0,0.0083
3846.0,0.0084
3845.0,0.0084
3844.0,0.0085
3843.0,0.0087
3842.0,0.0088
3841.0,0.0088
3840.0,0.0087
3839.0,0.0087
3838.0,0.0087
3837.0,0.0087
3836.0,0.0086
3835.0,0.0086
3834.0,0.0085
3833.0,0.0084
3832.0,0.0084
3831.0,0.0084
3830.0,0.0084
3829.0,0.0084
3828.0,0.0083
3827.0,0.0083
3826.0,0.0085
3825.0,0.0087
3824.0,0.0088
3823.0,0.0087
3822.0,0.0087
3821.0,0.0088
3820.0,0.009
3819.0,0.009
3818.0,0.0088
3817.0,0.0086
3816.0,0.0085
3815.0,0.0085
3814.0,0.0085
3813.0,0.0085
3812.0,0.0085
3811.0,0.0086
3810.0,0.0087
3809.0,0.0086
3808.0,0.0085
3807.0,0.0084
3806.0,0.0086
3805.0,0.0087
3804.0,0.0087
3803.0,0.0086
3802.0,0.0086
3801.0,0.0088
3800.0,0.0089
3799.0,0.0089
3798.0,0.0087
3797.0,0.0085
3796.0,0.0084
3795.0,0.0084
3794.0,0.0083
3793.0,0.0082
3792.0,0.0082
3791.0,0.0082
3790.0,0.0083
3789.0,0.0083
3788.0,0.0084
3787.0,0.0084
3786.0,0.0084
3785.0,0.0085
3784.0,0.0086
3783.0,0.0086
3782.0,0.0086
3781.0,0.0085
3780.0,0.0084
3779.0,0.0084
3778.0,0.0085
3777.0,0.0085
3776.0,0.0085
3775.0,0.0085
3774.0,0.0085
3773.0,0.0085
3772.0,0.0085
3771.0,0.0085
3770.0,0.0086
3769.0,0.0088
3768.0,0.0089
3767.0,0.009
3766.0,0.0089
3765.0,0.009
3764.0,0.009
3763.0,0.009
3762.0,0.009
3761.0,0.0089
3760.0,0.009
3759.0,0.009
3758.0,0.0091
3757.0,0.0091
3756.0,0.0093
3755.0,0.0094
3754.0,0.0095
3753.0,0.0095
3752.0,0.0096
3751.0,0.0096
3750.0,0.0095
3749.0,0.0094
3748.0,0.0094
3747.0,0.0092
3746.0,0.009
3745.0,0.0088
3744.0,0.0089
3743.0,0.0091
3742.0,0.0091
3741.0,0.0091
3740.0,0.0092
3739.0,0.0092
3738.0,0.0091
3737.0,0.0088
3736.0,0.0087
3735.0,0.0087
3734.0,0.0087
3733.0,0.0086
3732.0,0.0083
3731.0,0.0082
3730.0,0.0081
3729.0,0.008
3728.0,0.0079
3727.0,0.0079
3726.0,0.008
3725.0,0.0081
3724.0,0.0081
3723.0,0.0081
3722.0,0.0081
3721.0,0.0082
3720.0,0.0083
3719.0,0.0083
3718.0,0.0084
3717.0,0.0083
3716.0,0.0083
3715.0,0.0082
3714.0,0.0083
3713.0,0.0084
3712.0,0.0088
3711.0,0.009
3710.0,0.009
3709.0,0.0088
3708.0,0.0085
3707.0,0.0083
3706.0,0.0082
3705.0,0.0082
3704.0,0.0082
3703.0,0.0081
3702.0,0.0081
3701.0,0.0081
3700.0,0.0082
3699.0,0.0083
3698.0,0.0084
3697.0,0.0084
3696.0,0.0086
3695.0,0.0087
3694.0,0.0088
3693.0,0.0089
3692.0,0.009
3691.0,0.0091
3690.0,0.0092
3689.0,0.0092
3688.0,0.0092
3687.0,0.009
3686.0,0.0089
3685.0,0.0088
3684.0,0.0088
3683.0,0.0089
3682.0,0.0091
3681.0,0.0092
3680.0,0.0095
3679.0,0.0098
3678.0,0.01
3677.0,0.0099
3676.0,0.0099
3675.0,0.0099
3674.0,0.01
3673.0,0.01
3672.0,0.0098
3671.0,0.0096
3670.0,0.0095
3669.0,0.0094
3668.0,0.0093
3667.0,0.0092
3666.0,0.0091
3665.0,0.0091
3664.0,0.0091
3663.0,0.0091
3662.0,0.0091
3661.0,0.0091
3660.0,0.0091
3659.0,0.0091
3658.0,0.0091
3657.0,0.0092
3656.0,0.0094
3655.0,0.0096
3654.0,0.0099
3653.0,0.0102
3652.0,0.0102
3651.0,0.0101
3650.0,0.0101
3649.0,0.0103
3648.0,0.0103
3647.0,0.01
3646.0,0.0098
3645.0,0.0096
3644.0,0.0095
3643.0,0.0093
3642.0,0.0092
3641.0,0.0092
3640.0,0.0091
3639.0,0.0091
3638.0,0.0092
3637.0,0.0093
3636.0,0.0094
3635.0,0.0095
3634.0,0.0096
3633.0,0.0097
3632.0,0.0098
3631.0,0.0096
3630.0,0.0094
3629.0,0.0094
3628.0,0.0095
3627.0,0.0094
3626.0,0.0092
3625.0,0.0091
3624.0,0.0092
3623.0,0.0094
3622.0,0.0095
3621.0,0.0097
3620.0,0.0098
3619.0,0.0099
3618.0,0.01
3617.0,0.01
3616.0,0.0099
3615.0,0.0097
3614.0,0.0095
3613.0,0.0095
3612.0,0.0096
3611.0,0.0097
3610.0,0.0097
3609.0,0.0097
3608.0,0.0097
3607.0,0.0098
3606.0,0.0097
3605.0,0.0097
3604.0,0.0096
3603.0,0.0096
3602.0,0.0096
3601.0,0.0097
3600.0,0.0098
3599.0,0.0099
3598.0,0.0099
3597.0,0.0099
3596.0,0.0098
3595.0,0.0098
3594.0,0.0098
3593.0,0.0099
3592.0,0.0101
3591.0,0.0102
3590.0,0.0103
3589.0,0.0103
3588.0,0.0103
3587.0,0.0103
3586.0,0.0103
3585.0,0.0102
3584.0,0.0102
3583.0,0.0101
3582.0,0.0102
3581.0,0.0102
3580.0,0.0103
3579.0,0.0103
3578.0,0.0103
3577.0,0.0103
3576.0,0.0102
3575.0,0.0102
3574.0,0.0103
3573.0,0.0104
3572.0,0.0106
3571.0,0.0107
3570.0,0.0108
3569.0,0.0108
3568.0,0.0108
3567.0,0.0108
3566.0,0.0109
3565.0,0.0109
3564.0,0.0108
3563.0,0.0106
3562.0,0.0105
3561.0,0.0104
3560.0,0.0103
3559.0,0.0103
3558.0,0.0104
3557.0,0.0104
3556.0,0.0105
3555.0,0.0104
3554.0,0.0103
3553.0,0.0102
3552.0,0.0103
3551.0,0.0105
3550.0,0.0106
3549.0,0.0107
3548.0,0.0107
3547.0,0.0108
3546.0,0.0108
3545.0,0.0108
3544.0,0.0107
3543.0,0.0106
3542.0,0.0106
3541.0,0.0105
3540.0,0.0105
3539.0,0.0105
3538.0,0.0104
3537.0,0.0104
3536.0,0.0104
3535.0,0.0104
3534.0,0.0104
3533.0,0.0105
3532.0,0.0106
3531.0,0.0108
3530.0,0.0108
3529.0,0.0107
3528.0,0.0107
3527.0,0.0106
3526.0,0.0106
3525.0,0.0106
3524.0,0.0107
3523.0,0.0107
3522.0,0.0106
3521.0,0.0105
3520.0,0.0105
3519.0,0.0105
3518.0,0.0105
3517.0,0.0106
3516.0,0.0107
3515.0,0.0107
3514.0,0.0107
3513.0,0.0107
3512.0,0.0107
3511.0,0.0107
3510.0,0.0107
3509.0,0.0108
3508.0,0.0109
3507.0,0.011
3506.0,0.011
3505.0,0.0109
3504.0,0.0108
3503.0,0.0107
3502.0,0.0107
3501.0,0.0107
3500.0,0.0108
3499.0,0.0109
3498.0,0.011
3497.0,0.011
3496.0,0.0109
3495.0,0.0108
3494.0,0.0107
3493.0,0.0106
3492.0,0.0105
3491.0,0.0106
3490.0,0.0106
3489.0,0.0106
3488.0,0.0107
3487.0,0.0108
3486.0,0.0108
3485.0,0.0109
3484.0,0.011
3483.0,0.0111
3482.0,0.011
3481.0,0.011
3480.0,0.011
3479.0,0.0109
3478.0,0.0109
3477.0,0.0109
3476.0,0.0109
3475.0,0.0109
3474.0,0.0108
3473.0,0.0108
3472.0,0.0108
3471.0,0.0108
3470.0,0.0109
3469.0,0.0109
3468.0,0.011
3467.0,0.011
3466.0,0.0109
3465.0,0.0109
3464.0,0.0109
3463.0,0.0109
3462.0,0.0109
3461.0,0.0109
3460.0,0.0108
3459.0,0.0107
3458.0,0.0105
3457.0,0.0105
3456.0,0.0105
3455.0,0.0106
3454.0,0.0107
3453.0,0.0107
3452.0,0.0106
3451.0,0.0107
3450.0,0.0108
3449.0,0.0108
3448.0,0.0109
3447.0,0.011
3446.0,0.011
3445.0,0.011
3444.0,0.011
3443.0,0.0109
3442.0,0.0108
3441.0,0.0108
3440.0,0.0108
3439.0,0.0108
3438.0,0.0108
3437.0,0.0109
3436.0,0.0109
3435.0,0.0109
3434.0,0.011
3433.0,0.011
3432.0,0.0111
3431.0,0.0111
3430.0,0.0112
3429.0,0.0112
3428.0,0.0112
3427.0,0.0111
3426.0,0.0111
3425.0,0.011
3424.0,0.011
3423.0,0.0111
3422.0,0.0111
3421.0,0.0111
3420.0,0.011
3419.0,0.0109
3418.0,0.0109
3417.0,0.0109
3416.0,0.0109
3415.0,0.011
3414.0,0.011
3413.0,0.0109
3412.0,0.0109
3411.0,0.0109
3410.0,0.0109
3409.0,0.0109
3408.0,0.0109
3407.0,0.0109
3406.0,0.0109
3405.0,0.0109
3404.0,0.0109
3403.0,0.0109
3402.0,0.0109
3401.0,0.0109
3400.0,0.0108
3399.0,0.0108
3398.0,0.0108
3397.0,0.0108
3396.0,0.0108
3395.0,0.0109
3394.0,0.0109
3393.0,0.0109
3392.0,0.0109
3391.0,0.0109
3390.0,0.0108
3389.0,0.0107
3388.0,0.0106
3387.0,0.0106
3386.0,0.0107
3385.0,0.0108
3384.0,0.011
3383.0,0.011
3382.0,0.0111
3381.0,0.011
3380.0,0.011
3379.0,0.0109
3378.0,0.0109
3377.0,0.0108
3376.0,0.0107
3375.0,0.0107
3374.0,0.0107
3373.0,0.0108
3372.0,0.0109
3371.0,0.011
3370.0,0.011
3369.0,0.0109
3368.0,0.0109
3367.0,0.0109
3366.0,0.0109
3365.0,0.0109
3364.0,0.011
3363.0,0.011
3362.0,0.011
3361.0,0.0111
3360.0,0.011
3359.0,0.0109
3358.0,0.0109
3357.0,0.0109
3356.0,0.0109
3355.0,0.011
3354.0,0.0109
3353.0,0.0108
3352.0,0.0107
3351.0,0.0106
3350.0,0.0106
3349.0,0.0106
3348.0,0.0105
3347.0,0.0104
3346.0,0.0104
3345.0,0.0104
3344.0,0.0104
3343.0,0.0105
3342.0,0.0105
3341.0,0.0106
3340.0,0.0107
3339.0,0.0107
3338.0,0.0106
3337.0,0.0105
3336.0,0.0104
3335.0,0.0103
3334.0,0.0103
3333.0,0.0103
3332.0,0.0103
3331.0,0.0103
3330.0,0.0103
3329.0,0.0103
3328.0,0.0103
3327.0,0.0103
3326.0,0.0104
3325.0,0.0104
3324.0,0.0105
3323.0,0.0106
3322.0,0.0107
3321.0,0.0106
3320.0,0.0105
3319.0,0.0104
3318.0,0.0103
3317.0,0.0103
3316.0,0.0103
3315.0,0.0104
3314.0,0.0104
3313.0,0.0104
3312.0,0.0104
3311.0,0.0104
3310.0,0.0104
3309.0,0.0105
3308.0,0.0104
3307.0,0.0104
3306.0,0.0103
3305.0,0.0102
3304.0,0.0102
3303.0,0.0102
3302.0,0.0102
3301.0,0.0101
3300.0,0.01
3299.0,0.01
3298.0,0.01
3297.0,0.01
3296.0,0.01
3295.0,0.01
3294.0,0.01
3293.0,0.0099
3292.0,0.01
3291.0,0.01
3290.0,0.01
3289.0,0.01
3288.0,0.01
3287.0,0.01
3286.0,0.01
3285.0,0.0099
3284.0,0.0099
3283.0,0.0099
3282.0,0.0099
3281.0,0.0099
3280.0,0.01
3279.0,0.01
3278.0,0.0101
3277.0,0.01
3276.0,0.01
3275.0,0.0099
3274.0,0.0098
3273.0,0.0098
3272.0,0.0098
3271.0,0.0098
3270.0,0.0098
3269.0,0.0098
3268.0,0.0098
3267.0,0.0098
3266.0,0.0097
3265.0,0.0096
3264.0,0.0096
3263.0,0.0096
3262.0,0.0095
3261.0,0.0096
3260.0,0.0096
3259.0,0.0096
3258.0,0.0096
3257.0,0.0096
3256.0,0.0096
3255.0,0.0095
3254.0,0.0095
3253.0,0.0096
3252.0,0.0096
3251.0,0.0096
3250.0,0.0095
3249.0,0.0094
3248.0,0.0093
3247.0,0.0092
3246.0,0.0091
3245.0,0.0092
3244.0,0.0092
3243.0,0.0093
3242.0,0.0094
3241.0,0.0093
3240.0,0.0093
3239.0,0.0093
3238.0,0.0093
3237.0,0.0093
3236.0,0.0094
3235.0,0.0094
3234.0,0.0095
3233.0,0.0095
3232.0,0.0094
3231.0,0.0094
3230.0,0.0093
3229.0,0.0093
3228.0,0.0093
3227.0,0.0093
3226.0,0.0094
3225.0,0.0094
3224.0,0.0094
3223.0,0.0093
3222.0,0.0092
3221.0,0.0091
3220.0,0.0092
3219.0,0.0093
3218.0,0.0094
3217.0,0.0094
3216.0,0.0094
3215.0,0.0093
3214.0,0.0093
3213.0,0.0093
3212.0,0.0093
3211.0,0.0092
3210.0,0.0092
3209.0,0.0092
3208.0,0.0093
3207.0,0.0093
3206.0,0.0094
3205.0,0.0094
3204.0,0.0094
3203.0,0.0094
3202.0,0.0094
3201.0,0.0095
3200.0,0.0096
3199.0,0.0096
3198.0,0.0095
3197.0,0.0094
3196.0,0.0094
3195.0,0.0094
3194.0,0.0094
3193.0,0.0095
3192.0,0.0095
3191.0,0.0094
3190.0,0.0094
3189.0,0.0093
3188.0,0.0092
3187.0,0.0092
3186.0,0.0091
3185.0,0.0091
3184.0,0.0091
3183.0,0.0091
3182.0,0.0091
3181.0,0.0091
3180.0,0.009
3179.0,0.009
3178.0,0.0089
3177.0,0.0089
3176.0,0.0088
3175.0,0.0087
3174.0,0.0087
3173.0,0.0087
3172.0,0.0086
3171.0,0.0086
3170.0,0.0086
3169.0,0.0086
3168.0,0.0086
3167.0,0.0087
3166.0,0.0087
3165.0,0.0087
3164.0,0.0086
3163.0,0.0086
3162.0,0.0085
3161.0,0.0085
3160.0,0.0086
3159.0,0.0086
3158.0,0.0086
3157.0,0.0086
3156.0,0.0086
3155.0,0.0086
3154.0,0.0086
3153.0,0.0085
3152.0,0.0085
3151.0,0.0085
3150.0,0.0085
3149.0,0.0085
3148.0,0.0085
3147.0,0.0084
3146.0,0.0084
3145.0,0.0083
3144.0,0.0083
3143.0,0.0083
3142.0,0.0083
3141.0,0.0083
3140.0,0.0083
3139.0,0.0082
3138.0,0.0081
3137.0,0.0081
3136.0,0.008
3135.0,0.008
3134.0,0.0081
3133.0,0.0081
3132.0,0.008
3131.0,0.008
3130.0,0.008
3129.0,0.0079
3128.0,0.0079
3127.0,0.0078
3126.0,0.0078
3125.0,0.0077
3124.0,0.0077
3123.0,0.0077
3122.0,0.0077
3121.0,0.0077
3120.0,0.0077
3119.0,0.0077
3118.0,0.0076
3117.0,0.0076
3116.0,0.0075
3115.0,0.0075
3114.0,0.0074
3113.0,0.0074
3112.0,0.0074
3111.0,0.0074
3110.0,0.0073
3109.0,0.0073
3108.0,0.0073
3107.0,0.0073
3106.0,0.0073
3105.0,0.0073
3104.0,0.0073
3103.0,0.0073
3102.0,0.0073
3101.0,0.0072
3100.0,0.0071
3099.0,0.0069
3098.0,0.0069
3097.0,0.0069
3096.0,0.0069
3095.0,0.0069
3094.0,0.0069
3093.0,0.0069
3092.0,0.0069
3091.0,0.0069
3090.0,0.0069
3089.0,0.0069
3088.0,0.0068
3087.0,0.0068
3086.0,0.0067
3085.0,0.0067
3084.0,0.0067
3083.0,0.0066
3082.0,0.0066
3081.0,0.0065
3080.0,0.0064
3079.0,0.0064
3078.0,0.0064
3077.0,0.0064
3076.0,0.0064
3075.0,0.0063
3074.0,0.0063
3073.0,0.0062
3072.0,0.0061
3071.0,0.0061
3070.0,0.0061
3069.0,0.006
3068.0,0.006
3067.0,0.006
3066.0,0.006
3065.0,0.006
3064.0,0.006
3063.0,0.006
3062.0,0.006
3061.0,0.006
3060.0,0.006
3059.0,0.0059
3058.0,0.0058
3057.0,0.0057
3056.0,0.0056
3055.0,0.0055
3054.0,0.0055
3053.0,0.0055
3052.0,0.0054
3051.0,0.0054
3050.0,0.0053
3049.0,0.0052
3048.0,0.0052
3047.0,0.0051
3046.0,0.005
3045.0,0.0049
3044.0,0.0049
3043.0,0.0049
3042.0,0.0049
3041.0,0.0049
3040.0,0.0049
3039.0,0.0048
3038.0,0.0048
3037.0,0.0047
3036.0,0.0047
3035.0,0.0047
3034.0,0.0047
3033.0,0.0047
3032.0,0.0047
3031.0,0.0047
3030.0,0.0047
3029.0,0.0048
3028.0,0.0048
3027.0,0.0048
3026.0,0.0047
3025.0,0.0046
3024.0,0.0045
3023.0,0.0044
3022.0,0.0043
3021.0,0.0041
3020.0,0.004
3019.0,0.0039
3018.0,0.0039
3017.0,0.0038
3016.0,0.0037
3015.0,0.0035
3014.0,0.0034
3013.0,0.0033
3012.0,0.0033
3011.0,0.0033
3010.0,0.0034
3009.0,0.0035
3008.0,0.0035
3007.0,0.0035
3006.0,0.0035
3005.0,0.0035
3004.0,0.0035
3003.0,0.0035
3002.0,0.0035
3001.0,0.0036
3000.0,0.0036
2999.0,0.0037
2998.0,0.0037
2997.0,0.0037
2996.0,0.0037
2995.0,0.0038
2994.0,0.004
2993.0,0.0041
2992.0,0.0044
2991.0,0.0046
2990.0,0.005
2989.0,0.0054
2988.0,0.0059
2987.0,0.0064
2986.0,0.007
2985.0,0.0077
2984.0,0.0085
2983.0,0.0094
2982.0,0.0105
2981.0,0.0117
2980.0,0.013
2979.0,0.0146
2978.0,0.0165
2977.0,0.0186
2976.0,0.021
2975.0,0.0237
2974.0,0.0268
2973.0,0.0305
2972.0,0.0347
2971.0,0.0393
2970.0,0.0443
2969.0,0.0497
2968.0,0.0555
2967.0,0.0615
2966.0,0.0677
2965.0,0.0738
2964.0,0.0795
2963.0,0.0845
2962.0,0.0885
2961.0,0.0915
2960.0,0.0938
2959.0,0.0959
2958.0,0.0981
2957.0,0.1011
2956.0,0.1052
2955.0,0.1106
2954.0,0.1169
2953.0,0.1234
2952.0,0.1293
2951.0,0.1335
2950.0,0.135
2949.0,0.1334
2948.0,0.1289
2947.0,0.122
2946.0,0.1136
2945.0,0.1047
2944.0,0.0963
2943.0,0.0888
2942.0,0.0829
2941.0,0.0786
2940.0,0.0759
2939.0,0.0746
2938.0,0.0747
2937.0,0.0761
2936.0,0.0786
2935.0,0.0822
2934.0,0.0869
2933.0,0.0924
2932.0,0.0989
2931.0,0.106
2930.0,0.1135
2929.0,0.1213
2928.0,0.1293
2927.0,0.1372
2926.0,0.1452
2925.0,0.1531
2924.0,0.1611
2923.0,0.1693
2922.0,0.1777
2921.0,0.186
2920.0,0.1935
2919.0,0.1995
2918.0,0.203
2917.0,0.2033
2916.0,0.2004
2915.0,0.1949
2914.0,0.1878
2913.0,0.1802
2912.0,0.1731
2911.0,0.1666
2910.0,0.161
2909.0,0.1559
2908.0,0.1513
2907.0,0.1469
2906.0,0.1426
2905.0,0.1383
2904.0,0.134
2903.0,0.1297
2902.0,0.1255
2901.0,0.1213
2900.0,0.1173
2899.0,0.1135
2898.0,0.11
2897.0,0.1067
2896.0,0.1037
2895.0,0.101
2894.0,0.0987
2893.0,0.0967
2892.0,0.0952
2891.0,0.0942
2890.0,0.0935
2889.0,0.093
2888.0,0.0927
2887.0,0.0925
2886.0,0.0927
2885.0,0.093
2884.0,0.0937
2883.0,0.0947
2882.0,0.0958
2881.0,0.0971
2880.0,0.0984
2879.0,0.0993
2878.0,0.0998
2877.0,0.0996
2876.0,0.099
2875.0,0.0983
2874.0,0.0977
2873.0,0.0978
2872.0,0.0984
2871.0,0.0996
2870.0,0.1011
2869.0,0.1027
2868.0,0.1037
2867.0,0.1038
2866.0,0.1023
2865.0,0.0992
2864.0,0.0946
2863.0,0.0892
2862.0,0.0839
2861.0,0.0793
2860.0,0.0757
2859.0,0.0733
2858.0,0.0719
2857.0,0.0717
2856.0,0.0725
2855.0,0.0743
2854.0,0.0769
2853.0,0.08
2852.0,0.0833
2851.0,0.0861
2850.0,0.0879
2849.0,0.0885
2848.0,0.0883
2847.0,0.0879
2846.0,0.0882
2845.0,0.0895
2844.0,0.092
2843.0,0.0951
2842.0,0.0986
2841.0,0.1018
2840.0,0.1042
2839.0,0.1054
2838.0,0.105
2837.0,0.1028
2836.0,0.0988
2835.0,0.0934
2834.0,0.0872
2833.0,0.0808
2832.0,0.0747
2831.0,0.0692
2830.0,0.0644
2829.0,0.0604
2828.0,0.0571
2827.0,0.0544
2826.0,0.0522
2825.0,0.0503
2824.0,0.0486
2823.0,0.0472
2822.0,0.0459
2821.0,0.0447
2820.0,0.0436
2819.0,0.0426
2818.0,0.0418
2817.0,0.041
2816.0,0.0403
2815.0,0.0397
2814.0,0.0391
2813.0,0.0386
2812.0,0.0381
2811.0,0.0376
2810.0,0.0371
2809.0,0.0366
2808.0,0.036
2807.0,0.0355
2806.0,0.0349
2805.0,0.0343
2804.0,0.0337
2803.0,0.0331
2802.0,0.0326
2801.0,0.0321
2800.0,0.0317
2799.0,0.0313
2798.0,0.031
2797.0,0.0307
2796.0,0.0305
2795.0,0.0302
2794.0,0.0299
2793.0,0.0296
2792.0,0.0292
2791.0,0.0288
2790.0,0.0284
2789.0,0.028
2788.0,0.0277
2787.0,0.0274
2786.0,0.0272
2785.0,0.0269
2784.0,0.0267
2783.0,0.0264
2782.0,0.0262
2781.0,0.0259
2780.0,0.0257
2779.0,0.0255
2778.0,0.0253
2777.0,0.0251
2776.0,0.0249
2775.0,0.0248
2774.0,0.0246
2773.0,0.0245
2772.0,0.0244
2771.0,0.0242
2770.0,0.0241
2769.0,0.024
2768.0,0.0239
2767.0,0.0238
2766.0,0.0237
2765.0,0.0236
2764.0,0.0235
2763.0,0.0234
2762.0,0.0233
2761.0,0.0232
2760.0,0.0231
2759.0,0.023
2758.0,0.0229
2757.0,0.0228
2756.0,0.0227
2755.0,0.0226
2754.0,0.0226
2753.0,0.0225
2752.0,0.0224
2751.0,0.0223
2750.0,0.0222
2749.0,0.0222
2748.0,0.0221
2747.0,0.0221
2746.0,0.0221
2745.0,0.0221
2744.0,0.0221
2743.0,0.0221
2742.0,0.0221
2741.0,0.0222
2740.0,0.0222
2739.0,0.0223
2738.0,0.0224
2737.0,0.0224
2736.0,0.0224
2735.0,0.0225
2734.0,0.0226
2733.0,0.0227
2732.0,0.0228
2731.0,0.0229
2730.0,0.023
2729.0,0.0232
2728.0,0.0233
2727.0,0.0235
2726.0,0.0238
2725.0,0.024
2724.0,0.0242
2723.0,0.0243
2722.0,0.0243
2721.0,0.0241
2720.0,0.0239
2719.0,0.0237
2718.0,0.0234
2717.0,0.0231
2716.0,0.0228
2715.0,0.0226
2714.0,0.0224
2713.0,0.0222
2712.0,0.022
2711.0,0.0218
2710.0,0.0217
2709.0,0.0215
2708.0,0.0214
2707.0,0.0212
2706.0,0.0211
2705.0,0.0209
2704.0,0.0208
2703.0,0.0207
2702.0,0.0206
2701.0,0.0205
2700.0,0.0205
2699.0,0.0205
2698.0,0.0204
2697.0,0.0204
2696.0,0.0203
2695.0,0.0203
2694.0,0.0202
2693.0,0.0202
2692.0,0.0202
2691.0,0.0201
2690.0,0.0201
2689.0,0.02
2688.0,0.02
2687.0,0.0199
2686.0,0.0199
2685.0,0.0199
2684.0,0.0199
2683.0,0.0199
2682.0,0.0198
2681.0,0.0198
2680.0,0.0198
2679.0,0.0198
2678.0,0.0198
2677.0,0.0197
2676.0,0.0197
2675.0,0.0197
2674.0,0.0197
2673.0,0.0197
2672.0,0.0197
2671.0,0.0197
2670.0,0.0196
2669.0,0.0196
2668.0,0.0195
2667.0,0.0195
2666.0,0.0195
2665.0,0.0195
2664.0,0.0195
2663.0,0.0195
2662.0,0.0195
2661.0,0.0194
2660.0,0.0194
2659.0,0.0195
2658.0,0.0195
2657.0,0.0195
2656.0,0.0194
2655.0,0.0193
2654.0,0.0192
2653.0,0.0191
2652.0,0.019
2651.0,0.019
2650.0,0.0189
2649.0,0.0189
2648.0,0.0189
2647.0,0.0189
2646.0,0.0189
2645.0,0.0188
2644.0,0.0188
2643.0,0.0187
2642.0,0.0187
2641.0,0.0186
2640.0,0.0185
2639.0,0.0184
2638.0,0.0183
2637.0,0.0183
2636.0,0.0184
2635.0,0.0184
2634.0,0.0184
2633.0,0.0183
2632.0,0.0183
2631.0,0.0183
2630.0,0.0183
2629.0,0.0182
2628.0,0.0182
2627.0,0.0182
2626.0,0.0182
2625.0,0.0183
2624.0,0.0183
2623.0,0.0183
2622.0,0.0183
2621.0,0.0183
2620.0,0.0183
2619.0,0.0184
2618.0,0.0184
2617.0,0.0185
2616.0,0.0184
2615.0,0.0184
2614.0,0.0183
2613.0,0.0183
2612.0,0.0182
2611.0,0.0182
2610.0,0.0181
2609.0,0.0181
2608.0,0.018
2607.0,0.0179
2606.0,0.0179
2605.0,0.0178
2604.0,0.0177
2603.0,0.0176
2602.0,0.0176
2601.0,0.0175
2600.0,0.0174
2599.0,0.0174
2598.0,0.0174
2597.0,0.0174
2596.0,0.0175
2595.0,0.0175
2594.0,0.0175
2593.0,0.0175
2592.0,0.0176
2591.0,0.0176
2590.0,0.0176
2589.0,0.0177
2588.0,0.0178
2587.0,0.018
2586.0,0.0181
2585.0,0.0181
2584.0,0.0182
2583.0,0.0182
2582.0,0.0182
2581.0,0.0181
2580.0,0.0181
2579.0,0.018
2578.0,0.018
2577.0,0.0179
2576.0,0.0178
2575.0,0.0176
2574.0,0.0175
2573.0,0.0175
2572.0,0.0174
2571.0,0.0174
2570.0,0.0174
2569.0,0.0173
2568.0,0.0172
2567.0,0.0171
2566.0,0.017
2565.0,0.0169
2564.0,0.0169
2563.0,0.0169
2562.0,0.0169
2561.0,0.0168
2560.0,0.0168
2559.0,0.0168
2558.0,0.0168
2557.0,0.0168
2556.0,0.0168
2555.0,0.0167
2554.0,0.0167
2553.0,0.0166
2552.0,0.0166
2551.0,0.0165
2550.0,0.0165
2549.0,0.0165
2548.0,0.0165
2547.0,0.0164
2546.0,0.0163
2545.0,0.0163
2544.0,0.0163
2543.0,0.0163
2542.0,0.0163
2541.0,0.0162
2540.0,0.0162
2539.0,0.0162
2538.0,0.0162
2537.0,0.0162
2536.0,0.0162
2535.0,0.0161
2534.0,0.016
2533.0,0.0159
2532.0,0.0159
2531.0,0.0158
2530.0,0.0158
2529.0,0.0158
2528.0,0.0158
2527.0,0.0158
2526.0,0.0158
2525.0,0.0157
2524.0,0.0157
2523.0,0.0157
2522.0,0.0158
2521.0,0.0158
2520.0,0.0158
2519.0,0.0157
2518.0,0.0157
2517.0,0.0156
2516.0,0.0155
2515.0,0.0154
2514.0,0.0154
2513.0,0.0154
2512.0,0.0154
2511.0,0.0154
2510.0,0.0154
2509.0,0.0154
2508.0,0.0154
2507.0,0.0154
2506.0,0.0153
2505.0,0.0152
2504.0,0.0152
2503.0,0.0152
2502.0,0.0152
2501.0,0.0153
2500.0,0.0153
2499.0,0.0153
2498.0,0.0153
2497.0,0.0153
2496.0,0.0152
2495.0,0.0152
2494.0,0.0152
2493.0,0.0152
2492.0,0.0152
2491.0,0.0152
2490.0,0.0151
2489.0,0.0152
2488.0,0.0152
2487.0,0.0152
2486.0,0.0152
2485.0,0.0151
2484.0,0.0151
2483.0,0.015
2482.0,0.015
2481.0,0.015
2480.0,0.0151
2479.0,0.015
2478.0,0.015
2477.0,0.015
2476.0,0.015
2475.0,0.015
2474.0,0.015
2473.0,0.015
2472.0,0.015
2471.0,0.015
2470.0,0.015
2469.0,0.015
2468.0,0.015
2467.0,0.0149
2466.0,0.0149
2465.0,0.0149
2464.0,0.0148
2463.0,0.0148
2462.0,0.0148
2461.0,0.0148
2460.0,0.0148
2459.0,0.0147
2458.0,0.0148
2457.0,0.0148
2456.0,0.0148
2455.0,0.0149
2454.0,0.0148
2453.0,0.0148
2452.0,0.0148
2451.0,0.0147
2450.0,0.0147
2449.0,0.0148
2448.0,0.0148
2447.0,0.0148
2446.0,0.0148
2445.0,0.0147
2444.0,0.0147
2443.0,0.0147
2442.0,0.0147
2441.0,0.0147
2440.0,0.0148
2439.0,0.0148
2438.0,0.0148
2437.0,0.0148
2436.0,0.0149
2435.0,0.0149
2434.0,0.0149
2433.0,0.0149
2432.0,0.0149
2431.0,0.0149
2430.0,0.0149
2429.0,0.0148
2428.0,0.0148
2427.0,0.0148
2426.0,0.0148
2425.0,0.0148
2424.0,0.0148
2423.0,0.0148
2422.0,0.0148
2421.0,0.0147
2420.0,0.0147
2419.0,0.0147
2418.0,0.0148
2417.0,0.0148
2416.0,0.0148
2415.0,0.0147
2414.0,0.0146
2413.0,0.0145
2412.0,0.0145
2411.0,0.0145
2410.0,0.0145
2409.0,0.0146
2408.0,0.0146
2407.0,0.0147
2406.0,0.0147
2405.0,0.0147
2404.0,0.0147
2403.0,0.0147
2402.0,0.0148
2401.0,0.0148
2400.0,0.0147
2399.0,0.0147
2398.0,0.0146
2397.0,0.0146
2396.0,0.0145
2395.0,0.0145
2394.0,0.0145
2393.0,0.0144
2392.0,0.0144
2391.0,0.0144
2390.0,0.0143
2389.0,0.0142
2388.0,0.0142
2387.0,0.0141
2386.0,0.0139
2385.0,0.0136
2384.0,0.0131
2383.0,0.0126
2382.0,0.0121
2381.0,0.0116
2380.0,0.0113
2379.0,0.0111
2378.0,0.0111
2377.0,0.0112
2376.0,0.0116
2375.0,0.0123
2374.0,0.013
2373.0,0.0135
2372.0,0.0132
2371.0,0.0118
2370.0,0.01
2369.0,0.0092
2368.0,0.0103
2367.0,0.0126
2366.0,0.0149
2365.0,0.0164
2364.0,0.0168
2363.0,0.0165
2362.0,0.0154
2361.0,0.0142
2360.0,0.0141
2359.0,0.0148
2358.0,0.0147
2357.0,0.0131
2356.0,0.0111
2355.0,0.0105
2354.0,0.011
2353.0,0.0107
2352.0,0.0079
2351.0,0.0022
2350.0,-0.0036
2349.0,-0.0062
2348.0,-0.004
2347.0,0.0012
2346.0,0.0065
2345.0,0.01
2344.0,0.0111
2343.0,0.0109
2342.0,0.0097
2341.0,0.008
2340.0,0.007
2339.0,0.0073
2338.0,0.0087
2337.0,0.0101
2336.0,0.0105
2335.0,0.0098
2334.0,0.009
2333.0,0.0095
2332.0,0.0118
2331.0,0.0143
2330.0,0.0162
2329.0,0.0161
2328.0,0.015
2327.0,0.0141
2326.0,0.0138
2325.0,0.0139
2324.0,0.0137
2323.0,0.0133
2322.0,0.0128
2321.0,0.0124
2320.0,0.0122
2319.0,0.0122
2318.0,0.0124
2317.0,0.0125
2316.0,0.0128
2315.0,0.013
2314.0,0.0132
2313.0,0.0131
2312.0,0.0129
2311.0,0.0127
2310.0,0.0127
2309.0,0.0128
2308.0,0.013
2307.0,0.013
2306.0,0.013
2305.0,0.013
2304.0,0.0131
2303.0,0.0131
2302.0,0.0132
2301.0,0.0132
2300.0,0.0133
2299.0,0.0132
2298.0,0.0133
2297.0,0.0133
2296.0,0.0133
2295.0,0.0133
2294.0,0.0134
2293.0,0.0134
2292.0,0.0135
2291.0,0.0135
2290.0,0.0135
2289.0,0.0135
2288.0,0.0135
2287.0,0.0135
2286.0,0.0135
2285.0,0.0135
2284.0,0.0134
2283.0,0.0134
2282.0,0.0134
2281.0,0.0134
2280.0,0.0134
2279.0,0.0134
2278.0,0.0133
2277.0,0.0133
2276.0,0.0132
2275.0,0.0132
2274.0,0.0132
2273.0,0.0132
2272.0,0.0132
2271.0,0.0131
2270.0,0.0131
2269.0,0.0131
2268.0,0.0132
2267.0,0.0133
2266.0,0.0134
2265.0,0.0134
2264.0,0.0134
2263.0,0.0134
2262.0,0.0134
2261.0,0.0134
2260.0,0.0134
2259.0,0.0133
2258.0,0.0134
2257.0,0.0134
2256.0,0.0135
2255.0,0.0135
2254.0,0.0135
2253.0,0.0135
2252.0,0.0135
2251.0,0.0135
2250.0,0.0135
2249.0,0.0135
2248.0,0.0135
2247.0,0.0135
2246.0,0.0135
2245.0,0.0135
2244.0,0.0135
2243.0,0.0134
2242.0,0.0134
2241.0,0.0134
2240.0,0.0134
2239.0,0.0135
2238.0,0.0135
2237.0,0.0135
2236.0,0.0136
2235.0,0.0136
2234.0,0.0136
2233.0,0.0136
2232.0,0.0136
2231.0,0.0135
2230.0,0.0135
2229.0,0.0135
2228.0,0.0134
2227.0,0.0134
2226.0,0.0134
2225.0,0.0134
2224.0,0.0133
2223.0,0.0133
2222.0,0.0133
2221.0,0.0133
2220.0,0.0133
2219.0,0.0134
2218.0,0.0134
2217.0,0.0134
2216.0,0.0134
2215.0,0.0134
2214.0,0.0134
2213.0,0.0134
2212.0,0.0134
2211.0,0.0134
2210.0,0.0134
2209.0,0.0133
2208.0,0.0133
2207.0,0.0134
2206.0,0.0134
2205.0,0.0134
2204.0,0.0134
2203.0,0.0134
2202.0,0.0134
2201.0,0.0134
2200.0,0.0135
2199.0,0.0135
2198.0,0.0135
2197.0,0.0135
2196.0,0.0134
2195.0,0.0134
2194.0,0.0134
2193.0,0.0134
2192.0,0.0134
2191.0,0.0134
2190.0,0.0133
2189.0,0.0133
2188.0,0.0133
2187.0,0.0134
2186.0,0.0134
2185.0,0.0134
2184.0,0.0134
2183.0,0.0134
2182.0,0.0134
2181.0,0.0134
2180.0,0.0134
2179.0,0.0134
2178.0,0.0134
2177.0,0.0134
2176.0,0.0133
2175.0,0.0133
2174.0,0.0133
2173.0,0.0134
2172.0,0.0134
2171.0,0.0134
2170.0,0.0134
2169.0,0.0133
2168.0,0.0133
2167.0,0.0133
2166.0,0.0134
2165.0,0.0134
2164.0,0.0134
2163.0,0.0133
2162.0,0.0133
2161.0,0.0133
2160.0,0.0132
2159.0,0.0132
2158.0,0.0132
2157.0,0.0132
2156.0,0.0132
2155.0,0.0133
2154.0,0.0133
2153.0,0.0133
2152.0,0.0132
2151.0,0.0132
2150.0,0.0132
2149.0,0.0132
2148.0,0.0132
2147.0,0.0132
2146.0,0.0132
2145.0,0.0131
2144.0,0.0131
2143.0,0.013
2142.0,0.013
2141.0,0.013
2140.0,0.0131
2139.0,0.0131
2138.0,0.0131
2137.0,0.0132
2136.0,0.0132
2135.0,0.0132
2134.0,0.0132
2133.0,0.0132
2132.0,0.0132
2131.0,0.0132
2130.0,0.0132
2129.0,0.0132
2128.0,0.0132
2127.0,0.0131
2126.0,0.0131
2125.0,0.0131
2124.0,0.0131
2123.0,0.0131
2122.0,0.0131
2121.0,0.0131
2120.0,0.0131
2119.0,0.0131
2118.0,0.0131
2117.0,0.013
2116.0,0.013
2115.0,0.013
2114.0,0.0129
2113.0,0.0129
2112.0,0.0129
2111.0,0.013
2110.0,0.013
2109.0,0.013
2108.0,0.013
2107.0,0.013
2106.0,0.013
2105.0,0.0131
2104.0,0.0131
2103.0,0.013
2102.0,0.013
2101.0,0.0129
2100.0,0.0129
2099.0,0.0129
2098.0,0.0129
2097.0,0.0129
2096.0,0.0129
2095.0,0.0129
2094.0,0.0129
2093.0,0.013
2092.0,0.013
2091.0,0.013
2090.0,0.0129
2089.0,0.0129
2088.0,0.0129
2087.0,0.0129
2086.0,0.0129
2085.0,0.013
2084.0,0.013
2083.0,0.013
2082.0,0.0129
2081.0,0.0129
2080.0,0.0129
2079.0,0.0129
2078.0,0.0129
2077.0,0.0129
2076.0,0.0129
2075.0,0.0128
2074.0,0.0128
2073.0,0.0128
2072.0,0.0128
2071.0,0.0128
2070.0,0.0128
2069.0,0.0128
2068.0,0.0128
2067.0,0.0128
2066.0,0.0128
2065.0,0.0128
2064.0,0.0128
2063.0,0.0128
2062.0,0.0128
2061.0,0.0128
2060.0,0.0128
2059.0,0.0128
2058.0,0.0128
2057.0,0.0128
2056.0,0.0128
2055.0,0.0128
2054.0,0.0128
2053.0,0.0127
2052.0,0.0127
2051.0,0.0128
2050.0,0.0128
2049.0,0.0128
2048.0,0.0128
2047.0,0.0128
2046.0,0.0128
2045.0,0.0128
2044.0,0.0128
2043.0,0.0128
2042.0,0.0128
2041.0,0.0128
2040.0,0.0128
2039.0,0.0128
2038.0,0.0128
2037.0,0.0128
2036.0,0.0128
2035.0,0.0128
2034.0,0.0128
2033.0,0.0128
2032.0,0.0128
2031.0,0.0128
2030.0,0.0128
2029.0,0.0128
2028.0,0.0128
2027.0,0.0128
2026.0,0.0128
2025.0,0.0128
2024.0,0.0128
2023.0,0.0128
2022.0,0.0127
2021.0,0.0127
2020.0,0.0126
2019.0,0.0126
2018.0,0.0126
2017.0,0.0127
2016.0,0.0128
2015.0,0.0128
2014.0,0.0128
2013.0,0.0127
2012.0,0.0127
2011.0,0.0127
2010.0,0.0127
2009.0,0.0127
2008.0,0.0127
2007.0,0.0128
2006.0,0.0128
2005.0,0.0128
2004.0,0.0127
2003.0,0.0127
2002.0,0.0126
2001.0,0.0126
2000.0,0.0127
1999.0,0.0127
1998.0,0.0127
1997.0,0.0128
1996.0,0.0128
1995.0,0.0128
1994.0,0.0128
1993.0,0.0128
1992.0,0.0128
1991.0,0.0128
1990.0,0.0128
1989.0,0.0128
1988.0,0.0128
1987.0,0.0128
1986.0,0.0128
1985.0,0.0128
1984.0,0.0128
1983.0,0.0127
1982.0,0.0127
1981.0,0.0127
1980.0,0.0127
1979.0,0.0127
1978.0,0.0126
1977.0,0.0126
1976.0,0.0127
1975.0,0.0127
1974.0,0.0127
1973.0,0.0127
1972.0,0.0127
1971.0,0.0127
1970.0,0.0127
1969.0,0.0127
1968.0,0.0128
1967.0,0.0128
1966.0,0.0128
1965.0,0.0128
1964.0,0.0128
1963.0,0.0128
1962.0,0.0128
1961.0,0.0128
1960.0,0.0128
1959.0,0.0128
1958.0,0.0128
1957.0,0.0128
1956.0,0.0128
1955.0,0.0128
1954.0,0.0128
1953.0,0.0128
1952.0,0.0128
1951.0,0.0128
1950.0,0.0128
1949.0,0.0127
1948.0,0.0127
1947.0,0.0127
1946.0,0.0128
1945.0,0.0129
1944.0,0.0129
1943.0,0.0129
1942.0,0.0129
1941.0,0.0129
1940.0,0.0129
1939.0,0.0128
1938.0,0.0128
1937.0,0.0128
1936.0,0.0128
1935.0,0.0128
1934.0,0.0128
1933.0,0.0127
1932.0,0.0127
1931.0,0.0127
1930.0,0.0127
1929.0,0.0127
1928.0,0.0127
1927.0,0.0128
1926.0,0.0128
1925.0,0.0128
1924.0,0.0128
1923.0,0.0129
1922.0,0.0129
1921.0,0.0129
1920.0,0.0129
1919.0,0.0129
1918.0,0.0129
1917.0,0.0128
1916.0,0.0128
1915.0,0.0128
1914.0,0.0128
1913.0,0.0128
1912.0,0.0129
1911.0,0.0129
1910.0,0.0129
1909.0,0.0129
1908.0,0.0129
1907.0,0.0129
1906.0,0.0129
1905.0,0.0128
1904.0,0.0128
1903.0,0.0128
1902.0,0.0128
1901.0,0.0128
1900.0,0.0128
1899.0,0.0128
1898.0,0.0128
1897.0,0.0129
1896.0,0.0129
1895.0,0.0129
1894.0,0.0129
1893.0,0.0129
1892.0,0.0129
1891.0,0.0129
1890.0,0.0129
1889.0,0.0129
1888.0,0.0129
1887.0,0.0129
1886.0,0.0128
1885.0,0.0128
1884.0,0.0127
1883.0,0.0127
1882.0,0.0127
1881.0,0.0128
1880.0,0.0128
1879.0,0.0128
1878.0,0.0128
1877.0,0.0127
1876.0,0.0127
1875.0,0.0127
1874.0,0.0128
1873.0,0.0128
1872.0,0.0128
1871.0,0.0128
1870.0,0.0127
1869.0,0.0127
1868.0,0.0128
1867.0,0.0128
1866.0,0.0129
1865.0,0.0129
1864.0,0.0128
1863.0,0.0128
1862.0,0.0128
1861.0,0.0128
1860.0,0.0128
1859.0,0.0128
1858.0,0.0128
1857.0,0.0128
1856.0,0.0128
1855.0,0.0128
1854.0,0.0128
1853.0,0.0128
1852.0,0.0128
1851.0,0.0128
1850.0,0.0128
1849.0,0.0128
1848.0,0.0128
1847.0,0.0128
1846.0,0.0127
1845.0,0.0127
1844.0,0.0127
1843.0,0.0128
1842.0,0.0129
1841.0,0.0129
1840.0,0.0129
1839.0,0.0129
1838.0,0.0129
1837.0,0.0129
1836.0,0.0129
1835.0,0.0129
1834.0,0.0129
1833.0,0.0129
1832.0,0.0129
1831.0,0.0129
1830.0,0.0129
1829.0,0.0129
1828.0,0.0129
1827.0,0.0129
1826.0,0.0128
1825.0,0.0128
1824.0,0.0128
1823.0,0.0128
1822.0,0.0127
1821.0,0.0127
1820.0,0.0127
1819.0,0.0127
1818.0,0.0127
1817.0,0.0127
1816.0,0.0127
1815.0,0.0127
1814.0,0.0128
1813.0,0.0129
1812.0,0.0129
1811.0,0.0129
1810.0,0.0129
1809.0,0.0129
1808.0,0.0128
1807.0,0.0128
1806.0,0.0127
1805.0,0.0127
1804.0,0.0127
1803.0,0.0127
1802.0,0.0127
1801.0,0.0128
1800.0,0.0129
1799.0,0.0129
1798.0,0.0129
1797.0,0.0128
1796.0,0.0128
1795.0,0.0127
1794.0,0.0126
1793.0,0.0127
1792.0,0.0128
1791.0,0.0129
1790.0,0.0129
1789.0,0.0129
1788.0,0.0129
1787.0,0.0129
1786.0,0.0129
1785.0,0.0129
1784.0,0.0129
1783.0,0.013
1782.0,0.013
1781.0,0.013
1780.0,0.013
1779.0,0.013
1778.0,0.0129
1777.0,0.0128
1776.0,0.0128
1775.0,0.0128
1774.0,0.0128
1773.0,0.0128
1772.0,0.0128
1771.0,0.0129
1770.0,0.0129
1769.0,0.0128
1768.0,0.0128
1767.0,0.0128
1766.0,0.0129
1765.0,0.013
1764.0,0.0131
1763.0,0.0131
1762.0,0.0131
1761.0,0.0131
1760.0,0.0131
1759.0,0.0132
1758.0,0.0132
1757.0,0.0133
1756.0,0.0133
1755.0,0.0134
1754.0,0.0134
1753.0,0.0135
1752.0,0.0136
1751.0,0.0137
1750.0,0.014
1749.0,0.0142
1748.0,0.0144
1747.0,0.0145
1746.0,0.0145
1745.0,0.0145
1744.0,0.0146
1743.0,0.0147
1742.0,0.0147
1741.0,0.0147
1740.0,0.0147
1739.0,0.0146
1738.0,0.0146
1737.0,0.0146
1736.0,0.0146
1735.0,0.0145
1734.0,0.0145
1733.0,0.0146
1732.0,0.0146
1731.0,0.0146
1730.0,0.0146
1729.0,0.0145
1728.0,0.0144
1727.0,0.0144
1726.0,0.0143
1725.0,0.0143
1724.0,0.0143
1723.0,0.0143
1722.0,0.0144
1721.0,0.0144
1720.0,0.0144
1719.0,0.0142
1718.0,0.014
1717.0,0.014
1716.0,0.0141
1715.0,0.0142
1714.0,0.0143
1713.0,0.0144
1712.0,0.0143
1711.0,0.0143
1710.0,0.0143
1709.0,0.0143
1708.0,0.0143
1707.0,0.0143
1706.0,0.0143
1705.0,0.0143
1704.0,0.0144
1703.0,0.0144
1702.0,0.0143
1701.0,0.0142
1700.0,0.0143
1699.0,0.0144
1698.0,0.0146
1697.0,0.0146
1696.0,0.0146
1695.0,0.0145
1694.0,0.0145
1693.0,0.0146
1692.0,0.0147
1691.0,0.0148
1690.0,0.0148
1689.0,0.0148
1688.0,0.0148
1687.0,0.0148
1686.0,0.0149
1685.0,0.0149
1684.0,0.0152
1683.0,0.0152
1682.0,0.0151
1681.0,0.0151
1680.0,0.0151
1679.0,0.0151
1678.0,0.0151
1677.0,0.015
1676.0,0.015
1675.0,0.0151
1674.0,0.0152
1673.0,0.0152
1672.0,0.0153
1671.0,0.0153
1670.0,0.0153
1669.0,0.0154
1668.0,0.0153
1667.0,0.0153
1666.0,0.0154
1665.0,0.0154
1664.0,0.0154
1663.0,0.0154
1662.0,0.0155
1661.0,0.0155
1660.0,0.0155
1659.0,0.0155
1658.0,0.0154
1657.0,0.0154
1656.0,0.0155
1655.0,0.0155
1654.0,0.0155
1653.0,0.0156
1652.0,0.0156
1651.0,0.0156
1650.0,0.0157
1649.0,0.0158
1648.0,0.0158
1647.0,0.0158
1646.0,0.0158
1645.0,0.0157
1644.0,0.0157
1643.0,0.0157
1642.0,0.0156
1641.0,0.0157
1640.0,0.0157
1639.0,0.0157
1638.0,0.0157
1637.0,0.0156
1636.0,0.0156
1635.0,0.0156
1634.0,0.0156
1633.0,0.0155
1632.0,0.0155
1631.0,0.0154
1630.0,0.0153
1629.0,0.0153
1628.0,0.0153
1627.0,0.0153
1626.0,0.0154
1625.0,0.0154
1624.0,0.0154
1623.0,0.0154
1622.0,0.0153
1621.0,0.0152
1620.0,0.0151
1619.0,0.0151
1618.0,0.0151
1617.0,0.015
1616.0,0.015
1615.0,0.0149
1614.0,0.0149
1613.0,0.0148
1612.0,0.0147
1611.0,0.0147
1610.0,0.0147
1609.0,0.0148
1608.0,0.0148
1607.0,0.0149
1606.0,0.0149
1605.0,0.015
1604.0,0.015
1603.0,0.0151
1602.0,0.0151
1601.0,0.015
1600.0,0.0149
1599.0,0.0148
1598.0,0.0147
1597.0,0.0146
1596.0,0.0145
1595.0,0.0145
1594.0,0.0145
1593.0,0.0144
1592.0,0.0143
1591.0,0.0142
1590.0,0.0141
1589.0,0.0141
1588.0,0.0141
1587.0,0.0141
1586.0,0.0141
1585.0,0.0141
1584.0,0.0141
1583.0,0.0141
1582.0,0.0141
1581.0,0.0141
1580.0,0.0141
1579.0,0.0141
1578.0,0.0141
1577.0,0.014
1576.0,0.0139
1575.0,0.0139
1574.0,0.0139
1573.0,0.0139
1572.0,0.0139
1571.0,0.0138
1570.0,0.0137
1569.0,0.0137
1568.0,0.0137
1567.0,0.0138
1566.0,0.0138
1565.0,0.0138
1564.0,0.0138
1563.0,0.0138
1562.0,0.0138
1561.0,0.0137
1560.0,0.0136
1559.0,0.0138
1558.0,0.0139
1557.0,0.0137
1556.0,0.0137
1555.0,0.0138
1554.0,0.0137
1553.0,0.0138
1552.0,0.0138
1551.0,0.0137
1550.0,0.0137
1549.0,0.0137
1548.0,0.0137
1547.0,0.0137
1546.0,0.0137
1545.0,0.0138
1544.0,0.014
1543.0,0.014
1542.0,0.014
1541.0,0.0141
1540.0,0.014
1539.0,0.0138
1538.0,0.0136
1537.0,0.0136
1536.0,0.0137
1535.0,0.0137
1534.0,0.0136
1533.0,0.0136
1532.0,0.0135
1531.0,0.0134
1530.0,0.0133
1529.0,0.0133
1528.0,0.0134
1527.0,0.0133
1526.0,0.0132
1525.0,0.0132
1524.0,0.0131
1523.0,0.013
1522.0,0.0129
1521.0,0.013
1520.0,0.013
1519.0,0.0131
1518.0,0.0131
1517.0,0.0131
1516.0,0.0131
1515.0,0.013
1514.0,0.0129
1513.0,0.0129
1512.0,0.013
1511.0,0.013
1510.0,0.013
1509.0,0.013
1508.0,0.0131
1507.0,0.0132
1506.0,0.013
1505.0,0.0129
1504.0,0.0129
1503.0,0.0129
1502.0,0.0129
1501.0,0.013
1500.0,0.0132
1499.0,0.0133
1498.0,0.0135
1497.0,0.014
1496.0,0.0145
1495.0,0.0148
1494.0,0.0149
1493.0,0.015
1492.0,0.015
1491.0,0.0148
1490.0,0.0145
1489.0,0.0144
1488.0,0.0145
1487.0,0.0144
1486.0,0.0144
1485.0,0.0146
1484.0,0.0148
1483.0,0.015
1482.0,0.0154
1481.0,0.0159
1480.0,0.0165
1479.0,0.0172
1478.0,0.0182
1477.0,0.0199
1476.0,0.0224
1475.0,0.0254
1474.0,0.0292
1473.0,0.0343
1472.0,0.0393
1471.0,0.0433
1470.0,0.047
1469.0,0.0512
1468.0,0.056
1467.0,0.0616
1466.0,0.0687
1465.0,0.0772
1464.0,0.0846
1463.0,0.0891
1462.0,0.0915
1461.0,0.0929
1460.0,0.0936
1459.0,0.0938
1458.0,0.0946
1457.0,0.0963
1456.0,0.0973
1455.0,0.0973
1454.0,0.097
1453.0,0.0964
1452.0,0.095
1451.0,0.0929
1450.0,0.0899
1449.0,0.0855
1448.0,0.0797
1447.0,0.0735
1446.0,0.068
1445.0,0.0633
1444.0,0.059
1443.0,0.0553
1442.0,0.0525
1441.0,0.0504
1440.0,0.049
1439.0,0.0483
1438.0,0.0484
1437.0,0.0489
1436.0,0.0487
1435.0,0.0473
1434.0,0.0449
1433.0,0.0418
1432.0,0.0384
1431.0,0.0353
1430.0,0.0328
1429.0,0.0308
1428.0,0.0294
1427.0,0.0285
1426.0,0.0277
1425.0,0.027
1424.0,0.0262
1423.0,0.0257
1422.0,0.0253
1421.0,0.0248
1420.0,0.0242
1419.0,0.0238
1418.0,0.0236
1417.0,0.0233
1416.0,0.0229
1415.0,0.0227
1414.0,0.0225
1413.0,0.0221
1412.0,0.0218
1411.0,0.0216
1410.0,0.0214
1409.0,0.0212
1408.0,0.021
1407.0,0.0208
1406.0,0.0207
1405.0,0.0204
1404.0,0.0202
1403.0,0.02
1402.0,0.02
1401.0,0.0198
1400.0,0.0196
1399.0,0.0194
1398.0,0.0194
1397.0,0.0192
1396.0,0.019
1395.0,0.019
1394.0,0.0191
1393.0,0.019
1392.0,0.0189
1391.0,0.019
1390.0,0.0194
1389.0,0.0198
1388.0,0.0208
1387.0,0.0225
1386.0,0.0252
1385.0,0.0288
1384.0,0.034
1383.0,0.0416
1382.0,0.0522
1381.0,0.0658
1380.0,0.083
1379.0,0.103
1378.0,0.1224
1377.0,0.1372
1376.0,0.1437
1375.0,0.1395
1374.0,0.1261
1373.0,0.1095
1372.0,0.0942
1371.0,0.0812
1370.0,0.07
1369.0,0.0609
1368.0,0.0544
1367.0,0.0502
1366.0,0.0476
1365.0,0.0463
1364.0,0.0461
1363.0,0.0469
1362.0,0.0485
1361.0,0.0502
1360.0,0.0514
1359.0,0.0518
1358.0,0.0511
1357.0,0.0493
1356.0,0.0468
1355.0,0.0439
1354.0,0.0411
1353.0,0.0387
1352.0,0.0367
1351.0,0.035
1350.0,0.0335
1349.0,0.0323
1348.0,0.0313
1347.0,0.0304
1346.0,0.0296
1345.0,0.0289
1344.0,0.0284
1343.0,0.0278
1342.0,0.0274
1341.0,0.027
1340.0,0.0267
1339.0,0.0265
1338.0,0.0264
1337.0,0.0263
1336.0,0.0263
1335.0,0.0263
1334.0,0.0264
1333.0,0.0267
1332.0,0.027
1331.0,0.0272
1330.0,0.0273
1329.0,0.0273
1328.0,0.027
1327.0,0.0267
1326.0,0.0262
1325.0,0.0257
1324.0,0.0252
1323.0,0.0248
1322.0,0.0245
1321.0,0.0242
1320.0,0.024
1319.0,0.0238
1318.0,0.0236
1317.0,0.0235
1316.0,0.0233
1315.0,0.0232
1314.0,0.0231
1313.0,0.0231
1312.0,0.0231
1311.0,0.0232
1310.0,0.0233
1309.0,0.0236
1308.0,0.0241
1307.0,0.0248
1306.0,0.0255
1305.0,0.026
1304.0,0.0262
1303.0,0.0261
1302.0,0.0258
1301.0,0.0256
1300.0,0.0255
1299.0,0.0255
1298.0,0.0256
1297.0,0.0257
1296.0,0.0257
1295.0,0.0256
1294.0,0.0253
1293.0,0.025
1292.0,0.0247
1291.0,0.0243
1290.0,0.024
1289.0,0.0237
1288.0,0.0235
1287.0,0.0233
1286.0,0.0231
1285.0,0.0229
1284.0,0.0227
1283.0,0.0225
1282.0,0.0223
1281.0,0.0222
1280.0,0.0221
1279.0,0.0221
1278.0,0.022
1277.0,0.022
1276.0,0.022
1275.0,0.022
1274.0,0.022
1273.0,0.0219
1272.0,0.0219
1271.0,0.0218
1270.0,0.0219
1269.0,0.022
1268.0,0.022
1267.0,0.0221
1266.0,0.0222
1265.0,0.0224
1264.0,0.0225
1263.0,0.0227
1262.0,0.023
1261.0,0.0232
1260.0,0.0236
1259.0,0.024
1258.0,0.0245
1257.0,0.0249
1256.0,0.0252
1255.0,0.0251
1254.0,0.0248
1253.0,0.0243
1252.0,0.0238
1251.0,0.0234
1250.0,0.0231
1249.0,0.0229
1248.0,0.0227
1247.0,0.0225
1246.0,0.0224
1245.0,0.0223
1244.0,0.0222
1243.0,0.0222
1242.0,0.0221
1241.0,0.022
1240.0,0.0219
1239.0,0.0219
1238.0,0.0218
1237.0,0.0218
1236.0,0.0218
1235.0,0.0218
1234.0,0.0218
1233.0,0.0218
1232.0,0.0218
1231.0,0.0217
1230.0,0.0217
1229.0,0.0217
1228.0,0.0218
1227.0,0.0219
1226.0,0.0221
1225.0,0.0223
1224.0,0.0225
1223.0,0.0228
1222.0,0.0231
1221.0,0.0233
1220.0,0.0235
1219.0,0.0236
1218.0,0.0235
1217.0,0.0234
1216.0,0.0233
1215.0,0.0231
1214.0,0.0229
1213.0,0.0228
1212.0,0.0227
1211.0,0.0227
1210.0,0.0226
1209.0,0.0226
1208.0,0.0226
1207.0,0.0226
1206.0,0.0226
1205.0,0.0226
1204.0,0.0226
1203.0,0.0226
1202.0,0.0226
1201.0,0.0226
1200.0,0.0226
1199.0,0.0226
1198.0,0.0227
1197.0,0.0228
1196.0,0.0229
1195.0,0.0229
1194.0,0.0229
1193.0,0.023
1192.0,0.023
1191.0,0.023
1190.0,0.023
1189.0,0.0231
1188.0,0.0232
1187.0,0.0233
1186.0,0.0234
1185.0,0.0236
1184.0,0.0237
1183.0,0.0238
1182.0,0.024
1181.0,0.0242
1180.0,0.0244
1179.0,0.0247
1178.0,0.0251
1177.0,0.0256
1176.0,0.0263
1175.0,0.0272
1174.0,0.0285
1173.0,0.0302
1172.0,0.0323
1171.0,0.0346
1170.0,0.0368
1169.0,0.0387
1168.0,0.0399
1167.0,0.0403
1166.0,0.04
1165.0,0.0393
1164.0,0.0384
1163.0,0.0376
1162.0,0.0369
1161.0,0.0363
1160.0,0.0359
1159.0,0.0355
1158.0,0.0353
1157.0,0.0351
1156.0,0.0351
1155.0,0.0351
1154.0,0.0352
1153.0,0.0351
1152.0,0.0349
1151.0,0.0345
1150.0,0.0339
1149.0,0.0333
1148.0,0.0326
1147.0,0.032
1146.0,0.0313
1145.0,0.0307
1144.0,0.0302
1143.0,0.0297
1142.0,0.0291
1141.0,0.0287
1140.0,0.0282
1139.0,0.0279
1138.0,0.0276
1137.0,0.0274
1136.0,0.0272
1135.0,0.027
1134.0,0.0268
1133.0,0.0266
1132.0,0.0265
1131.0,0.0265
1130.0,0.0264
1129.0,0.0263
1128.0,0.0263
1127.0,0.0263
1126.0,0.0262
1125.0,0.0262
1124.0,0.0263
1123.0,0.0263
1122.0,0.0264
1121.0,0.0265
1120.0,0.0266
1119.0,0.0267
1118.0,0.0267
1117.0,0.0268
1116.0,0.0268
1115.0,0.0269
1114.0,0.027
1113.0,0.0272
1112.0,0.0273
1111.0,0.0275
1110.0,0.0278
1109.0,0.0281
1108.0,0.0285
1107.0,0.029
1106.0,0.0296
1105.0,0.0302
1104.0,0.0307
1103.0,0.031
1102.0,0.0311
1101.0,0.031
1100.0,0.0307
1099.0,0.0303
1098.0,0.0298
1097.0,0.0295
1096.0,0.0291
1095.0,0.0288
1094.0,0.0286
1093.0,0.0285
1092.0,0.0284
1091.0,0.0282
1090.0,0.028
1089.0,0.0279
1088.0,0.0277
1087.0,0.0276
1086.0,0.0275
1085.0,0.0274
1084.0,0.0273
1083.0,0.0273
1082.0,0.0273
1081.0,0.0272
1080.0,0.027
1079.0,0.0268
1078.0,0.0266
1077.0,0.0265
1076.0,0.0264
1075.0,0.0264
1074.0,0.0263
1073.0,0.0263
1072.0,0.0263
1071.0,0.0263
1070.0,0.0262
1069.0,0.0261
1068.0,0.026
1067.0,0.026
1066.0,0.0259
1065.0,0.0258
1064.0,0.0257
1063.0,0.0256
1062.0,0.0256
1061.0,0.0256
1060.0,0.0256
1059.0,0.0256
1058.0,0.0256
1057.0,0.0256
1056.0,0.0256
1055.0,0.0256
1054.0,0.0256
1053.0,0.0257
1052.0,0.0258
1051.0,0.026
1050.0,0.0262
1049.0,0.0263
1048.0,0.0265
1047.0,0.0267
1046.0,0.0269
1045.0,0.027
1044.0,0.0269
1043.0,0.0267
1042.0,0.0264
1041.0,0.0261
1040.0,0.0258
1039.0,0.0255
1038.0,0.0253
1037.0,0.0251
1036.0,0.0249
1035.0,0.0248
1034.0,0.0246
1033.0,0.0245
1032.0,0.0244
1031.0,0.0244
1030.0,0.0245
1029.0,0.0244
1028.0,0.0244
1027.0,0.0244
1026.0,0.0244
1025.0,0.0244
1024.0,0.0245
1023.0,0.0245
1022.0,0.0244
1021.0,0.0244
1020.0,0.0245
1019.0,0.0245
1018.0,0.0245
1017.0,0.0245
1016.0,0.0244
1015.0,0.0242
1014.0,0.0241
1013.0,0.0239
1012.0,0.0239
1011.0,0.0238
1010.0,0.0239
1009.0,0.024
1008.0,0.0242
1007.0,0.0245
1006.0,0.025
1005.0,0.0256
1004.0,0.0267
1003.0,0.0281
1002.0,0.0301
1001.0,0.0327
1000.0,0.0355
999.0,0.0379
998.0,0.0392
997.0,0.039
996.0,0.0374
995.0,0.035
994.0,0.0325
993.0,0.0302
992.0,0.0283
991.0,0.027
990.0,0.026
989.0,0.0253
988.0,0.0248
987.0,0.0244
986.0,0.0242
985.0,0.0242
984.0,0.0243
983.0,0.0248
982.0,0.0255
981.0,0.0266
980.0,0.0282
979.0,0.0303
978.0,0.033
977.0,0.0361
976.0,0.0394
975.0,0.0426
974.0,0.045
973.0,0.046
972.0,0.0453
971.0,0.043
970.0,0.0397
969.0,0.0364
968.0,0.0336
967.0,0.0314
966.0,0.0298
965.0,0.0286
964.0,0.0277
963.0,0.027
962.0,0.0265
961.0,0.026
960.0,0.0256
959.0,0.0253
958.0,0.025
957.0,0.0247
956.0,0.0244
955.0,0.0242
954.0,0.024
953.0,0.0238
952.0,0.0237
951.0,0.0236
950.0,0.0235
949.0,0.0235
948.0,0.0235
947.0,0.0235
946.0,0.0236
945.0,0.0237
944.0,0.024
943.0,0.0243
942.0,0.0247
941.0,0.0248
940.0,0.0249
939.0,0.0247
938.0,0.0244
937.0,0.024
936.0,0.0235
935.0,0.0231
934.0,0.0228
933.0,0.0226
932.0,0.0225
931.0,0.0224
930.0,0.0224
929.0,0.0223
928.0,0.0222
927.0,0.0221
926.0,0.0221
925.0,0.022
924.0,0.022
923.0,0.022
922.0,0.022
921.0,0.0219
920.0,0.0218
919.0,0.0218
918.0,0.0218
917.0,0.0219
916.0,0.022
915.0,0.022
914.0,0.022
913.0,0.0221
912.0,0.0222
911.0,0.0223
910.0,0.0224
909.0,0.0226
908.0,0.0228
907.0,0.0232
906.0,0.0238
905.0,0.0247
904.0,0.0259
903.0,0.0274
902.0,0.029
901.0,0.0306
900.0,0.0318
899.0,0.0324
898.0,0.0321
897.0,0.0311
896.0,0.0297
895.0,0.0282
894.0,0.0269
893.0,0.0259
892.0,0.0252
891.0,0.0248
890.0,0.0244
889.0,0.0242
888.0,0.0239
887.0,0.0238
886.0,0.0236
885.0,0.0235
884.0,0.0234
883.0,0.0233
882.0,0.0232
881.0,0.0232
880.0,0.0232
879.0,0.0233
878.0,0.0235
877.0,0.0235
876.0,0.0235
875.0,0.0235
874.0,0.0234
873.0,0.0233
872.0,0.0231
871.0,0.0231
870.0,0.0231
869.0,0.0231
868.0,0.0231
867.0,0.023
866.0,0.023
865.0,0.023
864.0,0.023
863.0,0.0231
862.0,0.0231
861.0,0.0231
860.0,0.0232
859.0,0.0233
858.0,0.0234
857.0,0.0236
856.0,0.0237
855.0,0.0238
854.0,0.024
853.0,0.0241
852.0,0.0243
851.0,0.0245
850.0,0.0248
849.0,0.0252
848.0,0.0257
847.0,0.0265
846.0,0.0277
845.0,0.0296
844.0,0.0325
843.0,0.0359
842.0,0.0387
841.0,0.0397
840.0,0.0385
839.0,0.0358
838.0,0.0329
837.0,0.0306
836.0,0.0291
835.0,0.028
834.0,0.0273
833.0,0.0267
832.0,0.0262
831.0,0.0258
830.0,0.0256
829.0,0.0254
828.0,0.0253
827.0,0.0253
826.0,0.0253
825.0,0.0253
824.0,0.0252
823.0,0.0251
822.0,0.025
821.0,0.0249
820.0,0.025
819.0,0.0251
818.0,0.0254
817.0,0.0259
816.0,0.0266
815.0,0.0274
814.0,0.0286
813.0,0.0299
812.0,0.0314
811.0,0.0329
810.0,0.0342
809.0,0.035
808.0,0.0351
807.0,0.0345
806.0,0.0333
805.0,0.032
804.0,0.0307
803.0,0.0297
802.0,0.0289
801.0,0.0283
800.0,0.0279
799.0,0.0276
798.0,0.0273
797.0,0.0271
796.0,0.0268
795.0,0.0265
794.0,0.0262
793.0,0.0259
792.0,0.0257
791.0,0.0255
790.0,0.0254
789.0,0.0253
788.0,0.0252
787.0,0.025
786.0,0.0248
785.0,0.0247
784.0,0.0246
783.0,0.0245
782.0,0.0245
781.0,0.0244
780.0,0.0244
779.0,0.0245
778.0,0.0245
777.0,0.0246
776.0,0.0247
775.0,0.0247
774.0,0.0249
773.0,0.0252
772.0,0.0254
771.0,0.0255
770.0,0.0256
769.0,0.0257
768.0,0.0259
767.0,0.0261
766.0,0.0263
765.0,0.0265
764.0,0.0267
763.0,0.027
762.0,0.0272
761.0,0.0274
760.0,0.0276
759.0,0.0277
758.0,0.0278
757.0,0.0279
756.0,0.028
755.0,0.0281
754.0,0.0281
753.0,0.0282
752.0,0.0282
751.0,0.0282
750.0,0.0282
749.0,0.0282
748.0,0.0284
747.0,0.0285
746.0,0.0286
745.0,0.0286
744.0,0.0285
743.0,0.0282
742.0,0.0281
741.0,0.0281
740.0,0.0283
739.0,0.0284
738.0,0.0285
737.0,0.0286
736.0,0.0289
735.0,0.0296
734.0,0.0308
733.0,0.0325
732.0,0.0344
731.0,0.0358
730.0,0.0363
729.0,0.0358
728.0,0.0349
727.0,0.034
726.0,0.0335
725.0,0.0334
724.0,0.0335
723.0,0.0341
722.0,0.0351
721.0,0.0367
720.0,0.038
719.0,0.0382
718.0,0.0374
717.0,0.036
716.0,0.0347
715.0,0.0339
714.0,0.0334
713.0,0.0333
712.0,0.0332
711.0,0.0331
710.0,0.033
709.0,0.0331
708.0,0.0332
707.0,0.0336
706.0,0.0344
705.0,0.0355
704.0,0.0369
703.0,0.0387
702.0,0.0407
701.0,0.0429
700.0,0.0448
699.0,0.0457
698.0,0.0454
697.0,0.044
696.0,0.0418
695.0,0.0396
694.0,0.0376
693.0,0.036
692.0,0.0348
691.0,0.0341
690.0,0.0336
689.0,0.033
688.0,0.0321
687.0,0.031
686.0,0.0302
685.0,0.0299
684.0,0.0297
683.0,0.0296
682.0,0.0294
681.0,0.0292
680.0,0.029
679.0,0.029
678.0,0.0293
677.0,0.0297
676.0,0.03
675.0,0.0301
674.0,0.0304
673.0,0.0304
672.0,0.0298
671.0,0.0298
670.0,0.0321
669.0,0.0357
668.0,0.0371
667.0,0.0358
666.0,0.0329
665.0,0.0304
664.0,0.0299
663.0,0.0302
662.0,0.0303
661.0,0.0299
660.0,0.0296
659.0,0.0296
658.0,0.0296
657.0,0.0299
656.0,0.0302
655.0,0.0304
654.0,0.0304
653.0,0.0303
652.0,0.0302
651.0,0.0304
650.0,0.0308
649.0,0.0312
648.0,0.0313
647.0,0.0311
646.0,0.031
645.0,0.031
644.0,0.0309
643.0,0.0308
642.0,0.0311
641.0,0.0316
640.0,0.0322
639.0,0.0328
638.0,0.0334
637.0,0.0342
636.0,0.035
635.0,0.0353
634.0,0.035
633.0,0.0342
632.0,0.0334
631.0,0.0328
630.0,0.0324
629.0,0.032
628.0,0.0316
627.0,0.0316
626.0,0.0319
625.0,0.0322
624.0,0.0322
623.0,0.0319
622.0,0.0317
621.0,0.0317
620.0,0.0318
619.0,0.032
618.0,0.0321
617.0,0.032
616.0,0.0317
615.0,0.0316
614.0,0.0322
613.0,0.0335
612.0,0.0346
611.0,0.0351
610.0,0.0349
609.0,0.0346
608.0,0.0342
607.0,0.034
606.0,0.034
605.0,0.0339
604.0,0.0335
603.0,0.033
602.0,0.0333
601.0,0.0342
600.0,0.0348
