cm-1,A
4000.0,0.0062
3999.0,0.0063
3998.0,0.0063
3997.0,0.0064
3996.0,0.0064
3995.0,0.0065
3994.0,0.0064
3993.0,0.0064
3992.0,0.0062
3991.0,0.0061
3990.0,0.0061
3989.0,0.0061
3988.0,0.0062
3987.0,0.0063
3986.0,0.0062
3985.0,0.0061
3984.0,0.006
3983.0,0.006
3982.0,0.006
3981.0,0.0061
3980.0,0.0061
3979.0,0.0061
3978.0,0.0061
3977.0,0.0061
3976.0,0.0061
3975.0,0.0061
3974.0,0.0062
3973.0,0.0062
3972.0,0.0063
3971.0,0.0063
3970.0,0.0063
3969.0,0.0063
3968.0,0.0063
3967.0,0.0063
3966.0,0.0063
3965.0,0.0063
3964.0,0.0063
3963.0,0.0063
3962.0,0.0063
3961.0,0.0063
3960.0,0.0063
3959.0,0.0063
3958.0,0.0062
3957.0,0.0061
3956.0,0.0062
3955.0,0.0062
3954.0,0.0064
3953.0,0.0065
3952.0,0.0066
3951.0,0.0067
3950.0,0.0067
3949.0,0.0067
3948.0,0.0067
3947.0,0.0067
3946.0,0.0067
3945.0,0.0066
3944.0,0.0065
3943.0,0.0064
3942.0,0.0063
3941.0,0.0063
3940.0,0.0063
3939.0,0.0063
3938.0,0.0063
3937.0,0.0063
3936.0,0.0063
3935.0,0.0064
3934.0,0.0065
3933.0,0.0066
3932.0,0.0066
3931.0,0.0067
3930.0,0.0068
3929.0,0.0069
3928.0,0.0069
3927.0,0.0069
3926.0,0.0068
3925.0,0.0067
3924.0,0.0067
3923.0,0.0066
3922.0,0.0066
3921.0,0.0065
3920.0,0.0065
3919.0,0.0065
3918.0,0.0066
3917.0,0.0066
3916.0,0.0065
3915.0,0.0065
3914.0,0.0065
3913.0,0.0065
3912.0,0.0066
3911.0,0.0066
3910.0,0.0066
3909.0,0.0066
3908.0,0.0066
3907.0,0.0066
3906.0,0.0066
3905.0,0.0066
3904.0,0.0066
3903.0,0.0066
3902.0,0.0066
3901.0,0.0067
3900.0,0.0068
3899.0,0.0068
3898.0,0.0068
3897.0,0.0068
3896.0,0.0067
3895.0,0.0067
3894.0,0.0066
3893.0,0.0066
3892.0,0.0065
3891.0,0.0065
3890.0,0.0066
3889.0,0.0067
3888.0,0.0068
3887.0,0.0069
3886.0,0.0071
3885.0,0.0073
3884.0,0.0074
3883.0,0.0074
3882.0,0.0073
3881.0,0.0071
3880.0,0.007
3879.0,0.007
3878.0,0.0071
3877.0,0.0071
3876.0,0.0071
3875.0,0.0071
3874.0,0.0071
3873.0,0.0071
3872.0,0.0071
3871.0,0.0071
3870.0,0.0071
3869.0,0.0072
3868.0,0.0073
3867.0,0.0073
3866.0,0.0073
3865.0,0.0074
3864.0,0.0074
3863.0,0.0074
3862.0,0.0075
3861.0,0.0075
3860.0,0.0075
3859.0,0.0075
3858.0,0.0075
3857.0,0.0075
3856.0,0.0074
3855.0,0.0073
3854.0,0.0074
3853.0,0.0074
3852.0,0.0074
3851.0,0.0073
3850.0,0.0072
3849.0,0.0071
3848.0,0.0071
3847.0,0.0071
3846.0,0.0072
3845.0,0.0074
3844.0,0.0076
3843.0,0.0078
3842.0,0.008
3841.0,0.0081
3840.0,0.0081
3839.0,0.008
3838.0,0.0077
3837.0,0.0073
3836.0,0.0071
3835.0,0.007
3834.0,0.007
3833.0,0.007
3832.0,0.0071
3831.0,0.0071
3830.0,0.0071
3829.0,0.0072
3828.0,0.0073
3827.0,0.0074
3826.0,0.0075
3825.0,0.0076
3824.0,0.0077
3823.0,0.0078
3822.0,0.0078
3821.0,0.0079
3820.0,0.008
3819.0,0.008
3818.0,0.0081
3817.0,0.008
3816.0,0.0078
3815.0,0.0076
3814.0,0.0074
3813.0,0.0072
3812.0,0.0071
3811.0,0.0071
3810.0,0.0071
3809.0,0.0073
3808.0,0.0074
3807.0,0.0075
3806.0,0.0076
3805.0,0.0079
3804.0,0.0081
3803.0,0.0083
3802.0,0.0083
3801.0,0.0082
3800.0,0.008
3799.0,0.0078
3798.0,0.0076
3797.0,0.0074
3796.0,0.0073
3795.0,0.0072
3794.0,0.0072
3793.0,0.0071
3792.0,0.0071
3791.0,0.0072
3790.0,0.0073
3789.0,0.0074
3788.0,0.0076
3787.0,0.0077
3786.0,0.0076
3785.0,0.0076
3784.0,0.0075
3783.0,0.0074
3782.0,0.0074
3781.0,0.0073
3780.0,0.0073
3779.0,0.0073
3778.0,0.0072
3777.0,0.0072
3776.0,0.0072
3775.0,0.0072
3774.0,0.0073
3773.0,0.0074
3772.0,0.0074
3771.0,0.0074
3770.0,0.0074
3769.0,0.0076
3768.0,0.0076
3767.0,0.0077
3766.0,0.0077
3765.0,0.0077
3764.0,0.0078
3763.0,0.0078
3762.0,0.0079
3761.0,0.0079
3760.0,0.008
3759.0,0.0081
3758.0,0.0082
3757.0,0.0082
3756.0,0.0083
3755.0,0.0083
3754.0,0.0083
3753.0,0.0083
3752.0,0.0082
3751.0,0.0082
3750.0,0.0081
3749.0,0.008
3748.0,0.0079
3747.0,0.0078
3746.0,0.0077
3745.0,0.0076
3744.0,0.0075
3743.0,0.0074
3742.0,0.0074
3741.0,0.0074
3740.0,0.0075
3739.0,0.0075
3738.0,0.0077
3737.0,0.0077
3736.0,0.0078
3735.0,0.0079
3734.0,0.0079
3733.0,0.0078
3732.0,0.0075
3731.0,0.0073
3730.0,0.0071
3729.0,0.007
3728.0,0.007
3727.0,0.0071
3726.0,0.0073
3725.0,0.0074
3724.0,0.0073
3723.0,0.0073
3722.0,0.0072
3721.0,0.0073
3720.0,0.0074
3719.0,0.0075
3718.0,0.0076
3717.0,0.0077
3716.0,0.0078
3715.0,0.0078
3714.0,0.0078
3713.0,0.0077
3712.0,0.0076
3711.0,0.0075
3710.0,0.0074
3709.0,0.0073
3708.0,0.0073
3707.0,0.0073
3706.0,0.0074
3705.0,0.0075
3704.0,0.0075
3703.0,0.0075
3702.0,0.0076
3701.0,0.0076
3700.0,0.0076
3699.0,0.0076
3698.0,0.0076
3697.0,0.0076
3696.0,0.0076
3695.0,0.0077
3694.0,0.0079
3693.0,0.0082
3692.0,0.0084
3691.0,0.0085
3690.0,0.0085
3689.0,0.0083
3688.0,0.0081
3687.0,0.0079
3686.0,0.0078
3685.0,0.0078
3684.0,0.0078
3683.0,0.0078
3682.0,0.0079
3681.0,0.0081
3680.0,0.0082
3679.0,0.0084
3678.0,0.0086
3677.0,0.0088
3676.0,0.0089
3675.0,0.0089
3674.0,0.0089
3673.0,0.0089
3672.0,0.0088
3671.0,0.0086
3670.0,0.0084
3669.0,0.0084
3668.0,0.0083
3667.0,0.0082
3666.0,0.0082
3665.0,0.0081
3664.0,0.0081
3663.0,0.0081
3662.0,0.0081
3661.0,0.0082
3660.0,0.0083
3659.0,0.0084
3658.0,0.0085
3657.0,0.0087
3656.0,0.0089
3655.0,0.009
3654.0,0.0091
3653.0,0.0092
3652.0,0.0092
3651.0,0.0092
3650.0,0.0092
3649.0,0.0093
3648.0,0.0093
3647.0,0.0093
3646.0,0.0091
3645.0,0.009
3644.0,0.0089
3643.0,0.0088
3642.0,0.0089
3641.0,0.0089
3640.0,0.009
3639.0,0.0091
3638.0,0.0091
3637.0,0.009
3636.0,0.0089
3635.0,0.0088
3634.0,0.0088
3633.0,0.009
3632.0,0.0091
3631.0,0.0092
3630.0,0.0091
3629.0,0.009
3628.0,0.0091
3627.0,0.0092
3626.0,0.0093
3625.0,0.0094
3624.0,0.0096
3623.0,0.0097
3622.0,0.0098
3621.0,0.0099
3620.0,0.01
3619.0,0.0101
3618.0,0.0101
3617.0,0.0101
3616.0,0.0102
3615.0,0.0103
3614.0,0.0103
3613.0,0.0103
3612.0,0.0103
3611.0,0.0102
3610.0,0.0102
3609.0,0.0102
3608.0,0.0103
3607.0,0.0104
3606.0,0.0106
3605.0,0.0107
3604.0,0.0108
3603.0,0.0109
3602.0,0.0109
3601.0,0.011
3600.0,0.011
3599.0,0.011
3598.0,0.011
3597.0,0.011
3596.0,0.0109
3595.0,0.0108
3594.0,0.0108
3593.0,0.0109
3592.0,0.011
3591.0,0.0112
3590.0,0.0114
3589.0,0.0116
3588.0,0.0117
3587.0,0.0118
3586.0,0.0118
3585.0,0.0119
3584.0,0.0119
3583.0,0.0119
3582.0,0.0119
3581.0,0.0119
3580.0,0.0119
3579.0,0.012
3578.0,0.012
3577.0,0.0121
3576.0,0.0121
3575.0,0.0122
3574.0,0.0123
3573.0,0.0123
3572.0,0.0124
3571.0,0.0124
3570.0,0.0126
3569.0,0.0128
3568.0,0.0131
3567.0,0.0133
3566.0,0.0134
3565.0,0.0133
3564.0,0.0132
3563.0,0.0131
3562.0,0.013
3561.0,0.0131
3560.0,0.0132
3559.0,0.0133
3558.0,0.0134
3557.0,0.0135
3556.0,0.0135
3555.0,0.0135
3554.0,0.0136
3553.0,0.0137
3552.0,0.0138
3551.0,0.0139
3550.0,0.0139
3549.0,0.0139
3548.0,0.0138
3547.0,0.0138
3546.0,0.0138
3545.0,0.0139
3544.0,0.014
3543.0,0.014
3542.0,0.014
3541.0,0.0139
3540.0,0.014
3539.0,0.0141
3538.0,0.0143
3537.0,0.0144
3536.0,0.0145
3535.0,0.0146
3534.0,0.0146
3533.0,0.0146
3532.0,0.0147
3531.0,0.0148
3530.0,0.0149
3529.0,0.015
3528.0,0.0151
3527.0,0.0153
3526.0,0.0153
3525.0,0.0154
3524.0,0.0154
3523.0,0.0154
3522.0,0.0153
3521.0,0.0153
3520.0,0.0152
3519.0,0.0153
3518.0,0.0154
3517.0,0.0154
3516.0,0.0155
3515.0,0.0155
3514.0,0.0156
3513.0,0.0158
3512.0,0.0159
3511.0,0.016
3510.0,0.016
3509.0,0.016
3508.0,0.016
3507.0,0.016
3506.0,0.016
3505.0,0.016
3504.0,0.016
3503.0,0.0161
3502.0,0.0162
3501.0,0.0163
3500.0,0.0163
3499.0,0.0164
3498.0,0.0165
3497.0,0.0166
3496.0,0.0167
3495.0,0.0168
3494.0,0.0169
3493.0,0.0169
3492.0,0.0169
3491.0,0.0169
3490.0,0.017
3489.0,0.0171
3488.0,0.0172
3487.0,0.0172
3486.0,0.0172
3485.0,0.0173
3484.0,0.0173
3483.0,0.0174
3482.0,0.0174
3481.0,0.0174
3480.0,0.0174
3479.0,0.0175
3478.0,0.0176
3477.0,0.0177
3476.0,0.0178
3475.0,0.0179
3474.0,0.0178
3473.0,0.0178
3472.0,0.0177
3471.0,0.0177
3470.0,0.0178
3469.0,0.018
3468.0,0.0181
3467.0,0.0182
3466.0,0.0183
3465.0,0.0183
3464.0,0.0184
3463.0,0.0185
3462.0,0.0185
3461.0,0.0186
3460.0,0.0186
3459.0,0.0185
3458.0,0.0185
3457.0,0.0186
3456.0,0.0186
3455.0,0.0187
3454.0,0.0187
3453.0,0.0188
3452.0,0.0189
3451.0,0.0191
3450.0,0.0192
3449.0,0.0192
3448.0,0.0192
3447.0,0.0192
3446.0,0.0193
3445.0,0.0194
3444.0,0.0194
3443.0,0.0193
3442.0,0.0194
3441.0,0.0195
3440.0,0.0196
3439.0,0.0196
3438.0,0.0196
3437.0,0.0196
3436.0,0.0196
3435.0,0.0196
3434.0,0.0197
3433.0,0.0197
3432.0,0.0198
3431.0,0.0198
3430.0,0.0198
3429.0,0.0198
3428.0,0.0197
3427.0,0.0197
3426.0,0.0197
3425.0,0.0198
3424.0,0.0198
3423.0,0.0199
3422.0,0.02
3421.0,0.0201
3420.0,0.0203
3419.0,0.0204
3418.0,0.0204
3417.0,0.0203
3416.0,0.0202
3415.0,0.0202
3414.0,0.0202
3413.0,0.0203
3412.0,0.0205
3411.0,0.0207
3410.0,0.0208
3409.0,0.0209
3408.0,0.0208
3407.0,0.0206
3406.0,0.0205
3405.0,0.0205
3404.0,0.0206
3403.0,0.0206
3402.0,0.0206
3401.0,0.0205
3400.0,0.0204
3399.0,0.0203
3398.0,0.0203
3397.0,0.0203
3396.0,0.0204
3395.0,0.0205
3394.0,0.0205
3393.0,0.0205
3392.0,0.0205
3391.0,0.0205
3390.0,0.0206
3389.0,0.0206
3388.0,0.0205
3387.0,0.0205
3386.0,0.0205
3385.0,0.0206
3384.0,0.0207
3383.0,0.0208
3382.0,0.0208
3381.0,0.0208
3380.0,0.0206
3379.0,0.0205
3378.0,0.0204
3377.0,0.0204
3376.0,0.0204
3375.0,0.0205
3374.0,0.0205
3373.0,0.0205
3372.0,0.0205
3371.0,0.0204
3370.0,0.0203
3369.0,0.0202
3368.0,0.0201
3367.0,0.0201
3366.0,0.0202
3365.0,0.0204
3364.0,0.0205
3363.0,0.0204
3362.0,0.0203
3361.0,0.0201
3360.0,0.02
3359.0,0.02
3358.0,0.02
3357.0,0.0202
3356.0,0.0203
3355.0,0.0203
3354.0,0.0202
3353.0,0.0201
3352.0,0.0201
3351.0,0.02
3350.0,0.02
3349.0,0.0199
3348.0,0.0198
3347.0,0.0198
3346.0,0.0198
3345.0,0.0199
3344.0,0.02
3343.0,0.0199
3342.0,0.0199
3341.0,0.0198
3340.0,0.0197
3339.0,0.0196
3338.0,0.0195
3337.0,0.0194
3336.0,0.0193
3335.0,0.0191
3334.0,0.019
3333.0,0.0189
3332.0,0.019
3331.0,0.019
3330.0,0.0191
3329.0,0.0191
3328.0,0.0191
3327.0,0.0191
3326.0,0.0191
3325.0,0.019
3324.0,0.0189
3323.0,0.0187
3322.0,0.0186
3321.0,0.0185
3320.0,0.0185
3319.0,0.0184
3318.0,0.0184
3317.0,0.0184
3316.0,0.0184
3315.0,0.0184
3314.0,0.0184
3313.0,0.0183
3312.0,0.0183
3311.0,0.0183
3310.0,0.0183
3309.0,0.0182
3308.0,0.0181
3307.0,0.018
3306.0,0.0179
3305.0,0.0179
3304.0,0.0178
3303.0,0.0178
3302.0,0.0178
3301.0,0.0178
3300.0,0.0178
3299.0,0.0177
3298.0,0.0176
3297.0,0.0175
3296.0,0.0174
3295.0,0.0174
3294.0,0.0175
3293.0,0.0175
3292.0,0.0176
3291.0,0.0176
3290.0,0.0176
3289.0,0.0176
3288.0,0.0175
3287.0,0.0174
3286.0,0.0174
3285.0,0.0173
3284.0,0.0171
3283.0,0.017
3282.0,0.017
3281.0,0.0169
3280.0,0.017
3279.0,0.0171
3278.0,0.0172
3277.0,0.0172
3276.0,0.0172
3275.0,0.0172
3274.0,0.0172
3273.0,0.0172
3272.0,0.0172
3271.0,0.0172
3270.0,0.017
3269.0,0.0169
3268.0,0.0168
3267.0,0.0168
3266.0,0.0167
3265.0,0.0166
3264.0,0.0166
3263.0,0.0166
3262.0,0.0167
3261.0,0.0167
3260.0,0.0167
3259.0,0.0166
3258.0,0.0165
3257.0,0.0163
3256.0,0.0162
3255.0,0.0161
3254.0,0.0162
3253.0,0.0163
3252.0,0.0165
3251.0,0.0166
3250.0,0.0165
3249.0,0.0164
3248.0,0.0163
3247.0,0.0163
3246.0,0.0163
3245.0,0.0163
3244.0,0.0162
3243.0,0.0161
3242.0,0.0159
3241.0,0.0159
3240.0,0.0159
3239.0,0.0159
3238.0,0.0159
3237.0,0.0158
3236.0,0.0158
3235.0,0.0158
3234.0,0.0158
3233.0,0.0158
3232.0,0.0158
3231.0,0.0158
3230.0,0.0158
3229.0,0.0157
3228.0,0.0156
3227.0,0.0156
3226.0,0.0155
3225.0,0.0154
3224.0,0.0154
3223.0,0.0154
3222.0,0.0154
3221.0,0.0154
3220.0,0.0153
3219.0,0.0152
3218.0,0.0151
3217.0,0.0151
3216.0,0.0151
3215.0,0.015
3214.0,0.015
3213.0,0.0149
3212.0,0.0149
3211.0,0.0148
3210.0,0.0148
3209.0,0.0148
3208.0,0.0147
3207.0,0.0147
3206.0,0.0147
3205.0,0.0147
3204.0,0.0147
3203.0,0.0148
3202.0,0.0148
3201.0,0.0149
3200.0,0.0149
3199.0,0.0148
3198.0,0.0147
3197.0,0.0146
3196.0,0.0144
3195.0,0.0143
3194.0,0.0142
3193.0,0.0142
3192.0,0.0141
3191.0,0.0141
3190.0,0.014
3189.0,0.014
3188.0,0.014
3187.0,0.014
3186.0,0.0139
3185.0,0.0137
3184.0,0.0136
3183.0,0.0136
3182.0,0.0136
3181.0,0.0136
3180.0,0.0136
3179.0,0.0136
3178.0,0.0135
3177.0,0.0134
3176.0,0.0133
3175.0,0.0132
3174.0,0.0132
3173.0,0.0132
3172.0,0.0132
3171.0,0.0131
3170.0,0.013
3169.0,0.0129
3168.0,0.0128
3167.0,0.0126
3166.0,0.0125
3165.0,0.0125
3164.0,0.0126
3163.0,0.0126
3162.0,0.0127
3161.0,0.0127
3160.0,0.0126
3159.0,0.0125
3158.0,0.0124
3157.0,0.0123
3156.0,0.0123
3155.0,0.0124
3154.0,0.0124
3153.0,0.0124
3152.0,0.0123
3151.0,0.0123
3150.0,0.0122
3149.0,0.0121
3148.0,0.012
3147.0,0.0119
3146.0,0.0119
3145.0,0.0119
3144.0,0.0119
3143.0,0.0119
3142.0,0.0118
3141.0,0.0117
3140.0,0.0115
3139.0,0.0115
3138.0,0.0115
3137.0,0.0115
3136.0,0.0116
3135.0,0.0116
3134.0,0.0115
3133.0,0.0113
3132.0,0.0112
3131.0,0.0111
3130.0,0.0111
3129.0,0.0111
3128.0,0.0111
3127.0,0.0111
3126.0,0.011
3125.0,0.011
3124.0,0.0109
3123.0,0.0108
3122.0,0.0107
3121.0,0.0106
3120.0,0.0105
3119.0,0.0104
3118.0,0.0104
3117.0,0.0104
3116.0,0.0105
3115.0,0.0105
3114.0,0.0105
3113.0,0.0104
3112.0,0.0104
3111.0,0.0104
3110.0,0.0103
3109.0,0.0102
3108.0,0.01
3107.0,0.01
3106.0,0.01
3105.0,0.01
3104.0,0.01
3103.0,0.01
3102.0,0.0099
3101.0,0.0098
3100.0,0.0098
3099.0,0.0098
3098.0,0.0098
3097.0,0.0097
3096.0,0.0097
3095.0,0.0096
3094.0,0.0095
3093.0,0.0095
3092.0,0.0094
3091.0,0.0094
3090.0,0.0094
3089.0,0.0094
3088.0,0.0093
3087.0,0.0093
3086.0,0.0093
3085.0,0.0093
3084.0,0.0094
3083.0,0.0093
3082.0,0.0092
3081.0,0.0091
3080.0,0.0091
3079.0,0.0091
3078.0,0.0091
3077.0,0.009
3076.0,0.0088
3075.0,0.0087
3074.0,0.0086
3073.0,0.0086
3072.0,0.0086
3071.0,0.0085
3070.0,0.0085
3069.0,0.0085
3068.0,0.0085
3067.0,0.0086
3066.0,0.0086
3065.0,0.0086
3064.0,0.0086
3063.0,0.0085
3062.0,0.0085
3061.0,0.0084
3060.0,0.0083
3059.0,0.0083
3058.0,0.0083
3057.0,0.0083
3056.0,0.0084
3055.0,0.0084
3054.0,0.0084
3053.0,0.0083
3052.0,0.0082
3051.0,0.0081
3050.0,0.008
3049.0,0.0079
3048.0,0.0078
3047.0,0.0078
3046.0,0.0077
3045.0,0.0077
3044.0,0.0075
3043.0,0.0074
3042.0,0.0074
3041.0,0.0073
3040.0,0.0073
3039.0,0.0073
3038.0,0.0072
3037.0,0.0072
3036.0,0.0072
3035.0,0.0073
3034.0,0.0073
3033.0,0.0074
3032.0,0.0074
3031.0,0.0073
3030.0,0.0072
3029.0,0.0072
3028.0,0.0072
3027.0,0.0073
3026.0,0.0073
3025.0,0.0073
3024.0,0.0071
3023.0,0.007
3022.0,0.0069
3021.0,0.0068
3020.0,0.0067
3019.0,0.0067
3018.0,0.0067
3017.0,0.0066
3016.0,0.0066
3015.0,0.0066
3014.0,0.0066
3013.0,0.0065
3012.0,0.0065
3011.0,0.0065
3010.0,0.0065
3009.0,0.0065
3008.0,0.0065
3007.0,0.0065
3006.0,0.0065
3005.0,0.0065
3004.0,0.0064
3003.0,0.0064
3002.0,0.0064
3001.0,0.0064
3000.0,0.0065
2999.0,0.0065
2998.0,0.0066
2997.0,0.0067
2996.0,0.0069
2995.0,0.007
2994.0,0.0071
2993.0,0.0072
2992.0,0.0073
2991.0,0.0074
2990.0,0.0077
2989.0,0.008
2988.0,0.0083
2987.0,0.0087
2986.0,0.0091
2985.0,0.0097
2984.0,0.0103
2983.0,0.011
2982.0,0.0118
2981.0,0.0127
2980.0,0.0139
2979.0,0.0152
2978.0,0.0168
2977.0,0.0186
2976.0,0.0207
2975.0,0.0231
2974.0,0.0259
2973.0,0.0292
2972.0,0.033
2971.0,0.0371
2970.0,0.0416
2969.0,0.0466
2968.0,0.052
2967.0,0.0579
2966.0,0.064
2965.0,0.0702
2964.0,0.0761
2963.0,0.0813
2962.0,0.0853
2961.0,0.088
2960.0,0.0897
2959.0,0.0906
2958.0,0.0914
2957.0,0.0926
2956.0,0.0946
2955.0,0.0976
2954.0,0.1014
2953.0,0.1055
2952.0,0.1089
2951.0,0.111
2950.0,0.111
2949.0,0.1086
2948.0,0.1041
2947.0,0.098
2946.0,0.0911
2945.0,0.0841
2944.0,0.0775
2943.0,0.0719
2942.0,0.0675
2941.0,0.0642
2940.0,0.0622
2939.0,0.0612
2938.0,0.0614
2937.0,0.0625
2936.0,0.0645
2935.0,0.0675
2934.0,0.0712
2933.0,0.0757
2932.0,0.0808
2931.0,0.0865
2930.0,0.0926
2929.0,0.0988
2928.0,0.1051
2927.0,0.1113
2926.0,0.1174
2925.0,0.1234
2924.0,0.1294
2923.0,0.1355
2922.0,0.1414
2921.0,0.147
2920.0,0.1518
2919.0,0.1549
2918.0,0.1559
2917.0,0.1545
2916.0,0.1509
2915.0,0.1459
2914.0,0.1403
2913.0,0.1346
2912.0,0.1294
2911.0,0.125
2910.0,0.1213
2909.0,0.118
2908.0,0.1151
2907.0,0.1122
2906.0,0.1092
2905.0,0.1061
2904.0,0.1028
2903.0,0.0994
2902.0,0.096
2901.0,0.0927
2900.0,0.0895
2899.0,0.0866
2898.0,0.0838
2897.0,0.0812
2896.0,0.0788
2895.0,0.0767
2894.0,0.075
2893.0,0.0736
2892.0,0.0725
2891.0,0.0717
2890.0,0.0712
2889.0,0.0708
2888.0,0.0707
2887.0,0.0706
2886.0,0.0707
2885.0,0.0709
2884.0,0.0715
2883.0,0.0722
2882.0,0.073
2881.0,0.0738
2880.0,0.0744
2879.0,0.0747
2878.0,0.0747
2877.0,0.0744
2876.0,0.074
2875.0,0.0737
2874.0,0.0736
2873.0,0.0739
2872.0,0.0745
2871.0,0.0754
2870.0,0.0766
2869.0,0.0777
2868.0,0.0785
2867.0,0.0784
2866.0,0.0771
2865.0,0.0745
2864.0,0.071
2863.0,0.0669
2862.0,0.0629
2861.0,0.0594
2860.0,0.0566
2859.0,0.0547
2858.0,0.0536
2857.0,0.0533
2856.0,0.0537
2855.0,0.0548
2854.0,0.0564
2853.0,0.0583
2852.0,0.0603
2851.0,0.062
2850.0,0.0631
2849.0,0.0637
2848.0,0.0641
2847.0,0.0648
2846.0,0.0659
2845.0,0.0678
2844.0,0.0702
2843.0,0.0731
2842.0,0.076
2841.0,0.0786
2840.0,0.0804
2839.0,0.081
2838.0,0.0802
2837.0,0.0779
2836.0,0.0744
2835.0,0.07
2834.0,0.0651
2833.0,0.0603
2832.0,0.0557
2831.0,0.0517
2830.0,0.0483
2829.0,0.0455
2828.0,0.0432
2827.0,0.0413
2826.0,0.0396
2825.0,0.0382
2824.0,0.037
2823.0,0.036
2822.0,0.0351
2821.0,0.0343
2820.0,0.0334
2819.0,0.0327
2818.0,0.032
2817.0,0.0314
2816.0,0.0309
2815.0,0.0304
2814.0,0.03
2813.0,0.0297
2812.0,0.0293
2811.0,0.029
2810.0,0.0286
2809.0,0.0282
2808.0,0.0278
2807.0,0.0274
2806.0,0.027
2805.0,0.0266
2804.0,0.0262
2803.0,0.0259
2802.0,0.0255
2801.0,0.0252
2800.0,0.0249
2799.0,0.0247
2798.0,0.0244
2797.0,0.0242
2796.0,0.0239
2795.0,0.0237
2794.0,0.0235
2793.0,0.0232
2792.0,0.023
2791.0,0.0228
2790.0,0.0226
2789.0,0.0224
2788.0,0.0221
2787.0,0.0219
2786.0,0.0217
2785.0,0.0214
2784.0,0.0212
2783.0,0.0211
2782.0,0.0209
2781.0,0.0208
2780.0,0.0207
2779.0,0.0205
2778.0,0.0204
2777.0,0.0202
2776.0,0.02
2775.0,0.0199
2774.0,0.0198
2773.0,0.0197
2772.0,0.0196
2771.0,0.0195
2770.0,0.0194
2769.0,0.0194
2768.0,0.0193
2767.0,0.0193
2766.0,0.0193
2765.0,0.0192
2764.0,0.0191
2763.0,0.019
2762.0,0.0189
2761.0,0.0188
2760.0,0.0187
2759.0,0.0186
2758.0,0.0185
2757.0,0.0184
2756.0,0.0184
2755.0,0.0184
2754.0,0.0183
2753.0,0.0183
2752.0,0.0182
2751.0,0.0181
2750.0,0.0181
2749.0,0.018
2748.0,0.018
2747.0,0.018
2746.0,0.018
2745.0,0.018
2744.0,0.018
2743.0,0.018
2742.0,0.0181
2741.0,0.0181
2740.0,0.0181
2739.0,0.0182
2738.0,0.0182
2737.0,0.0182
2736.0,0.0182
2735.0,0.0183
2734.0,0.0184
2733.0,0.0185
2732.0,0.0186
2731.0,0.0186
2730.0,0.0188
2729.0,0.0189
2728.0,0.0191
2727.0,0.0193
2726.0,0.0194
2725.0,0.0194
2724.0,0.0195
2723.0,0.0195
2722.0,0.0195
2721.0,0.0194
2720.0,0.0192
2719.0,0.019
2718.0,0.0188
2717.0,0.0186
2716.0,0.0184
2715.0,0.0183
2714.0,0.0182
2713.0,0.0182
2712.0,0.0182
2711.0,0.0181
2710.0,0.018
2709.0,0.0178
2708.0,0.0177
2707.0,0.0176
2706.0,0.0175
2705.0,0.0174
2704.0,0.0174
2703.0,0.0173
2702.0,0.0172
2701.0,0.0171
2700.0,0.017
2699.0,0.0169
2698.0,0.0168
2697.0,0.0168
2696.0,0.0168
2695.0,0.0169
2694.0,0.0169
2693.0,0.0169
2692.0,0.0169
2691.0,0.0168
2690.0,0.0168
2689.0,0.0167
2688.0,0.0167
2687.0,0.0167
2686.0,0.0167
2685.0,0.0167
2684.0,0.0167
2683.0,0.0167
2682.0,0.0167
2681.0,0.0167
2680.0,0.0167
2679.0,0.0167
2678.0,0.0166
2677.0,0.0166
2676.0,0.0167
2675.0,0.0167
2674.0,0.0167
2673.0,0.0166
2672.0,0.0165
2671.0,0.0165
2670.0,0.0164
2669.0,0.0164
2668.0,0.0165
2667.0,0.0164
2666.0,0.0164
2665.0,0.0163
2664.0,0.0162
2663.0,0.0163
2662.0,0.0163
2661.0,0.0163
2660.0,0.0164
2659.0,0.0164
2658.0,0.0163
2657.0,0.0163
2656.0,0.0162
2655.0,0.0161
2654.0,0.016
2653.0,0.016
2652.0,0.0159
2651.0,0.0159
2650.0,0.0159
2649.0,0.0159
2648.0,0.0159
2647.0,0.016
2646.0,0.016
2645.0,0.0159
2644.0,0.0158
2643.0,0.0158
2642.0,0.0157
2641.0,0.0157
2640.0,0.0157
2639.0,0.0156
2638.0,0.0156
2637.0,0.0155
2636.0,0.0154
2635.0,0.0155
2634.0,0.0155
2633.0,0.0156
2632.0,0.0156
2631.0,0.0156
2630.0,0.0155
2629.0,0.0155
2628.0,0.0154
2627.0,0.0155
2626.0,0.0156
2625.0,0.0157
2624.0,0.0157
2623.0,0.0158
2622.0,0.0157
2621.0,0.0156
2620.0,0.0155
2619.0,0.0155
2618.0,0.0155
2617.0,0.0156
2616.0,0.0157
2615.0,0.0157
2614.0,0.0156
2613.0,0.0156
2612.0,0.0155
2611.0,0.0155
2610.0,0.0155
2609.0,0.0155
2608.0,0.0154
2607.0,0.0154
2606.0,0.0153
2605.0,0.0153
2604.0,0.0152
2603.0,0.0151
2602.0,0.015
2601.0,0.015
2600.0,0.0151
2599.0,0.0151
2598.0,0.0151
2597.0,0.0151
2596.0,0.0151
2595.0,0.0151
2594.0,0.0151
2593.0,0.0151
2592.0,0.0152
2591.0,0.0152
2590.0,0.0152
2589.0,0.0152
2588.0,0.0152
2587.0,0.0153
2586.0,0.0153
2585.0,0.0153
2584.0,0.0154
2583.0,0.0154
2582.0,0.0155
2581.0,0.0155
2580.0,0.0154
2579.0,0.0153
2578.0,0.0153
2577.0,0.0152
2576.0,0.0152
2575.0,0.0151
2574.0,0.0151
2573.0,0.0151
2572.0,0.0151
2571.0,0.0151
2570.0,0.0151
2569.0,0.0151
2568.0,0.015
2567.0,0.015
2566.0,0.015
2565.0,0.0149
2564.0,0.0148
2563.0,0.0147
2562.0,0.0146
2561.0,0.0145
2560.0,0.0145
2559.0,0.0145
2558.0,0.0145
2557.0,0.0145
2556.0,0.0146
2555.0,0.0146
2554.0,0.0146
2553.0,0.0146
2552.0,0.0145
2551.0,0.0145
2550.0,0.0145
2549.0,0.0144
2548.0,0.0144
2547.0,0.0143
2546.0,0.0142
2545.0,0.0142
2544.0,0.0142
2543.0,0.0142
2542.0,0.0143
2541.0,0.0144
2540.0,0.0145
2539.0,0.0145
2538.0,0.0144
2537.0,0.0143
2536.0,0.0142
2535.0,0.0142
2534.0,0.0142
2533.0,0.0142
2532.0,0.0141
2531.0,0.0141
2530.0,0.014
2529.0,0.014
2528.0,0.014
2527.0,0.0141
2526.0,0.014
2525.0,0.014
2524.0,0.0139
2523.0,0.0139
2522.0,0.0138
2521.0,0.0139
2520.0,0.0139
2519.0,0.0139
2518.0,0.0139
2517.0,0.0139
2516.0,0.0139
2515.0,0.0139
2514.0,0.0139
2513.0,0.0139
2512.0,0.0139
2511.0,0.0138
2510.0,0.0138
2509.0,0.0139
2508.0,0.0139
2507.0,0.014
2506.0,0.014
2505.0,0.014
2504.0,0.014
2503.0,0.0139
2502.0,0.0138
2501.0,0.0138
2500.0,0.0138
2499.0,0.0139
2498.0,0.0139
2497.0,0.0139
2496.0,0.0139
2495.0,0.0138
2494.0,0.0138
2493.0,0.0138
2492.0,0.0138
2491.0,0.0138
2490.0,0.0139
2489.0,0.0139
2488.0,0.0139
2487.0,0.0138
2486.0,0.0138
2485.0,0.0137
2484.0,0.0137
2483.0,0.0137
2482.0,0.0137
2481.0,0.0137
2480.0,0.0137
2479.0,0.0137
2478.0,0.0137
2477.0,0.0137
2476.0,0.0136
2475.0,0.0136
2474.0,0.0136
2473.0,0.0136
2472.0,0.0136
2471.0,0.0136
2470.0,0.0135
2469.0,0.0135
2468.0,0.0136
2467.0,0.0136
2466.0,0.0136
2465.0,0.0136
2464.0,0.0136
2463.0,0.0136
2462.0,0.0136
2461.0,0.0135
2460.0,0.0135
2459.0,0.0135
2458.0,0.0135
2457.0,0.0135
2456.0,0.0135
2455.0,0.0136
2454.0,0.0136
2453.0,0.0136
2452.0,0.0136
2451.0,0.0137
2450.0,0.0137
2449.0,0.0137
2448.0,0.0137
2447.0,0.0137
2446.0,0.0137
2445.0,0.0137
2444.0,0.0136
2443.0,0.0136
2442.0,0.0136
2441.0,0.0135
2440.0,0.0135
2439.0,0.0135
2438.0,0.0135
2437.0,0.0136
2436.0,0.0136
2435.0,0.0137
2434.0,0.0137
2433.0,0.0137
2432.0,0.0137
2431.0,0.0137
2430.0,0.0137
2429.0,0.0137
2428.0,0.0137
2427.0,0.0137
2426.0,0.0137
2425.0,0.0137
2424.0,0.0137
2423.0,0.0137
2422.0,0.0137
2421.0,0.0136
2420.0,0.0136
2419.0,0.0136
2418.0,0.0136
2417.0,0.0136
2416.0,0.0136
2415.0,0.0136
2414.0,0.0136
2413.0,0.0136
2412.0,0.0136
2411.0,0.0136
2410.0,0.0136
2409.0,0.0137
2408.0,0.0137
2407.0,0.0138
2406.0,0.0138
2405.0,0.0138
2404.0,0.0137
2403.0,0.0137
2402.0,0.0137
2401.0,0.0137
2400.0,0.0137
2399.0,0.0137
2398.0,0.0137
2397.0,0.0137
2396.0,0.0137
2395.0,0.0137
2394.0,0.0137
2393.0,0.0137
2392.0,0.0136
2391.0,0.0136
2390.0,0.0136
2389.0,0.0135
2388.0,0.0133
2387.0,0.0131
2386.0,0.0129
2385.0,0.0127
2384.0,0.0127
2383.0,0.0128
2382.0,0.0131
2381.0,0.0135
2380.0,0.0139
2379.0,0.0142
2378.0,0.0145
2377.0,0.0147
2376.0,0.0146
2375.0,0.0144
2374.0,0.0141
2373.0,0.0138
2372.0,0.0135
2371.0,0.0132
2370.0,0.013
2369.0,0.0131
2368.0,0.0133
2367.0,0.0135
2366.0,0.0139
2365.0,0.0147
2364.0,0.0153
2363.0,0.015
2362.0,0.014
2361.0,0.0132
2360.0,0.0128
2359.0,0.0129
2358.0,0.0135
2357.0,0.0143
2356.0,0.0147
2355.0,0.0145
2354.0,0.0141
2353.0,0.0139
2352.0,0.014
2351.0,0.014
2350.0,0.0139
2349.0,0.0139
2348.0,0.0139
2347.0,0.0139
2346.0,0.0137
2345.0,0.0132
2344.0,0.0127
2343.0,0.0127
2342.0,0.0135
2341.0,0.0147
2340.0,0.0155
2339.0,0.0156
2338.0,0.0154
2337.0,0.0153
2336.0,0.0153
2335.0,0.0153
2334.0,0.0151
2333.0,0.0149
2332.0,0.0144
2331.0,0.0136
2330.0,0.0126
2329.0,0.0117
2328.0,0.0112
2327.0,0.0111
2326.0,0.0114
2325.0,0.012
2324.0,0.0126
2323.0,0.0131
2322.0,0.0132
2321.0,0.0131
2320.0,0.0129
2319.0,0.0127
2318.0,0.0126
2317.0,0.0127
2316.0,0.0128
2315.0,0.0128
2314.0,0.0126
2313.0,0.0123
2312.0,0.012
2311.0,0.0117
2310.0,0.0116
2309.0,0.0116
2308.0,0.0116
2307.0,0.0117
2306.0,0.0119
2305.0,0.0121
2304.0,0.0121
2303.0,0.0121
2302.0,0.0121
2301.0,0.012
2300.0,0.0119
2299.0,0.0119
2298.0,0.0119
2297.0,0.0119
2296.0,0.012
2295.0,0.012
2294.0,0.0121
2293.0,0.0123
2292.0,0.0124
2291.0,0.0125
2290.0,0.0126
2289.0,0.0127
2288.0,0.0129
2287.0,0.013
2286.0,0.0131
2285.0,0.0132
2284.0,0.0132
2283.0,0.0132
2282.0,0.0132
2281.0,0.0132
2280.0,0.0133
2279.0,0.0133
2278.0,0.0133
2277.0,0.0134
2276.0,0.0134
2275.0,0.0133
2274.0,0.0133
2273.0,0.0133
2272.0,0.0133
2271.0,0.0133
2270.0,0.0133
2269.0,0.0133
2268.0,0.0134
2267.0,0.0135
2266.0,0.0135
2265.0,0.0136
2264.0,0.0136
2263.0,0.0135
2262.0,0.0135
2261.0,0.0135
2260.0,0.0136
2259.0,0.0136
2258.0,0.0136
2257.0,0.0136
2256.0,0.0136
2255.0,0.0136
2254.0,0.0136
2253.0,0.0136
2252.0,0.0136
2251.0,0.0135
2250.0,0.0135
2249.0,0.0135
2248.0,0.0135
2247.0,0.0136
2246.0,0.0135
2245.0,0.0136
2244.0,0.0136
2243.0,0.0136
2242.0,0.0137
2241.0,0.0137
2240.0,0.0137
2239.0,0.0137
2238.0,0.0138
2237.0,0.0138
2236.0,0.0138
2235.0,0.0138
2234.0,0.0138
2233.0,0.0138
2232.0,0.0138
2231.0,0.0138
2230.0,0.0138
2229.0,0.0138
2228.0,0.0139
2227.0,0.0139
2226.0,0.0139
2225.0,0.0139
2224.0,0.0139
2223.0,0.0138
2222.0,0.0137
2221.0,0.0137
2220.0,0.0138
2219.0,0.0138
2218.0,0.0138
2217.0,0.0138
2216.0,0.0137
2215.0,0.0137
2214.0,0.0137
2213.0,0.0137
2212.0,0.0136
2211.0,0.0137
2210.0,0.0137
2209.0,0.0138
2208.0,0.0138
2207.0,0.0138
2206.0,0.0138
2205.0,0.0138
2204.0,0.0137
2203.0,0.0137
2202.0,0.0137
2201.0,0.0137
2200.0,0.0138
2199.0,0.0138
2198.0,0.0139
2197.0,0.0139
2196.0,0.0139
2195.0,0.0139
2194.0,0.0139
2193.0,0.0139
2192.0,0.014
2191.0,0.014
2190.0,0.014
2189.0,0.014
2188.0,0.014
2187.0,0.0139
2186.0,0.0139
2185.0,0.0139
2184.0,0.014
2183.0,0.014
2182.0,0.014
2181.0,0.014
2180.0,0.014
2179.0,0.0139
2178.0,0.0139
2177.0,0.0139
2176.0,0.014
2175.0,0.014
2174.0,0.014
2173.0,0.014
2172.0,0.014
2171.0,0.014
2170.0,0.0141
2169.0,0.0141
2168.0,0.014
2167.0,0.014
2166.0,0.014
2165.0,0.014
2164.0,0.014
2163.0,0.0139
2162.0,0.0139
2161.0,0.0139
2160.0,0.014
2159.0,0.0141
2158.0,0.0142
2157.0,0.0142
2156.0,0.0142
2155.0,0.0141
2154.0,0.0141
2153.0,0.014
2152.0,0.014
2151.0,0.0139
2150.0,0.0139
2149.0,0.0138
2148.0,0.0138
2147.0,0.0138
2146.0,0.0139
2145.0,0.0139
2144.0,0.014
2143.0,0.014
2142.0,0.014
2141.0,0.014
2140.0,0.014
2139.0,0.014
2138.0,0.0139
2137.0,0.0138
2136.0,0.0139
2135.0,0.0139
2134.0,0.014
2133.0,0.0141
2132.0,0.0141
2131.0,0.0141
2130.0,0.0141
2129.0,0.0141
2128.0,0.014
2127.0,0.014
2126.0,0.014
2125.0,0.014
2124.0,0.0139
2123.0,0.0139
2122.0,0.0139
2121.0,0.0139
2120.0,0.014
2119.0,0.014
2118.0,0.014
2117.0,0.014
2116.0,0.014
2115.0,0.014
2114.0,0.014
2113.0,0.014
2112.0,0.014
2111.0,0.014
2110.0,0.014
2109.0,0.0141
2108.0,0.0141
2107.0,0.0141
2106.0,0.0141
2105.0,0.0141
2104.0,0.0141
2103.0,0.014
2102.0,0.014
2101.0,0.014
2100.0,0.014
2099.0,0.014
2098.0,0.014
2097.0,0.014
2096.0,0.014
2095.0,0.014
2094.0,0.014
2093.0,0.014
2092.0,0.014
2091.0,0.014
2090.0,0.014
2089.0,0.014
2088.0,0.014
2087.0,0.0141
2086.0,0.0141
2085.0,0.014
2084.0,0.014
2083.0,0.014
2082.0,0.014
2081.0,0.014
2080.0,0.014
2079.0,0.0141
2078.0,0.0141
2077.0,0.014
2076.0,0.014
2075.0,0.014
2074.0,0.014
2073.0,0.014
2072.0,0.014
2071.0,0.014
2070.0,0.014
2069.0,0.0139
2068.0,0.014
2067.0,0.014
2066.0,0.014
2065.0,0.014
2064.0,0.014
2063.0,0.0139
2062.0,0.0139
2061.0,0.0139
2060.0,0.0139
2059.0,0.014
2058.0,0.0141
2057.0,0.014
2056.0,0.014
2055.0,0.014
2054.0,0.014
2053.0,0.014
2052.0,0.014
2051.0,0.0141
2050.0,0.0141
2049.0,0.0141
2048.0,0.0141
2047.0,0.0141
2046.0,0.0141
2045.0,0.0141
2044.0,0.0141
2043.0,0.0141
2042.0,0.0141
2041.0,0.0141
2040.0,0.0141
2039.0,0.0141
2038.0,0.0142
2037.0,0.0142
2036.0,0.0142
2035.0,0.0141
2034.0,0.014
2033.0,0.014
2032.0,0.0141
2031.0,0.0141
2030.0,0.0141
2029.0,0.0141
2028.0,0.0141
2027.0,0.0141
2026.0,0.0141
2025.0,0.0141
2024.0,0.0141
2023.0,0.0141
2022.0,0.0141
2021.0,0.0142
2020.0,0.0142
2019.0,0.0142
2018.0,0.0142
2017.0,0.0142
2016.0,0.0142
2015.0,0.0142
2014.0,0.0142
2013.0,0.0141
2012.0,0.0141
2011.0,0.0141
2010.0,0.0141
2009.0,0.0141
2008.0,0.0141
2007.0,0.0141
2006.0,0.0141
2005.0,0.0142
2004.0,0.0142
2003.0,0.0143
2002.0,0.0144
2001.0,0.0144
2000.0,0.0144
1999.0,0.0144
1998.0,0.0143
1997.0,0.0142
1996.0,0.0142
1995.0,0.0142
1994.0,0.0143
1993.0,0.0143
1992.0,0.0143
1991.0,0.0143
1990.0,0.0143
1989.0,0.0143
1988.0,0.0143
1987.0,0.0142
1986.0,0.0142
1985.0,0.0142
1984.0,0.0143
1983.0,0.0143
1982.0,0.0143
1981.0,0.0143
1980.0,0.0143
1979.0,0.0143
1978.0,0.0143
1977.0,0.0143
1976.0,0.0142
1975.0,0.0143
1974.0,0.0143
1973.0,0.0143
1972.0,0.0144
1971.0,0.0144
1970.0,0.0144
1969.0,0.0144
1968.0,0.0145
1967.0,0.0145
1966.0,0.0144
1965.0,0.0144
1964.0,0.0144
1963.0,0.0144
1962.0,0.0144
1961.0,0.0145
1960.0,0.0145
1959.0,0.0145
1958.0,0.0144
1957.0,0.0144
1956.0,0.0144
1955.0,0.0145
1954.0,0.0145
1953.0,0.0146
1952.0,0.0146
1951.0,0.0146
1950.0,0.0145
1949.0,0.0145
1948.0,0.0145
1947.0,0.0145
1946.0,0.0146
1945.0,0.0146
1944.0,0.0147
1943.0,0.0148
1942.0,0.0148
1941.0,0.0148
1940.0,0.0147
1939.0,0.0146
1938.0,0.0146
1937.0,0.0146
1936.0,0.0146
1935.0,0.0146
1934.0,0.0146
1933.0,0.0146
1932.0,0.0146
1931.0,0.0146
1930.0,0.0145
1929.0,0.0145
1928.0,0.0145
1927.0,0.0146
1926.0,0.0146
1925.0,0.0147
1924.0,0.0148
1923.0,0.0148
1922.0,0.0148
1921.0,0.0147
1920.0,0.0147
1919.0,0.0147
1918.0,0.0147
1917.0,0.0148
1916.0,0.0148
1915.0,0.0148
1914.0,0.0148
1913.0,0.0148
1912.0,0.0148
1911.0,0.0148
1910.0,0.0148
1909.0,0.0147
1908.0,0.0147
1907.0,0.0147
1906.0,0.0147
1905.0,0.0148
1904.0,0.0148
1903.0,0.0149
1902.0,0.0149
1901.0,0.0149
1900.0,0.0149
1899.0,0.0148
1898.0,0.0148
1897.0,0.0148
1896.0,0.0148
1895.0,0.0149
1894.0,0.0149
1893.0,0.0149
1892.0,0.0148
1891.0,0.0148
1890.0,0.0148
1889.0,0.0148
1888.0,0.0148
1887.0,0.0148
1886.0,0.0149
1885.0,0.0149
1884.0,0.0149
1883.0,0.0149
1882.0,0.0149
1881.0,0.0149
1880.0,0.0149
1879.0,0.015
1878.0,0.015
1877.0,0.015
1876.0,0.015
1875.0,0.015
1874.0,0.015
1873.0,0.015
1872.0,0.0151
1871.0,0.015
1870.0,0.015
1869.0,0.0149
1868.0,0.0149
1867.0,0.0149
1866.0,0.015
1865.0,0.0151
1864.0,0.0151
1863.0,0.0151
1862.0,0.0151
1861.0,0.0151
1860.0,0.0151
1859.0,0.0151
1858.0,0.015
1857.0,0.015
1856.0,0.015
1855.0,0.0151
1854.0,0.0151
1853.0,0.0151
1852.0,0.0152
1851.0,0.0152
1850.0,0.0152
1849.0,0.0152
1848.0,0.0152
1847.0,0.0152
1846.0,0.0153
1845.0,0.0153
1844.0,0.0152
1843.0,0.0151
1842.0,0.0151
1841.0,0.0151
1840.0,0.0152
1839.0,0.0152
1838.0,0.0153
1837.0,0.0153
1836.0,0.0153
1835.0,0.0152
1834.0,0.0152
1833.0,0.0152
1832.0,0.0153
1831.0,0.0153
1830.0,0.0152
1829.0,0.0152
1828.0,0.0152
1827.0,0.0153
1826.0,0.0153
1825.0,0.0153
1824.0,0.0153
1823.0,0.0152
1822.0,0.0152
1821.0,0.0151
1820.0,0.0151
1819.0,0.0151
1818.0,0.0151
1817.0,0.0151
1816.0,0.0151
1815.0,0.0152
1814.0,0.0152
1813.0,0.0153
1812.0,0.0153
1811.0,0.0153
1810.0,0.0153
1809.0,0.0153
1808.0,0.0153
1807.0,0.0154
1806.0,0.0154
1805.0,0.0154
1804.0,0.0154
1803.0,0.0154
1802.0,0.0154
1801.0,0.0155
1800.0,0.0156
1799.0,0.0156
1798.0,0.0156
1797.0,0.0157
1796.0,0.0157
1795.0,0.0158
1794.0,0.0158
1793.0,0.0158
1792.0,0.0158
1791.0,0.0158
1790.0,0.0157
1789.0,0.0156
1788.0,0.0155
1787.0,0.0155
1786.0,0.0155
1785.0,0.0155
1784.0,0.0155
1783.0,0.0156
1782.0,0.0156
1781.0,0.0157
1780.0,0.0157
1779.0,0.0158
1778.0,0.0157
1777.0,0.0157
1776.0,0.0157
1775.0,0.0157
1774.0,0.0156
1773.0,0.0156
1772.0,0.0157
1771.0,0.0157
1770.0,0.0157
1769.0,0.0157
1768.0,0.0158
1767.0,0.0158
1766.0,0.0158
1765.0,0.0159
1764.0,0.016
1763.0,0.016
1762.0,0.016
1761.0,0.016
1760.0,0.0161
1759.0,0.0162
1758.0,0.0164
1757.0,0.0165
1756.0,0.0165
1755.0,0.0166
1754.0,0.0167
1753.0,0.0169
1752.0,0.017
1751.0,0.0173
1750.0,0.0175
1749.0,0.0178
1748.0,0.0181
1747.0,0.0183
1746.0,0.0184
1745.0,0.0185
1744.0,0.0187
1743.0,0.0187
1742.0,0.0187
1741.0,0.0187
1740.0,0.0187
1739.0,0.0187
1738.0,0.0187
1737.0,0.0187
1736.0,0.0186
1735.0,0.0185
1734.0,0.0183
1733.0,0.0183
1732.0,0.0183
1731.0,0.0183
1730.0,0.0183
1729.0,0.0183
1728.0,0.0182
1727.0,0.0181
1726.0,0.0181
1725.0,0.0181
1724.0,0.0181
1723.0,0.0181
1722.0,0.018
1721.0,0.0181
1720.0,0.0181
1719.0,0.0181
1718.0,0.0181
1717.0,0.0181
1716.0,0.0181
1715.0,0.0181
1714.0,0.0181
1713.0,0.0182
1712.0,0.0183
1711.0,0.0183
1710.0,0.0183
1709.0,0.0183
1708.0,0.0182
1707.0,0.0182
1706.0,0.0182
1705.0,0.0183
1704.0,0.0183
1703.0,0.0183
1702.0,0.0182
1701.0,0.0181
1700.0,0.0181
1699.0,0.0183
1698.0,0.0186
1697.0,0.0189
1696.0,0.019
1695.0,0.0189
1694.0,0.0188
1693.0,0.0188
1692.0,0.0189
1691.0,0.0189
1690.0,0.019
1689.0,0.019
1688.0,0.0191
1687.0,0.0192
1686.0,0.0192
1685.0,0.0193
1684.0,0.0197
1683.0,0.0198
1682.0,0.0199
1681.0,0.02
1680.0,0.0201
1679.0,0.0201
1678.0,0.0201
1677.0,0.0201
1676.0,0.0202
1675.0,0.0203
1674.0,0.0204
1673.0,0.0205
1672.0,0.0206
1671.0,0.0207
1670.0,0.0207
1669.0,0.0208
1668.0,0.0209
1667.0,0.0209
1666.0,0.021
1665.0,0.021
1664.0,0.0211
1663.0,0.0211
1662.0,0.0212
1661.0,0.0212
1660.0,0.0212
1659.0,0.0213
1658.0,0.0213
1657.0,0.0213
1656.0,0.0213
1655.0,0.0212
1654.0,0.0211
1653.0,0.0214
1652.0,0.0215
1651.0,0.0215
1650.0,0.0216
1649.0,0.0217
1648.0,0.0219
1647.0,0.0221
1646.0,0.0222
1645.0,0.0221
1644.0,0.022
1643.0,0.022
1642.0,0.022
1641.0,0.0219
1640.0,0.0219
1639.0,0.0219
1638.0,0.0218
1637.0,0.0218
1636.0,0.0219
1635.0,0.0219
1634.0,0.0218
1633.0,0.0218
1632.0,0.0218
1631.0,0.0218
1630.0,0.0217
1629.0,0.0217
1628.0,0.0216
1627.0,0.0216
1626.0,0.0215
1625.0,0.0214
1624.0,0.0213
1623.0,0.0213
1622.0,0.0213
1621.0,0.0212
1620.0,0.0211
1619.0,0.0211
1618.0,0.021
1617.0,0.021
1616.0,0.021
1615.0,0.0209
1614.0,0.0209
1613.0,0.0209
1612.0,0.0208
1611.0,0.0208
1610.0,0.0208
1609.0,0.0208
1608.0,0.0209
1607.0,0.0209
1606.0,0.0209
1605.0,0.0209
1604.0,0.021
1603.0,0.021
1602.0,0.021
1601.0,0.0209
1600.0,0.0209
1599.0,0.0209
1598.0,0.0209
1597.0,0.0209
1596.0,0.0209
1595.0,0.0209
1594.0,0.0209
1593.0,0.0209
1592.0,0.0208
1591.0,0.0208
1590.0,0.0209
1589.0,0.0209
1588.0,0.021
1587.0,0.0211
1586.0,0.0211
1585.0,0.0212
1584.0,0.0213
1583.0,0.0214
1582.0,0.0215
1581.0,0.0216
1580.0,0.0217
1579.0,0.0218
1578.0,0.0219
1577.0,0.022
1576.0,0.022
1575.0,0.0219
1574.0,0.0217
1573.0,0.0216
1572.0,0.0215
1571.0,0.0214
1570.0,0.0214
1569.0,0.0214
1568.0,0.0213
1567.0,0.0212
1566.0,0.0211
1565.0,0.021
1564.0,0.021
1563.0,0.0209
1562.0,0.0207
1561.0,0.0205
1560.0,0.0202
1559.0,0.0204
1558.0,0.0205
1557.0,0.0204
1556.0,0.0204
1555.0,0.0205
1554.0,0.0204
1553.0,0.0203
1552.0,0.0203
1551.0,0.0203
1550.0,0.0203
1549.0,0.0202
1548.0,0.0202
1547.0,0.0203
1546.0,0.0203
1545.0,0.0204
1544.0,0.0204
1543.0,0.0204
1542.0,0.0202
1541.0,0.0201
1540.0,0.0202
1539.0,0.0201
1538.0,0.0198
1537.0,0.0198
1536.0,0.0198
1535.0,0.0197
1534.0,0.0196
1533.0,0.0196
1532.0,0.0194
1531.0,0.0193
1530.0,0.0192
1529.0,0.0192
1528.0,0.0193
1527.0,0.0193
1526.0,0.0193
1525.0,0.0193
1524.0,0.0193
1523.0,0.0192
1522.0,0.0192
1521.0,0.0193
1520.0,0.0194
1519.0,0.0194
1518.0,0.0195
1517.0,0.0196
1516.0,0.0196
1515.0,0.0196
1514.0,0.0195
1513.0,0.0195
1512.0,0.0195
1511.0,0.0194
1510.0,0.0194
1509.0,0.0193
1508.0,0.0195
1507.0,0.0197
1506.0,0.0196
1505.0,0.0195
1504.0,0.0195
1503.0,0.0196
1502.0,0.0196
1501.0,0.0196
1500.0,0.0196
1499.0,0.0197
1498.0,0.0198
1497.0,0.0202
1496.0,0.0206
1495.0,0.0208
1494.0,0.0208
1493.0,0.0208
1492.0,0.0208
1491.0,0.0208
1490.0,0.0208
1489.0,0.021
1488.0,0.0213
1487.0,0.0213
1486.0,0.0214
1485.0,0.0215
1484.0,0.0217
1483.0,0.0219
1482.0,0.0223
1481.0,0.0228
1480.0,0.0234
1479.0,0.0239
1478.0,0.0246
1477.0,0.0258
1476.0,0.0275
1475.0,0.0294
1474.0,0.032
1473.0,0.036
1472.0,0.0401
1471.0,0.0433
1470.0,0.0462
1469.0,0.0494
1468.0,0.0528
1467.0,0.0568
1466.0,0.0618
1465.0,0.0679
1464.0,0.0732
1463.0,0.0764
1462.0,0.0781
1461.0,0.0791
1460.0,0.0798
1459.0,0.0803
1458.0,0.0819
1457.0,0.0843
1456.0,0.0858
1455.0,0.0861
1454.0,0.086
1453.0,0.0857
1452.0,0.085
1451.0,0.0837
1450.0,0.0817
1449.0,0.0785
1448.0,0.0742
1447.0,0.0695
1446.0,0.0652
1445.0,0.0614
1444.0,0.058
1443.0,0.055
1442.0,0.0526
1441.0,0.0509
1440.0,0.0497
1439.0,0.049
1438.0,0.0489
1437.0,0.0492
1436.0,0.0491
1435.0,0.0481
1434.0,0.0464
1433.0,0.0442
1432.0,0.0418
1431.0,0.0397
1430.0,0.038
1429.0,0.0366
1428.0,0.0356
1427.0,0.0348
1426.0,0.0343
1425.0,0.0337
1424.0,0.0333
1423.0,0.0329
1422.0,0.0326
1421.0,0.0323
1420.0,0.0319
1419.0,0.0318
1418.0,0.0318
1417.0,0.0315
1416.0,0.0313
1415.0,0.031
1414.0,0.0308
1413.0,0.0305
1412.0,0.0302
1411.0,0.0299
1410.0,0.0297
1409.0,0.0295
1408.0,0.0292
1407.0,0.0291
1406.0,0.0289
1405.0,0.0287
1404.0,0.0285
1403.0,0.0282
1402.0,0.0281
1401.0,0.0278
1400.0,0.0276
1399.0,0.0276
1398.0,0.0277
1397.0,0.0275
1396.0,0.0273
1395.0,0.0272
1394.0,0.0272
1393.0,0.0271
1392.0,0.027
1391.0,0.0271
1390.0,0.0273
1389.0,0.0277
1388.0,0.0284
1387.0,0.0297
1386.0,0.0317
1385.0,0.0344
1384.0,0.0382
1383.0,0.0439
1382.0,0.0516
1381.0,0.0615
1380.0,0.0742
1379.0,0.089
1378.0,0.1035
1377.0,0.1144
1376.0,0.1189
1375.0,0.1153
1374.0,0.1049
1373.0,0.0925
1372.0,0.0813
1371.0,0.0719
1370.0,0.0639
1369.0,0.0575
1368.0,0.0529
1367.0,0.05
1366.0,0.0482
1365.0,0.0473
1364.0,0.0472
1363.0,0.0479
1362.0,0.0491
1361.0,0.0503
1360.0,0.0511
1359.0,0.0513
1358.0,0.0508
1357.0,0.0496
1356.0,0.0478
1355.0,0.0458
1354.0,0.0439
1353.0,0.0422
1352.0,0.0408
1351.0,0.0396
1350.0,0.0386
1349.0,0.0377
1348.0,0.037
1347.0,0.0363
1346.0,0.0357
1345.0,0.0352
1344.0,0.0347
1343.0,0.0343
1342.0,0.0339
1341.0,0.0337
1340.0,0.0335
1339.0,0.0333
1338.0,0.0332
1337.0,0.033
1336.0,0.0329
1335.0,0.0329
1334.0,0.033
1333.0,0.0332
1332.0,0.0333
1331.0,0.0334
1330.0,0.0335
1329.0,0.0334
1328.0,0.0333
1327.0,0.033
1326.0,0.0327
1325.0,0.0324
1324.0,0.032
1323.0,0.0317
1322.0,0.0314
1321.0,0.0312
1320.0,0.031
1319.0,0.0308
1318.0,0.0307
1317.0,0.0306
1316.0,0.0305
1315.0,0.0304
1314.0,0.0303
1313.0,0.0302
1312.0,0.0301
1311.0,0.0302
1310.0,0.0303
1309.0,0.0306
1308.0,0.0311
1307.0,0.0317
1306.0,0.0324
1305.0,0.0329
1304.0,0.033
1303.0,0.0328
1302.0,0.0324
1301.0,0.0321
1300.0,0.0318
1299.0,0.0317
1298.0,0.0317
1297.0,0.0317
1296.0,0.0316
1295.0,0.0315
1294.0,0.0314
1293.0,0.0311
1292.0,0.0309
1291.0,0.0306
1290.0,0.0303
1289.0,0.0301
1288.0,0.0299
1287.0,0.0298
1286.0,0.0296
1285.0,0.0295
1284.0,0.0293
1283.0,0.0292
1282.0,0.0292
1281.0,0.0291
1280.0,0.0291
1279.0,0.0291
1278.0,0.029
1277.0,0.0289
1276.0,0.0288
1275.0,0.0287
1274.0,0.0286
1273.0,0.0286
1272.0,0.0286
1271.0,0.0286
1270.0,0.0286
1269.0,0.0287
1268.0,0.0287
1267.0,0.0288
1266.0,0.0289
1265.0,0.0289
1264.0,0.029
1263.0,0.0292
1262.0,0.0294
1261.0,0.0296
1260.0,0.03
1259.0,0.0304
1258.0,0.0309
1257.0,0.0313
1256.0,0.0316
1255.0,0.0316
1254.0,0.0312
1253.0,0.0307
1252.0,0.0302
1251.0,0.0297
1250.0,0.0294
1249.0,0.0292
1248.0,0.0291
1247.0,0.029
1246.0,0.029
1245.0,0.0289
1244.0,0.0288
1243.0,0.0287
1242.0,0.0285
1241.0,0.0284
1240.0,0.0283
1239.0,0.0282
1238.0,0.0282
1237.0,0.0282
1236.0,0.0282
1235.0,0.0282
1234.0,0.0282
1233.0,0.0282
1232.0,0.0281
1231.0,0.028
1230.0,0.028
1229.0,0.0281
1228.0,0.0282
1227.0,0.0283
1226.0,0.0284
1225.0,0.0286
1224.0,0.0287
1223.0,0.029
1222.0,0.0292
1221.0,0.0293
1220.0,0.0294
1219.0,0.0295
1218.0,0.0294
1217.0,0.0294
1216.0,0.0292
1215.0,0.029
1214.0,0.0288
1213.0,0.0286
1212.0,0.0284
1211.0,0.0283
1210.0,0.0282
1209.0,0.0282
1208.0,0.0281
1207.0,0.0281
1206.0,0.0281
1205.0,0.0281
1204.0,0.0281
1203.0,0.0282
1202.0,0.0283
1201.0,0.0284
1200.0,0.0285
1199.0,0.0286
1198.0,0.0287
1197.0,0.0287
1196.0,0.0287
1195.0,0.0286
1194.0,0.0285
1193.0,0.0285
1192.0,0.0284
1191.0,0.0284
1190.0,0.0284
1189.0,0.0285
1188.0,0.0286
1187.0,0.0287
1186.0,0.0289
1185.0,0.0291
1184.0,0.0292
1183.0,0.0294
1182.0,0.0296
1181.0,0.0297
1180.0,0.0299
1179.0,0.03
1178.0,0.0303
1177.0,0.0307
1176.0,0.0313
1175.0,0.0321
1174.0,0.0333
1173.0,0.0348
1172.0,0.0367
1171.0,0.0389
1170.0,0.041
1169.0,0.0427
1168.0,0.0439
1167.0,0.0442
1166.0,0.0438
1165.0,0.0429
1164.0,0.0418
1163.0,0.0407
1162.0,0.0397
1161.0,0.0388
1160.0,0.0381
1159.0,0.0377
1158.0,0.0373
1157.0,0.0372
1156.0,0.0371
1155.0,0.0369
1154.0,0.0367
1153.0,0.0365
1152.0,0.0363
1151.0,0.036
1150.0,0.0357
1149.0,0.0352
1148.0,0.0346
1147.0,0.0341
1146.0,0.0336
1145.0,0.0332
1144.0,0.0329
1143.0,0.0326
1142.0,0.0323
1141.0,0.032
1140.0,0.0317
1139.0,0.0315
1138.0,0.0314
1137.0,0.0313
1136.0,0.0311
1135.0,0.0309
1134.0,0.0308
1133.0,0.0306
1132.0,0.0306
1131.0,0.0305
1130.0,0.0306
1129.0,0.0306
1128.0,0.0306
1127.0,0.0306
1126.0,0.0306
1125.0,0.0305
1124.0,0.0305
1123.0,0.0304
1122.0,0.0304
1121.0,0.0304
1120.0,0.0303
1119.0,0.0303
1118.0,0.0303
1117.0,0.0304
1116.0,0.0304
1115.0,0.0305
1114.0,0.0306
1113.0,0.0307
1112.0,0.0307
1111.0,0.0307
1110.0,0.0308
1109.0,0.0309
1108.0,0.0311
1107.0,0.0314
1106.0,0.0318
1105.0,0.0322
1104.0,0.0324
1103.0,0.0326
1102.0,0.0326
1101.0,0.0324
1100.0,0.0322
1099.0,0.0319
1098.0,0.0317
1097.0,0.0314
1096.0,0.0311
1095.0,0.0309
1094.0,0.0307
1093.0,0.0304
1092.0,0.0302
1091.0,0.03
1090.0,0.0299
1089.0,0.0298
1088.0,0.0298
1087.0,0.0298
1086.0,0.0298
1085.0,0.0298
1084.0,0.0298
1083.0,0.0298
1082.0,0.0297
1081.0,0.0296
1080.0,0.0295
1079.0,0.0293
1078.0,0.0292
1077.0,0.0291
1076.0,0.0291
1075.0,0.0291
1074.0,0.0291
1073.0,0.029
1072.0,0.029
1071.0,0.0289
1070.0,0.0287
1069.0,0.0286
1068.0,0.0286
1067.0,0.0285
1066.0,0.0285
1065.0,0.0284
1064.0,0.0283
1063.0,0.0283
1062.0,0.0283
1061.0,0.0284
1060.0,0.0284
1059.0,0.0285
1058.0,0.0285
1057.0,0.0285
1056.0,0.0286
1055.0,0.0286
1054.0,0.0287
1053.0,0.0289
1052.0,0.0289
1051.0,0.029
1050.0,0.0291
1049.0,0.0292
1048.0,0.0293
1047.0,0.0295
1046.0,0.0297
1045.0,0.0299
1044.0,0.03
1043.0,0.03
1042.0,0.0299
1041.0,0.0297
1040.0,0.0294
1039.0,0.0293
1038.0,0.0293
1037.0,0.0292
1036.0,0.0292
1035.0,0.0291
1034.0,0.029
1033.0,0.029
1032.0,0.029
1031.0,0.0291
1030.0,0.0293
1029.0,0.0293
1028.0,0.0294
1027.0,0.0294
1026.0,0.0294
1025.0,0.0294
1024.0,0.0294
1023.0,0.0295
1022.0,0.0296
1021.0,0.0297
1020.0,0.0298
1019.0,0.0299
1018.0,0.0299
1017.0,0.0299
1016.0,0.0299
1015.0,0.0299
1014.0,0.0298
1013.0,0.0297
1012.0,0.0296
1011.0,0.0297
1010.0,0.0298
1009.0,0.0299
1008.0,0.0301
1007.0,0.0304
1006.0,0.0308
1005.0,0.0315
1004.0,0.0324
1003.0,0.0339
1002.0,0.0358
1001.0,0.0384
1000.0,0.0412
999.0,0.0438
998.0,0.0452
997.0,0.0452
996.0,0.0438
995.0,0.0415
994.0,0.0391
993.0,0.0369
992.0,0.0353
991.0,0.034
990.0,0.0332
989.0,0.0325
988.0,0.0321
987.0,0.0319
986.0,0.0317
985.0,0.0316
984.0,0.0316
983.0,0.0318
982.0,0.0324
981.0,0.0333
980.0,0.0346
979.0,0.0363
978.0,0.0384
977.0,0.0409
976.0,0.0438
975.0,0.0466
974.0,0.0489
973.0,0.0501
972.0,0.0497
971.0,0.0479
970.0,0.0453
969.0,0.0425
968.0,0.04
967.0,0.0381
966.0,0.0366
965.0,0.0355
964.0,0.0347
963.0,0.0342
962.0,0.0338
961.0,0.0334
960.0,0.0331
959.0,0.0328
958.0,0.0326
957.0,0.0323
956.0,0.0322
955.0,0.032
954.0,0.0319
953.0,0.0317
952.0,0.0317
951.0,0.0316
950.0,0.0317
949.0,0.0317
948.0,0.0318
947.0,0.0318
946.0,0.0318
945.0,0.0319
944.0,0.032
943.0,0.0322
942.0,0.0325
941.0,0.0327
940.0,0.0328
939.0,0.0327
938.0,0.0325
937.0,0.0323
936.0,0.032
935.0,0.0318
934.0,0.0316
933.0,0.0316
932.0,0.0315
931.0,0.0315
930.0,0.0314
929.0,0.0313
928.0,0.0313
927.0,0.0314
926.0,0.0314
925.0,0.0314
924.0,0.0314
923.0,0.0315
922.0,0.0316
921.0,0.0317
920.0,0.0318
919.0,0.0318
918.0,0.0318
917.0,0.0319
916.0,0.0319
915.0,0.032
914.0,0.0321
913.0,0.0321
912.0,0.0322
911.0,0.0323
910.0,0.0326
909.0,0.0328
908.0,0.033
907.0,0.0332
906.0,0.0335
905.0,0.034
904.0,0.0347
903.0,0.0358
902.0,0.037
901.0,0.0383
900.0,0.0392
899.0,0.0396
898.0,0.0395
897.0,0.039
896.0,0.0382
895.0,0.0374
894.0,0.0367
893.0,0.0362
892.0,0.0359
891.0,0.0357
890.0,0.0357
889.0,0.0358
888.0,0.036
887.0,0.0362
886.0,0.0366
885.0,0.0371
884.0,0.0376
883.0,0.0381
882.0,0.0386
881.0,0.0392
880.0,0.0399
879.0,0.0407
878.0,0.0416
877.0,0.0425
876.0,0.0433
875.0,0.0438
874.0,0.044
873.0,0.0437
872.0,0.0428
871.0,0.0416
870.0,0.0404
869.0,0.0394
868.0,0.0388
867.0,0.0384
866.0,0.0382
865.0,0.0381
864.0,0.038
863.0,0.038
862.0,0.0379
861.0,0.0378
860.0,0.0377
859.0,0.0377
858.0,0.0376
857.0,0.0375
856.0,0.0375
855.0,0.0374
854.0,0.0373
853.0,0.0374
852.0,0.0375
851.0,0.0379
850.0,0.0383
849.0,0.0388
848.0,0.0393
847.0,0.0399
846.0,0.0409
845.0,0.0425
844.0,0.045
843.0,0.0481
842.0,0.051
841.0,0.0524
840.0,0.0517
839.0,0.0494
838.0,0.0466
837.0,0.0442
836.0,0.0427
835.0,0.0417
834.0,0.0411
833.0,0.0408
832.0,0.0407
831.0,0.0406
830.0,0.0404
829.0,0.0403
828.0,0.0402
827.0,0.0402
826.0,0.0402
825.0,0.0401
824.0,0.0399
823.0,0.0397
822.0,0.0396
821.0,0.0396
820.0,0.0397
819.0,0.04
818.0,0.0403
817.0,0.0407
816.0,0.0411
815.0,0.0417
814.0,0.0424
813.0,0.0432
812.0,0.0441
811.0,0.0451
810.0,0.046
809.0,0.0465
808.0,0.0466
807.0,0.0462
806.0,0.0456
805.0,0.0449
804.0,0.0443
803.0,0.0438
802.0,0.0433
801.0,0.0428
800.0,0.0424
799.0,0.0421
798.0,0.0419
797.0,0.0418
796.0,0.0416
795.0,0.0415
794.0,0.0414
793.0,0.0414
792.0,0.0413
791.0,0.0413
790.0,0.0413
789.0,0.0412
788.0,0.0413
787.0,0.0414
786.0,0.0414
785.0,0.0413
784.0,0.0412
783.0,0.041
782.0,0.041
781.0,0.041
780.0,0.041
779.0,0.041
778.0,0.041
777.0,0.041
776.0,0.0412
775.0,0.0415
774.0,0.0418
773.0,0.0419
772.0,0.042
771.0,0.0421
770.0,0.0422
769.0,0.0423
768.0,0.0424
767.0,0.0426
766.0,0.0427
765.0,0.0428
764.0,0.043
763.0,0.0433
762.0,0.0435
761.0,0.0436
760.0,0.0437
759.0,0.0438
758.0,0.044
757.0,0.0442
756.0,0.0444
755.0,0.0446
754.0,0.0447
753.0,0.0448
752.0,0.0448
751.0,0.0448
750.0,0.0449
749.0,0.045
748.0,0.0452
747.0,0.0453
746.0,0.0452
745.0,0.045
744.0,0.0448
743.0,0.0446
742.0,0.0445
741.0,0.0446
740.0,0.0448
739.0,0.0449
738.0,0.0452
737.0,0.0456
736.0,0.0462
735.0,0.0468
734.0,0.0474
733.0,0.0484
732.0,0.0495
731.0,0.0504
730.0,0.051
729.0,0.051
728.0,0.0508
727.0,0.0505
726.0,0.0505
725.0,0.0506
724.0,0.0508
723.0,0.051
722.0,0.0514
721.0,0.052
720.0,0.0528
719.0,0.0534
718.0,0.0535
717.0,0.0531
716.0,0.0527
715.0,0.0525
714.0,0.0525
713.0,0.0527
712.0,0.0526
711.0,0.0522
710.0,0.0516
709.0,0.0511
708.0,0.0508
707.0,0.0509
706.0,0.0513
705.0,0.0521
704.0,0.0531
703.0,0.054
702.0,0.0549
701.0,0.0557
700.0,0.0565
699.0,0.0571
698.0,0.0572
697.0,0.0567
696.0,0.0556
695.0,0.0546
694.0,0.0536
693.0,0.0528
692.0,0.0522
691.0,0.0518
690.0,0.0517
689.0,0.0515
688.0,0.0512
687.0,0.0511
686.0,0.0516
685.0,0.0524
684.0,0.0531
683.0,0.0531
682.0,0.0523
681.0,0.0514
680.0,0.0508
679.0,0.0507
678.0,0.0509
677.0,0.0512
676.0,0.0517
675.0,0.0521
674.0,0.0524
673.0,0.0522
672.0,0.0518
671.0,0.0519
670.0,0.0533
669.0,0.0563
668.0,0.0589
667.0,0.0574
666.0,0.0541
665.0,0.052
664.0,0.0511
663.0,0.051
662.0,0.0509
661.0,0.0505
660.0,0.0501
659.0,0.0499
658.0,0.0498
657.0,0.0498
656.0,0.05
655.0,0.0502
654.0,0.0503
653.0,0.05
652.0,0.0496
651.0,0.0491
650.0,0.049
649.0,0.0495
648.0,0.0506
647.0,0.0514
646.0,0.0514
645.0,0.0507
644.0,0.05
643.0,0.0496
642.0,0.0497
641.0,0.0499
640.0,0.0502
639.0,0.0509
638.0,0.0518
637.0,0.053
636.0,0.0542
635.0,0.0551
634.0,0.0551
633.0,0.0544
632.0,0.0534
631.0,0.0525
630.0,0.0517
629.0,0.0511
628.0,0.0506
627.0,0.0505
626.0,0.0506
625.0,0.0508
624.0,0.0508
623.0,0.0507
622.0,0.0506
621.0,0.0505
620.0,0.0503
619.0,0.0503
618.0,0.0506
617.0,0.0513
616.0,0.0522
615.0,0.0531
614.0,0.0538
613.0,0.0541
612.0,0.0542
611.0,0.054
610.0,0.0536
609.0,0.0533
608.0,0.0533
607.0,0.0536
606.0,0.0538
605.0,0.0533
604.0,0.0522
603.0,0.0514
602.0,0.0517
601.0,0.0528
600.0,0.0539
