cm-1,A
4000.0,0.0049
3999.0,0.005
3998.0,0.005
3997.0,0.0051
3996.0,0.0052
3995.0,0.0053
3994.0,0.0052
3993.0,0.0052
3992.0,0.0052
3991.0,0.0051
3990.0,0.0051
3989.0,0.0051
3988.0,0.0051
3987.0,0.0051
3986.0,0.0052
3985.0,0.0052
3984.0,0.0052
3983.0,0.0052
3982.0,0.0052
3981.0,0.0052
3980.0,0.0052
3979.0,0.0052
3978.0,0.0053
3977.0,0.0053
3976.0,0.0053
3975.0,0.0053
3974.0,0.0053
3973.0,0.0053
3972.0,0.0052
3971.0,0.0052
3970.0,0.0052
3969.0,0.0052
3968.0,0.0051
3967.0,0.0051
3966.0,0.0051
3965.0,0.0051
3964.0,0.0052
3963.0,0.0053
3962.0,0.0053
3961.0,0.0052
3960.0,0.0051
3959.0,0.0051
3958.0,0.0051
3957.0,0.0051
3956.0,0.0052
3955.0,0.0053
3954.0,0.0054
3953.0,0.0055
3952.0,0.0055
3951.0,0.0054
3950.0,0.0053
3949.0,0.0053
3948.0,0.0053
3947.0,0.0053
3946.0,0.0054
3945.0,0.0055
3944.0,0.0054
3943.0,0.0054
3942.0,0.0053
3941.0,0.0053
3940.0,0.0053
3939.0,0.0054
3938.0,0.0054
3937.0,0.0054
3936.0,0.0054
3935.0,0.0054
3934.0,0.0054
3933.0,0.0054
3932.0,0.0054
3931.0,0.0054
3930.0,0.0054
3929.0,0.0055
3928.0,0.0056
3927.0,0.0057
3926.0,0.0057
3925.0,0.0056
3924.0,0.0056
3923.0,0.0055
3922.0,0.0054
3921.0,0.0054
3920.0,0.0053
3919.0,0.0052
3918.0,0.0053
3917.0,0.0053
3916.0,0.0054
3915.0,0.0053
3914.0,0.0053
3913.0,0.0053
3912.0,0.0053
3911.0,0.0054
3910.0,0.0055
3909.0,0.0057
3908.0,0.0058
3907.0,0.0059
3906.0,0.0058
3905.0,0.0057
3904.0,0.0056
3903.0,0.0057
3902.0,0.0058
3901.0,0.0059
3900.0,0.0059
3899.0,0.0058
3898.0,0.0057
3897.0,0.0056
3896.0,0.0056
3895.0,0.0056
3894.0,0.0055
3893.0,0.0055
3892.0,0.0056
3891.0,0.0056
3890.0,0.0057
3889.0,0.0058
3888.0,0.0059
3887.0,0.006
3886.0,0.0059
3885.0,0.0058
3884.0,0.0057
3883.0,0.0057
3882.0,0.0056
3881.0,0.0056
3880.0,0.0057
3879.0,0.0058
3878.0,0.006
3877.0,0.0061
3876.0,0.0061
3875.0,0.0061
3874.0,0.0061
3873.0,0.0061
3872.0,0.0061
3871.0,0.006
3870.0,0.0059
3869.0,0.0058
3868.0,0.0058
3867.0,0.0058
3866.0,0.0057
3865.0,0.0055
3864.0,0.0055
3863.0,0.0056
3862.0,0.0057
3861.0,0.0057
3860.0,0.0057
3859.0,0.0057
3858.0,0.0058
3857.0,0.0058
3856.0,0.0058
3855.0,0.0058
3854.0,0.0059
3853.0,0.006
3852.0,0.0059
3851.0,0.0058
3850.0,0.0057
3849.0,0.0056
3848.0,0.0056
3847.0,0.0056
3846.0,0.0057
3845.0,0.0058
3844.0,0.006
3843.0,0.0061
3842.0,0.0062
3841.0,0.0063
3840.0,0.0063
3839.0,0.0062
3838.0,0.0061
3837.0,0.0059
3836.0,0.0058
3835.0,0.0058
3834.0,0.0059
3833.0,0.006
3832.0,0.0059
3831.0,0.0058
3830.0,0.0058
3829.0,0.0058
3828.0,0.0059
3827.0,0.0059
3826.0,0.006
3825.0,0.0061
3824.0,0.0061
3823.0,0.0061
3822.0,0.006
3821.0,0.006
3820.0,0.0061
3819.0,0.0063
3818.0,0.0063
3817.0,0.0062
3816.0,0.0061
3815.0,0.006
3814.0,0.0059
3813.0,0.0058
3812.0,0.0057
3811.0,0.0057
3810.0,0.0058
3809.0,0.0059
3808.0,0.006
3807.0,0.0061
3806.0,0.0061
3805.0,0.0063
3804.0,0.0064
3803.0,0.0064
3802.0,0.0064
3801.0,0.0063
3800.0,0.0063
3799.0,0.0062
3798.0,0.0061
3797.0,0.006
3796.0,0.0059
3795.0,0.0058
3794.0,0.0058
3793.0,0.0058
3792.0,0.0058
3791.0,0.0058
3790.0,0.0059
3789.0,0.0059
3788.0,0.0059
3787.0,0.0059
3786.0,0.0059
3785.0,0.0059
3784.0,0.0059
3783.0,0.006
3782.0,0.006
3781.0,0.006
3780.0,0.006
3779.0,0.006
3778.0,0.006
3777.0,0.0059
3776.0,0.0059
3775.0,0.0058
3774.0,0.0058
3773.0,0.0058
3772.0,0.0058
3771.0,0.0059
3770.0,0.006
3769.0,0.0061
3768.0,0.0062
3767.0,0.0062
3766.0,0.0062
3765.0,0.0061
3764.0,0.006
3763.0,0.006
3762.0,0.0061
3761.0,0.0062
3760.0,0.0064
3759.0,0.0065
3758.0,0.0065
3757.0,0.0064
3756.0,0.0064
3755.0,0.0064
3754.0,0.0065
3753.0,0.0064
3752.0,0.0061
3751.0,0.006
3750.0,0.006
3749.0,0.0058
3748.0,0.0057
3747.0,0.0056
3746.0,0.0054
3745.0,0.0052
3744.0,0.0051
3743.0,0.005
3742.0,0.0049
3741.0,0.0049
3740.0,0.0048
3739.0,0.0048
3738.0,0.0047
3737.0,0.0044
3736.0,0.004
3735.0,0.0037
3734.0,0.0035
3733.0,0.0032
3732.0,0.003
3731.0,0.0028
3730.0,0.0026
3729.0,0.0025
3728.0,0.0026
3727.0,0.0027
3726.0,0.003
3725.0,0.0034
3724.0,0.0037
3723.0,0.0039
3722.0,0.0041
3721.0,0.0044
3720.0,0.0046
3719.0,0.005
3718.0,0.0053
3717.0,0.0056
3716.0,0.0059
3715.0,0.006
3714.0,0.0058
3713.0,0.0053
3712.0,0.0048
3711.0,0.0044
3710.0,0.0043
3709.0,0.0042
3708.0,0.0041
3707.0,0.0041
3706.0,0.0041
3705.0,0.0043
3704.0,0.0045
3703.0,0.0047
3702.0,0.0048
3701.0,0.0047
3700.0,0.0046
3699.0,0.0045
3698.0,0.0045
3697.0,0.0046
3696.0,0.0046
3695.0,0.0047
3694.0,0.0048
3693.0,0.005
3692.0,0.0053
3691.0,0.0057
3690.0,0.0061
3689.0,0.0063
3688.0,0.0062
3687.0,0.006
3686.0,0.006
3685.0,0.0061
3684.0,0.0062
3683.0,0.0063
3682.0,0.0064
3681.0,0.0066
3680.0,0.0067
3679.0,0.0069
3678.0,0.0071
3677.0,0.0073
3676.0,0.0075
3675.0,0.0075
3674.0,0.0074
3673.0,0.0074
3672.0,0.0074
3671.0,0.0074
3670.0,0.0075
3669.0,0.0075
3668.0,0.0075
3667.0,0.0074
3666.0,0.0074
3665.0,0.0074
3664.0,0.0075
3663.0,0.0075
3662.0,0.0075
3661.0,0.0075
3660.0,0.0076
3659.0,0.0076
3658.0,0.0077
3657.0,0.0077
3656.0,0.0077
3655.0,0.0078
3654.0,0.008
3653.0,0.0083
3652.0,0.0085
3651.0,0.0085
3650.0,0.0085
3649.0,0.0087
3648.0,0.0089
3647.0,0.0088
3646.0,0.0088
3645.0,0.0086
3644.0,0.0085
3643.0,0.0084
3642.0,0.0083
3641.0,0.0082
3640.0,0.0081
3639.0,0.0081
3638.0,0.0081
3637.0,0.0081
3636.0,0.008
3635.0,0.0079
3634.0,0.0078
3633.0,0.0077
3632.0,0.0077
3631.0,0.0078
3630.0,0.0077
3629.0,0.0079
3628.0,0.008
3627.0,0.0081
3626.0,0.0081
3625.0,0.0081
3624.0,0.0083
3623.0,0.0086
3622.0,0.0091
3621.0,0.0097
3620.0,0.0101
3619.0,0.0104
3618.0,0.0107
3617.0,0.0109
3616.0,0.0111
3615.0,0.0114
3614.0,0.0115
3613.0,0.0116
3612.0,0.0115
3611.0,0.0113
3610.0,0.011
3609.0,0.0108
3608.0,0.0108
3607.0,0.011
3606.0,0.0112
3605.0,0.0113
3604.0,0.0115
3603.0,0.0115
3602.0,0.0116
3601.0,0.0117
3600.0,0.0118
3599.0,0.0121
3598.0,0.0123
3597.0,0.0124
3596.0,0.0125
3595.0,0.0125
3594.0,0.0125
3593.0,0.0126
3592.0,0.0128
3591.0,0.0131
3590.0,0.0134
3589.0,0.0136
3588.0,0.0139
3587.0,0.0142
3586.0,0.0144
3585.0,0.0145
3584.0,0.0146
3583.0,0.0147
3582.0,0.0149
3581.0,0.0152
3580.0,0.0154
3579.0,0.0156
3578.0,0.0157
3577.0,0.0158
3576.0,0.0158
3575.0,0.0159
3574.0,0.016
3573.0,0.0161
3572.0,0.0162
3571.0,0.0164
3570.0,0.0166
3569.0,0.0167
3568.0,0.017
3567.0,0.0174
3566.0,0.0178
3565.0,0.018
3564.0,0.0181
3563.0,0.0182
3562.0,0.0183
3561.0,0.0184
3560.0,0.0185
3559.0,0.0186
3558.0,0.0186
3557.0,0.0187
3556.0,0.0188
3555.0,0.0189
3554.0,0.0191
3553.0,0.0192
3552.0,0.0194
3551.0,0.0196
3550.0,0.0197
3549.0,0.02
3548.0,0.0202
3547.0,0.0204
3546.0,0.0206
3545.0,0.0207
3544.0,0.0207
3543.0,0.0208
3542.0,0.0209
3541.0,0.0209
3540.0,0.021
3539.0,0.0211
3538.0,0.0212
3537.0,0.0212
3536.0,0.0213
3535.0,0.0214
3534.0,0.0215
3533.0,0.0216
3532.0,0.0217
3531.0,0.0218
3530.0,0.0219
3529.0,0.0219
3528.0,0.022
3527.0,0.0221
3526.0,0.0222
3525.0,0.0223
3524.0,0.0224
3523.0,0.0225
3522.0,0.0226
3521.0,0.0226
3520.0,0.0227
3519.0,0.0228
3518.0,0.023
3517.0,0.0232
3516.0,0.0233
3515.0,0.0234
3514.0,0.0234
3513.0,0.0235
3512.0,0.0236
3511.0,0.0238
3510.0,0.0239
3509.0,0.024
3508.0,0.0241
3507.0,0.0241
3506.0,0.0242
3505.0,0.0242
3504.0,0.0243
3503.0,0.0245
3502.0,0.0247
3501.0,0.0249
3500.0,0.025
3499.0,0.025
3498.0,0.025
3497.0,0.0251
3496.0,0.0253
3495.0,0.0254
3494.0,0.0255
3493.0,0.0256
3492.0,0.0256
3491.0,0.0257
3490.0,0.0258
3489.0,0.0259
3488.0,0.0261
3487.0,0.0263
3486.0,0.0265
3485.0,0.0266
3484.0,0.0268
3483.0,0.0271
3482.0,0.0273
3481.0,0.0275
3480.0,0.0276
3479.0,0.0277
3478.0,0.0277
3477.0,0.0278
3476.0,0.028
3475.0,0.0282
3474.0,0.0284
3473.0,0.0285
3472.0,0.0285
3471.0,0.0286
3470.0,0.0287
3469.0,0.0289
3468.0,0.0291
3467.0,0.0293
3466.0,0.0295
3465.0,0.0297
3464.0,0.0298
3463.0,0.0299
3462.0,0.0301
3461.0,0.0302
3460.0,0.0304
3459.0,0.0306
3458.0,0.0309
3457.0,0.0311
3456.0,0.0313
3455.0,0.0314
3454.0,0.0315
3453.0,0.0316
3452.0,0.0318
3451.0,0.0319
3450.0,0.032
3449.0,0.0321
3448.0,0.0323
3447.0,0.0325
3446.0,0.0328
3445.0,0.033
3444.0,0.0332
3443.0,0.0333
3442.0,0.0334
3441.0,0.0336
3440.0,0.0338
3439.0,0.0339
3438.0,0.0341
3437.0,0.0343
3436.0,0.0344
3435.0,0.0346
3434.0,0.0348
3433.0,0.035
3432.0,0.0352
3431.0,0.0354
3430.0,0.0356
3429.0,0.0359
3428.0,0.036
3427.0,0.0361
3426.0,0.0361
3425.0,0.0362
3424.0,0.0363
3423.0,0.0364
3422.0,0.0367
3421.0,0.0369
3420.0,0.0371
3419.0,0.0373
3418.0,0.0375
3417.0,0.0376
3416.0,0.0378
3415.0,0.038
3414.0,0.0381
3413.0,0.0383
3412.0,0.0385
3411.0,0.0386
3410.0,0.0387
3409.0,0.0388
3408.0,0.0389
3407.0,0.039
3406.0,0.0391
3405.0,0.0391
3404.0,0.0391
3403.0,0.039
3402.0,0.039
3401.0,0.0391
3400.0,0.0392
3399.0,0.0393
3398.0,0.0393
3397.0,0.0394
3396.0,0.0395
3395.0,0.0395
3394.0,0.0395
3393.0,0.0395
3392.0,0.0394
3391.0,0.0394
3390.0,0.0393
3389.0,0.0392
3388.0,0.0391
3387.0,0.0391
3386.0,0.0391
3385.0,0.0392
3384.0,0.0392
3383.0,0.0392
3382.0,0.0392
3381.0,0.0391
3380.0,0.0389
3379.0,0.0388
3378.0,0.0388
3377.0,0.0387
3376.0,0.0386
3375.0,0.0385
3374.0,0.0384
3373.0,0.0384
3372.0,0.0383
3371.0,0.0382
3370.0,0.0381
3369.0,0.0381
3368.0,0.038
3367.0,0.0379
3366.0,0.0379
3365.0,0.0378
3364.0,0.0377
3363.0,0.0376
3362.0,0.0375
3361.0,0.0375
3360.0,0.0374
3359.0,0.0374
3358.0,0.0372
3357.0,0.0371
3356.0,0.0369
3355.0,0.0367
3354.0,0.0366
3353.0,0.0365
3352.0,0.0363
3351.0,0.0362
3350.0,0.0361
3349.0,0.0361
3348.0,0.036
3347.0,0.036
3346.0,0.0359
3345.0,0.0358
3344.0,0.0357
3343.0,0.0356
3342.0,0.0355
3341.0,0.0355
3340.0,0.0354
3339.0,0.0353
3338.0,0.0351
3337.0,0.035
3336.0,0.0349
3335.0,0.0347
3334.0,0.0346
3333.0,0.0344
3332.0,0.0342
3331.0,0.0341
3330.0,0.0339
3329.0,0.0338
3328.0,0.0336
3327.0,0.0335
3326.0,0.0335
3325.0,0.0334
3324.0,0.0334
3323.0,0.0334
3322.0,0.0333
3321.0,0.0331
3320.0,0.033
3319.0,0.033
3318.0,0.0329
3317.0,0.0329
3316.0,0.0327
3315.0,0.0325
3314.0,0.0324
3313.0,0.0323
3312.0,0.0322
3311.0,0.0321
3310.0,0.0321
3309.0,0.032
3308.0,0.0319
3307.0,0.0318
3306.0,0.0317
3305.0,0.0316
3304.0,0.0314
3303.0,0.0312
3302.0,0.0312
3301.0,0.0312
3300.0,0.0312
3299.0,0.0312
3298.0,0.0311
3297.0,0.0309
3296.0,0.0308
3295.0,0.0307
3294.0,0.0306
3293.0,0.0306
3292.0,0.0305
3291.0,0.0304
3290.0,0.0303
3289.0,0.0301
3288.0,0.03
3287.0,0.03
3286.0,0.03
3285.0,0.03
3284.0,0.03
3283.0,0.03
3282.0,0.0299
3281.0,0.0298
3280.0,0.0297
3279.0,0.0296
3278.0,0.0296
3277.0,0.0296
3276.0,0.0296
3275.0,0.0295
3274.0,0.0294
3273.0,0.0293
3272.0,0.0293
3271.0,0.0293
3270.0,0.0294
3269.0,0.0294
3268.0,0.0294
3267.0,0.0294
3266.0,0.0294
3265.0,0.0294
3264.0,0.0294
3263.0,0.0293
3262.0,0.0292
3261.0,0.0291
3260.0,0.029
3259.0,0.0289
3258.0,0.0288
3257.0,0.0287
3256.0,0.0286
3255.0,0.0287
3254.0,0.0287
3253.0,0.0288
3252.0,0.0288
3251.0,0.0288
3250.0,0.0287
3249.0,0.0285
3248.0,0.0284
3247.0,0.0284
3246.0,0.0283
3245.0,0.0283
3244.0,0.0282
3243.0,0.0282
3242.0,0.0281
3241.0,0.028
3240.0,0.028
3239.0,0.0279
3238.0,0.0278
3237.0,0.0277
3236.0,0.0275
3235.0,0.0274
3234.0,0.0273
3233.0,0.0272
3232.0,0.0271
3231.0,0.0269
3230.0,0.0268
3229.0,0.0266
3228.0,0.0265
3227.0,0.0264
3226.0,0.0263
3225.0,0.0262
3224.0,0.0262
3223.0,0.0262
3222.0,0.026
3221.0,0.0259
3220.0,0.0257
3219.0,0.0255
3218.0,0.0254
3217.0,0.0253
3216.0,0.0252
3215.0,0.0251
3214.0,0.0249
3213.0,0.0248
3212.0,0.0247
3211.0,0.0246
3210.0,0.0244
3209.0,0.0243
3208.0,0.0242
3207.0,0.0241
3206.0,0.024
3205.0,0.024
3204.0,0.0239
3203.0,0.0237
3202.0,0.0236
3201.0,0.0234
3200.0,0.0233
3199.0,0.0232
3198.0,0.0231
3197.0,0.023
3196.0,0.0228
3195.0,0.0227
3194.0,0.0224
3193.0,0.0222
3192.0,0.0221
3191.0,0.022
3190.0,0.022
3189.0,0.0219
3188.0,0.0219
3187.0,0.0218
3186.0,0.0217
3185.0,0.0216
3184.0,0.0214
3183.0,0.0213
3182.0,0.0211
3181.0,0.021
3180.0,0.0209
3179.0,0.0208
3178.0,0.0207
3177.0,0.0206
3176.0,0.0205
3175.0,0.0203
3174.0,0.0202
3173.0,0.02
3172.0,0.02
3171.0,0.0199
3170.0,0.0197
3169.0,0.0196
3168.0,0.0194
3167.0,0.0193
3166.0,0.0193
3165.0,0.0192
3164.0,0.0191
3163.0,0.0189
3162.0,0.0188
3161.0,0.0186
3160.0,0.0185
3159.0,0.0184
3158.0,0.0183
3157.0,0.0183
3156.0,0.0182
3155.0,0.0181
3154.0,0.018
3153.0,0.0179
3152.0,0.0179
3151.0,0.0178
3150.0,0.0177
3149.0,0.0175
3148.0,0.0174
3147.0,0.0172
3146.0,0.0171
3145.0,0.017
3144.0,0.0169
3143.0,0.0168
3142.0,0.0167
3141.0,0.0167
3140.0,0.0166
3139.0,0.0165
3138.0,0.0164
3137.0,0.0162
3136.0,0.0161
3135.0,0.0159
3134.0,0.0158
3133.0,0.0157
3132.0,0.0156
3131.0,0.0156
3130.0,0.0155
3129.0,0.0155
3128.0,0.0154
3127.0,0.0153
3126.0,0.0152
3125.0,0.0151
3124.0,0.0149
3123.0,0.0147
3122.0,0.0145
3121.0,0.0144
3120.0,0.0143
3119.0,0.0142
3118.0,0.0142
3117.0,0.0142
3116.0,0.0141
3115.0,0.0141
3114.0,0.014
3113.0,0.0139
3112.0,0.0138
3111.0,0.0137
3110.0,0.0135
3109.0,0.0133
3108.0,0.0131
3107.0,0.013
3106.0,0.013
3105.0,0.013
3104.0,0.013
3103.0,0.0129
3102.0,0.0127
3101.0,0.0126
3100.0,0.0125
3099.0,0.0123
3098.0,0.0122
3097.0,0.0121
3096.0,0.0121
3095.0,0.012
3094.0,0.0119
3093.0,0.0118
3092.0,0.0117
3091.0,0.0115
3090.0,0.0114
3089.0,0.0113
3088.0,0.0112
3087.0,0.0112
3086.0,0.0112
3085.0,0.0111
3084.0,0.011
3083.0,0.0109
3082.0,0.0108
3081.0,0.0107
3080.0,0.0107
3079.0,0.0107
3078.0,0.0106
3077.0,0.0105
3076.0,0.0104
3075.0,0.0102
3074.0,0.0101
3073.0,0.01
3072.0,0.0099
3071.0,0.0097
3070.0,0.0096
3069.0,0.0095
3068.0,0.0094
3067.0,0.0094
3066.0,0.0093
3065.0,0.0093
3064.0,0.0092
3063.0,0.0092
3062.0,0.0092
3061.0,0.0091
3060.0,0.009
3059.0,0.0089
3058.0,0.0089
3057.0,0.0088
3056.0,0.0088
3055.0,0.0087
3054.0,0.0086
3053.0,0.0085
3052.0,0.0085
3051.0,0.0084
3050.0,0.0083
3049.0,0.0082
3048.0,0.008
3047.0,0.0078
3046.0,0.0076
3045.0,0.0075
3044.0,0.0074
3043.0,0.0072
3042.0,0.0071
3041.0,0.0071
3040.0,0.007
3039.0,0.007
3038.0,0.0069
3037.0,0.0069
3036.0,0.0069
3035.0,0.0068
3034.0,0.0067
3033.0,0.0066
3032.0,0.0065
3031.0,0.0064
3030.0,0.0063
3029.0,0.0063
3028.0,0.0063
3027.0,0.0062
3026.0,0.0061
3025.0,0.0059
3024.0,0.0057
3023.0,0.0055
3022.0,0.0054
3021.0,0.0053
3020.0,0.0052
3019.0,0.0051
3018.0,0.005
3017.0,0.005
3016.0,0.0049
3015.0,0.0049
3014.0,0.0049
3013.0,0.0048
3012.0,0.0047
3011.0,0.0046
3010.0,0.0045
3009.0,0.0044
3008.0,0.0044
3007.0,0.0043
3006.0,0.0042
3005.0,0.0043
3004.0,0.0043
3003.0,0.0043
3002.0,0.0043
3001.0,0.0043
3000.0,0.0042
2999.0,0.0042
2998.0,0.0042
2997.0,0.0042
2996.0,0.0042
2995.0,0.0042
2994.0,0.0042
2993.0,0.0043
2992.0,0.0044
2991.0,0.0045
2990.0,0.0047
2989.0,0.005
2988.0,0.0053
2987.0,0.0056
2986.0,0.0061
2985.0,0.0065
2984.0,0.0071
2983.0,0.0077
2982.0,0.0085
2981.0,0.0094
2980.0,0.0104
2979.0,0.0116
2978.0,0.0129
2977.0,0.0145
2976.0,0.0162
2975.0,0.0183
2974.0,0.0206
2973.0,0.0232
2972.0,0.0261
2971.0,0.0293
2970.0,0.0328
2969.0,0.0365
2968.0,0.0404
2967.0,0.0444
2966.0,0.0485
2965.0,0.0524
2964.0,0.0562
2963.0,0.0596
2962.0,0.0625
2961.0,0.0648
2960.0,0.0667
2959.0,0.0685
2958.0,0.0706
2957.0,0.0731
2956.0,0.0763
2955.0,0.0802
2954.0,0.0845
2953.0,0.0889
2952.0,0.0929
2951.0,0.0959
2950.0,0.0973
2949.0,0.0968
2948.0,0.0944
2947.0,0.0904
2946.0,0.0852
2945.0,0.0792
2944.0,0.0731
2943.0,0.0674
2942.0,0.0627
2941.0,0.059
2940.0,0.0564
2939.0,0.0549
2938.0,0.0544
2937.0,0.0547
2936.0,0.0559
2935.0,0.0579
2934.0,0.0608
2933.0,0.0643
2932.0,0.0685
2931.0,0.0731
2930.0,0.078
2929.0,0.0831
2928.0,0.0881
2927.0,0.0931
2926.0,0.0978
2925.0,0.1025
2924.0,0.1071
2923.0,0.1119
2922.0,0.1166
2921.0,0.1212
2920.0,0.1253
2919.0,0.1284
2918.0,0.1302
2917.0,0.1304
2916.0,0.1291
2915.0,0.1266
2914.0,0.1232
2913.0,0.1195
2912.0,0.1158
2911.0,0.1125
2910.0,0.1096
2909.0,0.1069
2908.0,0.1043
2907.0,0.1017
2906.0,0.0991
2905.0,0.0964
2904.0,0.0938
2903.0,0.0911
2902.0,0.0884
2901.0,0.0857
2900.0,0.0831
2899.0,0.0805
2898.0,0.0782
2897.0,0.0759
2896.0,0.0739
2895.0,0.0721
2894.0,0.0706
2893.0,0.0694
2892.0,0.0685
2891.0,0.0678
2890.0,0.0673
2889.0,0.067
2888.0,0.067
2887.0,0.0671
2886.0,0.0674
2885.0,0.0678
2884.0,0.0685
2883.0,0.0694
2882.0,0.0705
2881.0,0.0717
2880.0,0.0729
2879.0,0.074
2878.0,0.0747
2877.0,0.075
2876.0,0.075
2875.0,0.0748
2874.0,0.0747
2873.0,0.0748
2872.0,0.0754
2871.0,0.0762
2870.0,0.0774
2869.0,0.0785
2868.0,0.0794
2867.0,0.0796
2866.0,0.0788
2865.0,0.0768
2864.0,0.0737
2863.0,0.0697
2862.0,0.0655
2861.0,0.0613
2860.0,0.0575
2859.0,0.0544
2858.0,0.0519
2857.0,0.05
2856.0,0.0487
2855.0,0.0478
2854.0,0.0473
2853.0,0.0471
2852.0,0.0473
2851.0,0.0476
2850.0,0.0483
2849.0,0.0493
2848.0,0.0508
2847.0,0.0527
2846.0,0.0551
2845.0,0.0578
2844.0,0.0609
2843.0,0.0642
2842.0,0.0675
2841.0,0.0707
2840.0,0.0733
2839.0,0.0751
2838.0,0.0759
2837.0,0.0753
2836.0,0.0735
2835.0,0.0706
2834.0,0.0668
2833.0,0.0628
2832.0,0.0587
2831.0,0.0549
2830.0,0.0516
2829.0,0.0488
2828.0,0.0464
2827.0,0.0444
2826.0,0.0426
2825.0,0.0412
2824.0,0.0399
2823.0,0.0387
2822.0,0.0377
2821.0,0.0368
2820.0,0.0361
2819.0,0.0354
2818.0,0.0348
2817.0,0.0343
2816.0,0.0338
2815.0,0.0333
2814.0,0.0328
2813.0,0.0323
2812.0,0.0319
2811.0,0.0315
2810.0,0.0311
2809.0,0.0307
2808.0,0.0303
2807.0,0.0298
2806.0,0.0293
2805.0,0.0288
2804.0,0.0283
2803.0,0.0279
2802.0,0.0275
2801.0,0.0272
2800.0,0.027
2799.0,0.0267
2798.0,0.0264
2797.0,0.0262
2796.0,0.0259
2795.0,0.0257
2794.0,0.0255
2793.0,0.0252
2792.0,0.0249
2791.0,0.0246
2790.0,0.0243
2789.0,0.024
2788.0,0.0238
2787.0,0.0236
2786.0,0.0234
2785.0,0.0232
2784.0,0.023
2783.0,0.0228
2782.0,0.0226
2781.0,0.0224
2780.0,0.0222
2779.0,0.022
2778.0,0.0218
2777.0,0.0216
2776.0,0.0215
2775.0,0.0214
2774.0,0.0213
2773.0,0.0212
2772.0,0.0212
2771.0,0.0211
2770.0,0.021
2769.0,0.0209
2768.0,0.0207
2767.0,0.0206
2766.0,0.0204
2765.0,0.0203
2764.0,0.0202
2763.0,0.0202
2762.0,0.0201
2761.0,0.0201
2760.0,0.02
2759.0,0.0199
2758.0,0.0198
2757.0,0.0197
2756.0,0.0197
2755.0,0.0196
2754.0,0.0194
2753.0,0.0193
2752.0,0.0192
2751.0,0.0191
2750.0,0.0191
2749.0,0.0191
2748.0,0.0191
2747.0,0.019
2746.0,0.019
2745.0,0.019
2744.0,0.0189
2743.0,0.0189
2742.0,0.0189
2741.0,0.0189
2740.0,0.019
2739.0,0.0191
2738.0,0.0191
2737.0,0.0192
2736.0,0.0192
2735.0,0.0192
2734.0,0.0192
2733.0,0.0192
2732.0,0.0193
2731.0,0.0194
2730.0,0.0195
2729.0,0.0196
2728.0,0.0197
2727.0,0.0199
2726.0,0.0201
2725.0,0.0203
2724.0,0.0204
2723.0,0.0205
2722.0,0.0205
2721.0,0.0204
2720.0,0.0203
2719.0,0.0202
2718.0,0.0201
2717.0,0.0199
2716.0,0.0197
2715.0,0.0195
2714.0,0.0193
2713.0,0.019
2712.0,0.0188
2711.0,0.0186
2710.0,0.0185
2709.0,0.0183
2708.0,0.0182
2707.0,0.0181
2706.0,0.0181
2705.0,0.018
2704.0,0.0179
2703.0,0.0178
2702.0,0.0177
2701.0,0.0177
2700.0,0.0176
2699.0,0.0176
2698.0,0.0175
2697.0,0.0174
2696.0,0.0173
2695.0,0.0172
2694.0,0.0172
2693.0,0.0172
2692.0,0.0172
2691.0,0.0172
2690.0,0.0172
2689.0,0.0171
2688.0,0.0171
2687.0,0.0171
2686.0,0.0171
2685.0,0.017
2684.0,0.017
2683.0,0.0169
2682.0,0.0168
2681.0,0.0168
2680.0,0.0167
2679.0,0.0167
2678.0,0.0168
2677.0,0.0168
2676.0,0.0169
2675.0,0.0169
2674.0,0.0168
2673.0,0.0168
2672.0,0.0167
2671.0,0.0167
2670.0,0.0166
2669.0,0.0166
2668.0,0.0165
2667.0,0.0165
2666.0,0.0164
2665.0,0.0164
2664.0,0.0164
2663.0,0.0164
2662.0,0.0164
2661.0,0.0164
2660.0,0.0164
2659.0,0.0164
2658.0,0.0164
2657.0,0.0163
2656.0,0.0162
2655.0,0.0162
2654.0,0.0162
2653.0,0.0161
2652.0,0.0161
2651.0,0.016
2650.0,0.016
2649.0,0.0159
2648.0,0.0159
2647.0,0.0159
2646.0,0.0158
2645.0,0.0158
2644.0,0.0158
2643.0,0.0157
2642.0,0.0156
2641.0,0.0156
2640.0,0.0155
2639.0,0.0155
2638.0,0.0155
2637.0,0.0154
2636.0,0.0154
2635.0,0.0154
2634.0,0.0154
2633.0,0.0154
2632.0,0.0154
2631.0,0.0153
2630.0,0.0152
2629.0,0.0152
2628.0,0.0153
2627.0,0.0153
2626.0,0.0153
2625.0,0.0154
2624.0,0.0154
2623.0,0.0154
2622.0,0.0154
2621.0,0.0154
2620.0,0.0154
2619.0,0.0154
2618.0,0.0154
2617.0,0.0154
2616.0,0.0154
2615.0,0.0154
2614.0,0.0154
2613.0,0.0154
2612.0,0.0153
2611.0,0.0152
2610.0,0.0152
2609.0,0.0152
2608.0,0.0151
2607.0,0.0151
2606.0,0.015
2605.0,0.015
2604.0,0.0149
2603.0,0.0149
2602.0,0.0149
2601.0,0.0149
2600.0,0.0149
2599.0,0.0149
2598.0,0.0148
2597.0,0.0148
2596.0,0.0148
2595.0,0.0148
2594.0,0.0148
2593.0,0.0149
2592.0,0.0149
2591.0,0.0148
2590.0,0.0149
2589.0,0.015
2588.0,0.0151
2587.0,0.0152
2586.0,0.0152
2585.0,0.0151
2584.0,0.0151
2583.0,0.0152
2582.0,0.0152
2581.0,0.0152
2580.0,0.0152
2579.0,0.0151
2578.0,0.015
2577.0,0.0149
2576.0,0.0149
2575.0,0.0149
2574.0,0.0149
2573.0,0.0149
2572.0,0.0148
2571.0,0.0147
2570.0,0.0146
2569.0,0.0146
2568.0,0.0146
2567.0,0.0145
2566.0,0.0144
2565.0,0.0143
2564.0,0.0143
2563.0,0.0142
2562.0,0.0142
2561.0,0.0142
2560.0,0.0143
2559.0,0.0143
2558.0,0.0142
2557.0,0.0142
2556.0,0.0141
2555.0,0.0141
2554.0,0.0141
2553.0,0.0141
2552.0,0.0141
2551.0,0.0142
2550.0,0.0142
2549.0,0.0141
2548.0,0.0141
2547.0,0.014
2546.0,0.0139
2545.0,0.0139
2544.0,0.0138
2543.0,0.0137
2542.0,0.0137
2541.0,0.0138
2540.0,0.0138
2539.0,0.0138
2538.0,0.0138
2537.0,0.0138
2536.0,0.0137
2535.0,0.0136
2534.0,0.0135
2533.0,0.0135
2532.0,0.0135
2531.0,0.0135
2530.0,0.0135
2529.0,0.0135
2528.0,0.0136
2527.0,0.0135
2526.0,0.0135
2525.0,0.0135
2524.0,0.0135
2523.0,0.0135
2522.0,0.0135
2521.0,0.0135
2520.0,0.0134
2519.0,0.0135
2518.0,0.0135
2517.0,0.0135
2516.0,0.0135
2515.0,0.0134
2514.0,0.0134
2513.0,0.0134
2512.0,0.0133
2511.0,0.0132
2510.0,0.0132
2509.0,0.0131
2508.0,0.0131
2507.0,0.0131
2506.0,0.0131
2505.0,0.0132
2504.0,0.0132
2503.0,0.0133
2502.0,0.0133
2501.0,0.0133
2500.0,0.0133
2499.0,0.0132
2498.0,0.0132
2497.0,0.0132
2496.0,0.0131
2495.0,0.0131
2494.0,0.0131
2493.0,0.0131
2492.0,0.0131
2491.0,0.0131
2490.0,0.013
2489.0,0.013
2488.0,0.013
2487.0,0.013
2486.0,0.013
2485.0,0.0129
2484.0,0.0129
2483.0,0.0129
2482.0,0.0129
2481.0,0.0129
2480.0,0.0129
2479.0,0.0129
2478.0,0.0129
2477.0,0.0129
2476.0,0.0129
2475.0,0.0129
2474.0,0.0129
2473.0,0.0129
2472.0,0.013
2471.0,0.013
2470.0,0.013
2469.0,0.013
2468.0,0.013
2467.0,0.0129
2466.0,0.0129
2465.0,0.0129
2464.0,0.0129
2463.0,0.0129
2462.0,0.0128
2461.0,0.0128
2460.0,0.0128
2459.0,0.0128
2458.0,0.0128
2457.0,0.0128
2456.0,0.0129
2455.0,0.0129
2454.0,0.0129
2453.0,0.0129
2452.0,0.0129
2451.0,0.0129
2450.0,0.0129
2449.0,0.0129
2448.0,0.0129
2447.0,0.0129
2446.0,0.0129
2445.0,0.0129
2444.0,0.0129
2443.0,0.0129
2442.0,0.0129
2441.0,0.0128
2440.0,0.0128
2439.0,0.0128
2438.0,0.0128
2437.0,0.0128
2436.0,0.0128
2435.0,0.0129
2434.0,0.0129
2433.0,0.0129
2432.0,0.0129
2431.0,0.0129
2430.0,0.013
2429.0,0.013
2428.0,0.0131
2427.0,0.0131
2426.0,0.013
2425.0,0.013
2424.0,0.0129
2423.0,0.0129
2422.0,0.0129
2421.0,0.0129
2420.0,0.0129
2419.0,0.0129
2418.0,0.0129
2417.0,0.0129
2416.0,0.013
2415.0,0.013
2414.0,0.013
2413.0,0.013
2412.0,0.013
2411.0,0.0129
2410.0,0.0129
2409.0,0.013
2408.0,0.013
2407.0,0.013
2406.0,0.013
2405.0,0.013
2404.0,0.013
2403.0,0.013
2402.0,0.013
2401.0,0.013
2400.0,0.013
2399.0,0.013
2398.0,0.013
2397.0,0.0129
2396.0,0.0129
2395.0,0.0129
2394.0,0.0129
2393.0,0.0129
2392.0,0.0128
2391.0,0.0127
2390.0,0.0125
2389.0,0.0122
2388.0,0.0118
2387.0,0.0112
2386.0,0.0106
2385.0,0.0098
2384.0,0.009
2383.0,0.0084
2382.0,0.008
2381.0,0.0078
2380.0,0.0077
2379.0,0.0078
2378.0,0.0077
2377.0,0.0075
2376.0,0.0072
2375.0,0.0067
2374.0,0.0061
2373.0,0.0055
2372.0,0.0048
2371.0,0.0041
2370.0,0.0034
2369.0,0.0031
2368.0,0.003
2367.0,0.0028
2366.0,0.0024
2365.0,0.0023
2364.0,0.0025
2363.0,0.0024
2362.0,0.0021
2361.0,0.0026
2360.0,0.0038
2359.0,0.0041
2358.0,0.0028
2357.0,0.0007
2356.0,-0.0014
2355.0,-0.0033
2354.0,-0.0042
2353.0,-0.0036
2352.0,-0.0021
2351.0,-0.0008
2350.0,0.0
2349.0,0.0005
2348.0,0.0006
2347.0,0.0003
2346.0,-0.0007
2345.0,-0.002
2344.0,-0.0034
2343.0,-0.0041
2342.0,-0.0033
2341.0,-0.0011
2340.0,0.0005
2339.0,0.0008
2338.0,0.0005
2337.0,0.0003
2336.0,0.0004
2335.0,0.0001
2334.0,-0.0001
2333.0,-0.0
2332.0,0.0003
2331.0,0.0002
2330.0,-0.0003
2329.0,-0.0012
2328.0,-0.0018
2327.0,-0.0018
2326.0,-0.0009
2325.0,0.0009
2324.0,0.003
2323.0,0.0046
2322.0,0.0054
2321.0,0.0052
2320.0,0.0045
2319.0,0.0038
2318.0,0.0034
2317.0,0.0032
2316.0,0.0031
2315.0,0.0028
2314.0,0.0025
2313.0,0.0021
2312.0,0.0017
2311.0,0.0014
2310.0,0.0014
2309.0,0.0018
2308.0,0.0024
2307.0,0.0033
2306.0,0.0041
2305.0,0.0046
2304.0,0.0047
2303.0,0.0047
2302.0,0.0047
2301.0,0.0049
2300.0,0.0053
2299.0,0.0057
2298.0,0.0059
2297.0,0.0061
2296.0,0.0064
2295.0,0.0067
2294.0,0.0071
2293.0,0.0076
2292.0,0.0081
2291.0,0.0086
2290.0,0.009
2289.0,0.0094
2288.0,0.0098
2287.0,0.0102
2286.0,0.0106
2285.0,0.011
2284.0,0.0112
2283.0,0.0112
2282.0,0.0111
2281.0,0.011
2280.0,0.0108
2279.0,0.0108
2278.0,0.0108
2277.0,0.0108
2276.0,0.0108
2275.0,0.0108
2274.0,0.0109
2273.0,0.0109
2272.0,0.0109
2271.0,0.0109
2270.0,0.0109
2269.0,0.0109
2268.0,0.0109
2267.0,0.011
2266.0,0.011
2265.0,0.011
2264.0,0.0111
2263.0,0.0112
2262.0,0.0112
2261.0,0.0113
2260.0,0.0114
2259.0,0.0115
2258.0,0.0116
2257.0,0.0116
2256.0,0.0117
2255.0,0.0118
2254.0,0.0118
2253.0,0.0118
2252.0,0.0118
2251.0,0.0119
2250.0,0.012
2249.0,0.012
2248.0,0.0121
2247.0,0.012
2246.0,0.0121
2245.0,0.0121
2244.0,0.0121
2243.0,0.0122
2242.0,0.0122
2241.0,0.0122
2240.0,0.0123
2239.0,0.0123
2238.0,0.0123
2237.0,0.0124
2236.0,0.0124
2235.0,0.0124
2234.0,0.0124
2233.0,0.0124
2232.0,0.0124
2231.0,0.0124
2230.0,0.0124
2229.0,0.0124
2228.0,0.0123
2227.0,0.0124
2226.0,0.0124
2225.0,0.0125
2224.0,0.0125
2223.0,0.0125
2222.0,0.0125
2221.0,0.0124
2220.0,0.0124
2219.0,0.0123
2218.0,0.0123
2217.0,0.0123
2216.0,0.0123
2215.0,0.0123
2214.0,0.0124
2213.0,0.0124
2212.0,0.0124
2211.0,0.0124
2210.0,0.0124
2209.0,0.0124
2208.0,0.0124
2207.0,0.0124
2206.0,0.0124
2205.0,0.0123
2204.0,0.0123
2203.0,0.0123
2202.0,0.0123
2201.0,0.0124
2200.0,0.0124
2199.0,0.0124
2198.0,0.0124
2197.0,0.0124
2196.0,0.0123
2195.0,0.0123
2194.0,0.0124
2193.0,0.0124
2192.0,0.0124
2191.0,0.0124
2190.0,0.0124
2189.0,0.0123
2188.0,0.0123
2187.0,0.0123
2186.0,0.0123
2185.0,0.0123
2184.0,0.0123
2183.0,0.0123
2182.0,0.0122
2181.0,0.0122
2180.0,0.0122
2179.0,0.0123
2178.0,0.0123
2177.0,0.0123
2176.0,0.0123
2175.0,0.0122
2174.0,0.0123
2173.0,0.0123
2172.0,0.0123
2171.0,0.0124
2170.0,0.0124
2169.0,0.0124
2168.0,0.0124
2167.0,0.0123
2166.0,0.0122
2165.0,0.0122
2164.0,0.0121
2163.0,0.0121
2162.0,0.0121
2161.0,0.0121
2160.0,0.0121
2159.0,0.0121
2158.0,0.0121
2157.0,0.0121
2156.0,0.012
2155.0,0.012
2154.0,0.012
2153.0,0.012
2152.0,0.012
2151.0,0.012
2150.0,0.012
2149.0,0.012
2148.0,0.012
2147.0,0.012
2146.0,0.012
2145.0,0.0119
2144.0,0.0119
2143.0,0.0119
2142.0,0.0119
2141.0,0.0119
2140.0,0.0119
2139.0,0.0119
2138.0,0.0119
2137.0,0.012
2136.0,0.0121
2135.0,0.0121
2134.0,0.0121
2133.0,0.0121
2132.0,0.0121
2131.0,0.012
2130.0,0.012
2129.0,0.012
2128.0,0.012
2127.0,0.012
2126.0,0.012
2125.0,0.012
2124.0,0.012
2123.0,0.0119
2122.0,0.0119
2121.0,0.0119
2120.0,0.0118
2119.0,0.0118
2118.0,0.0118
2117.0,0.0117
2116.0,0.0118
2115.0,0.0118
2114.0,0.0118
2113.0,0.0119
2112.0,0.0119
2111.0,0.0119
2110.0,0.0119
2109.0,0.0118
2108.0,0.0118
2107.0,0.0118
2106.0,0.0118
2105.0,0.0118
2104.0,0.0118
2103.0,0.0118
2102.0,0.0118
2101.0,0.0118
2100.0,0.0118
2099.0,0.0118
2098.0,0.0118
2097.0,0.0117
2096.0,0.0117
2095.0,0.0117
2094.0,0.0117
2093.0,0.0118
2092.0,0.0118
2091.0,0.0118
2090.0,0.0118
2089.0,0.0118
2088.0,0.0118
2087.0,0.0118
2086.0,0.0118
2085.0,0.0118
2084.0,0.0118
2083.0,0.0117
2082.0,0.0117
2081.0,0.0117
2080.0,0.0117
2079.0,0.0116
2078.0,0.0115
2077.0,0.0115
2076.0,0.0116
2075.0,0.0116
2074.0,0.0117
2073.0,0.0117
2072.0,0.0117
2071.0,0.0117
2070.0,0.0117
2069.0,0.0116
2068.0,0.0116
2067.0,0.0117
2066.0,0.0117
2065.0,0.0117
2064.0,0.0117
2063.0,0.0117
2062.0,0.0117
2061.0,0.0117
2060.0,0.0116
2059.0,0.0116
2058.0,0.0116
2057.0,0.0116
2056.0,0.0116
2055.0,0.0116
2054.0,0.0116
2053.0,0.0116
2052.0,0.0116
2051.0,0.0116
2050.0,0.0116
2049.0,0.0115
2048.0,0.0115
2047.0,0.0115
2046.0,0.0115
2045.0,0.0115
2044.0,0.0115
2043.0,0.0115
2042.0,0.0115
2041.0,0.0116
2040.0,0.0116
2039.0,0.0116
2038.0,0.0116
2037.0,0.0116
2036.0,0.0115
2035.0,0.0115
2034.0,0.0115
2033.0,0.0115
2032.0,0.0115
2031.0,0.0116
2030.0,0.0116
2029.0,0.0116
2028.0,0.0116
2027.0,0.0116
2026.0,0.0115
2025.0,0.0115
2024.0,0.0115
2023.0,0.0115
2022.0,0.0115
2021.0,0.0115
2020.0,0.0115
2019.0,0.0115
2018.0,0.0116
2017.0,0.0116
2016.0,0.0116
2015.0,0.0116
2014.0,0.0115
2013.0,0.0115
2012.0,0.0115
2011.0,0.0115
2010.0,0.0115
2009.0,0.0115
2008.0,0.0115
2007.0,0.0115
2006.0,0.0115
2005.0,0.0115
2004.0,0.0114
2003.0,0.0114
2002.0,0.0114
2001.0,0.0114
2000.0,0.0114
1999.0,0.0114
1998.0,0.0114
1997.0,0.0114
1996.0,0.0114
1995.0,0.0115
1994.0,0.0115
1993.0,0.0115
1992.0,0.0115
1991.0,0.0115
1990.0,0.0115
1989.0,0.0115
1988.0,0.0115
1987.0,0.0115
1986.0,0.0115
1985.0,0.0115
1984.0,0.0115
1983.0,0.0115
1982.0,0.0114
1981.0,0.0114
1980.0,0.0114
1979.0,0.0114
1978.0,0.0113
1977.0,0.0113
1976.0,0.0113
1975.0,0.0113
1974.0,0.0114
1973.0,0.0114
1972.0,0.0114
1971.0,0.0114
1970.0,0.0114
1969.0,0.0114
1968.0,0.0114
1967.0,0.0113
1966.0,0.0113
1965.0,0.0114
1964.0,0.0114
1963.0,0.0114
1962.0,0.0114
1961.0,0.0114
1960.0,0.0114
1959.0,0.0114
1958.0,0.0114
1957.0,0.0114
1956.0,0.0114
1955.0,0.0113
1954.0,0.0113
1953.0,0.0113
1952.0,0.0113
1951.0,0.0113
1950.0,0.0113
1949.0,0.0113
1948.0,0.0114
1947.0,0.0113
1946.0,0.0113
1945.0,0.0114
1944.0,0.0114
1943.0,0.0113
1942.0,0.0113
1941.0,0.0114
1940.0,0.0114
1939.0,0.0114
1938.0,0.0114
1937.0,0.0114
1936.0,0.0114
1935.0,0.0114
1934.0,0.0114
1933.0,0.0114
1932.0,0.0114
1931.0,0.0114
1930.0,0.0114
1929.0,0.0114
1928.0,0.0115
1927.0,0.0115
1926.0,0.0115
1925.0,0.0115
1924.0,0.0115
1923.0,0.0115
1922.0,0.0115
1921.0,0.0115
1920.0,0.0114
1919.0,0.0114
1918.0,0.0114
1917.0,0.0113
1916.0,0.0114
1915.0,0.0114
1914.0,0.0115
1913.0,0.0116
1912.0,0.0116
1911.0,0.0115
1910.0,0.0115
1909.0,0.0115
1908.0,0.0115
1907.0,0.0115
1906.0,0.0115
1905.0,0.0115
1904.0,0.0115
1903.0,0.0115
1902.0,0.0116
1901.0,0.0116
1900.0,0.0116
1899.0,0.0116
1898.0,0.0116
1897.0,0.0116
1896.0,0.0116
1895.0,0.0116
1894.0,0.0116
1893.0,0.0116
1892.0,0.0117
1891.0,0.0117
1890.0,0.0117
1889.0,0.0117
1888.0,0.0117
1887.0,0.0117
1886.0,0.0116
1885.0,0.0116
1884.0,0.0116
1883.0,0.0116
1882.0,0.0115
1881.0,0.0115
1880.0,0.0115
1879.0,0.0116
1878.0,0.0115
1877.0,0.0115
1876.0,0.0115
1875.0,0.0115
1874.0,0.0115
1873.0,0.0115
1872.0,0.0116
1871.0,0.0116
1870.0,0.0115
1869.0,0.0115
1868.0,0.0115
1867.0,0.0116
1866.0,0.0116
1865.0,0.0115
1864.0,0.0115
1863.0,0.0115
1862.0,0.0115
1861.0,0.0115
1860.0,0.0116
1859.0,0.0116
1858.0,0.0116
1857.0,0.0116
1856.0,0.0116
1855.0,0.0116
1854.0,0.0116
1853.0,0.0115
1852.0,0.0115
1851.0,0.0115
1850.0,0.0115
1849.0,0.0115
1848.0,0.0115
1847.0,0.0115
1846.0,0.0115
1845.0,0.0115
1844.0,0.0114
1843.0,0.0114
1842.0,0.0115
1841.0,0.0115
1840.0,0.0116
1839.0,0.0116
1838.0,0.0116
1837.0,0.0116
1836.0,0.0117
1835.0,0.0117
1834.0,0.0117
1833.0,0.0117
1832.0,0.0117
1831.0,0.0117
1830.0,0.0116
1829.0,0.0116
1828.0,0.0116
1827.0,0.0117
1826.0,0.0117
1825.0,0.0116
1824.0,0.0116
1823.0,0.0116
1822.0,0.0116
1821.0,0.0116
1820.0,0.0116
1819.0,0.0116
1818.0,0.0116
1817.0,0.0116
1816.0,0.0116
1815.0,0.0116
1814.0,0.0116
1813.0,0.0117
1812.0,0.0117
1811.0,0.0117
1810.0,0.0116
1809.0,0.0116
1808.0,0.0116
1807.0,0.0116
1806.0,0.0116
1805.0,0.0116
1804.0,0.0117
1803.0,0.0117
1802.0,0.0117
1801.0,0.0117
1800.0,0.0117
1799.0,0.0118
1798.0,0.0117
1797.0,0.0117
1796.0,0.0117
1795.0,0.0117
1794.0,0.0117
1793.0,0.0117
1792.0,0.0117
1791.0,0.0117
1790.0,0.0118
1789.0,0.0118
1788.0,0.0118
1787.0,0.0119
1786.0,0.0118
1785.0,0.0118
1784.0,0.0118
1783.0,0.0118
1782.0,0.0119
1781.0,0.0119
1780.0,0.0119
1779.0,0.0119
1778.0,0.0119
1777.0,0.0119
1776.0,0.012
1775.0,0.012
1774.0,0.0119
1773.0,0.0119
1772.0,0.0119
1771.0,0.0119
1770.0,0.0119
1769.0,0.0119
1768.0,0.012
1767.0,0.012
1766.0,0.012
1765.0,0.012
1764.0,0.012
1763.0,0.012
1762.0,0.0119
1761.0,0.012
1760.0,0.012
1759.0,0.0121
1758.0,0.0121
1757.0,0.0121
1756.0,0.0122
1755.0,0.0123
1754.0,0.0123
1753.0,0.0124
1752.0,0.0124
1751.0,0.0125
1750.0,0.0125
1749.0,0.0126
1748.0,0.0126
1747.0,0.0127
1746.0,0.0127
1745.0,0.0128
1744.0,0.0129
1743.0,0.0129
1742.0,0.0129
1741.0,0.0129
1740.0,0.0129
1739.0,0.0129
1738.0,0.013
1737.0,0.013
1736.0,0.013
1735.0,0.0129
1734.0,0.0129
1733.0,0.0131
1732.0,0.0133
1731.0,0.0135
1730.0,0.0136
1729.0,0.0137
1728.0,0.0136
1727.0,0.0136
1726.0,0.0136
1725.0,0.0137
1724.0,0.0137
1723.0,0.0137
1722.0,0.0138
1721.0,0.0139
1720.0,0.0141
1719.0,0.0142
1718.0,0.0142
1717.0,0.0141
1716.0,0.0142
1715.0,0.0142
1714.0,0.0143
1713.0,0.0144
1712.0,0.0145
1711.0,0.0147
1710.0,0.0148
1709.0,0.0149
1708.0,0.015
1707.0,0.0151
1706.0,0.0152
1705.0,0.0152
1704.0,0.0151
1703.0,0.0151
1702.0,0.015
1701.0,0.015
1700.0,0.0152
1699.0,0.0155
1698.0,0.0159
1697.0,0.0163
1696.0,0.0167
1695.0,0.0168
1694.0,0.0169
1693.0,0.017
1692.0,0.0173
1691.0,0.0175
1690.0,0.0177
1689.0,0.0179
1688.0,0.0182
1687.0,0.0185
1686.0,0.0188
1685.0,0.0191
1684.0,0.0196
1683.0,0.0198
1682.0,0.0199
1681.0,0.0201
1680.0,0.0203
1679.0,0.0204
1678.0,0.0204
1677.0,0.0206
1676.0,0.0208
1675.0,0.0212
1674.0,0.0215
1673.0,0.0217
1672.0,0.022
1671.0,0.0222
1670.0,0.0226
1669.0,0.0232
1668.0,0.0236
1667.0,0.0239
1666.0,0.0241
1665.0,0.0243
1664.0,0.0245
1663.0,0.0249
1662.0,0.0252
1661.0,0.0256
1660.0,0.0258
1659.0,0.026
1658.0,0.0261
1657.0,0.0262
1656.0,0.0265
1655.0,0.0268
1654.0,0.0273
1653.0,0.0282
1652.0,0.0286
1651.0,0.0286
1650.0,0.0287
1649.0,0.0289
1648.0,0.0294
1647.0,0.0302
1646.0,0.031
1645.0,0.0315
1644.0,0.0319
1643.0,0.0323
1642.0,0.0327
1641.0,0.0329
1640.0,0.0329
1639.0,0.0327
1638.0,0.0323
1637.0,0.0317
1636.0,0.0311
1635.0,0.0304
1634.0,0.0297
1633.0,0.0291
1632.0,0.0285
1631.0,0.028
1630.0,0.0274
1629.0,0.0267
1628.0,0.0261
1627.0,0.0255
1626.0,0.0249
1625.0,0.0244
1624.0,0.0239
1623.0,0.0235
1622.0,0.0232
1621.0,0.0229
1620.0,0.0227
1619.0,0.0224
1618.0,0.0222
1617.0,0.0219
1616.0,0.0217
1615.0,0.0214
1614.0,0.0212
1613.0,0.021
1612.0,0.0209
1611.0,0.0208
1610.0,0.0207
1609.0,0.0206
1608.0,0.0205
1607.0,0.0203
1606.0,0.0201
1605.0,0.0199
1604.0,0.0198
1603.0,0.0196
1602.0,0.0195
1601.0,0.0194
1600.0,0.0193
1599.0,0.0192
1598.0,0.019
1597.0,0.0189
1596.0,0.0188
1595.0,0.0187
1594.0,0.0186
1593.0,0.0185
1592.0,0.0184
1591.0,0.0183
1590.0,0.0182
1589.0,0.0181
1588.0,0.018
1587.0,0.018
1586.0,0.0179
1585.0,0.0179
1584.0,0.0178
1583.0,0.0178
1582.0,0.0177
1581.0,0.0176
1580.0,0.0175
1579.0,0.0175
1578.0,0.0175
1577.0,0.0175
1576.0,0.0174
1575.0,0.0172
1574.0,0.017
1573.0,0.0168
1572.0,0.0168
1571.0,0.0166
1570.0,0.0165
1569.0,0.0164
1568.0,0.0163
1567.0,0.0163
1566.0,0.0163
1565.0,0.0163
1564.0,0.0163
1563.0,0.0163
1562.0,0.0164
1561.0,0.0165
1560.0,0.0164
1559.0,0.016
1558.0,0.0158
1557.0,0.0155
1556.0,0.0154
1555.0,0.0155
1554.0,0.0154
1553.0,0.0154
1552.0,0.0154
1551.0,0.0155
1550.0,0.0154
1549.0,0.0154
1548.0,0.0153
1547.0,0.0153
1546.0,0.0152
1545.0,0.015
1544.0,0.0149
1543.0,0.0147
1542.0,0.0145
1541.0,0.0145
1540.0,0.0149
1539.0,0.015
1538.0,0.0148
1537.0,0.0147
1536.0,0.0147
1535.0,0.0147
1534.0,0.0147
1533.0,0.0148
1532.0,0.0148
1531.0,0.0148
1530.0,0.0147
1529.0,0.0147
1528.0,0.0147
1527.0,0.0146
1526.0,0.0145
1525.0,0.0145
1524.0,0.0145
1523.0,0.0145
1522.0,0.0146
1521.0,0.0147
1520.0,0.0148
1519.0,0.0147
1518.0,0.0147
1517.0,0.0148
1516.0,0.0148
1515.0,0.0148
1514.0,0.0147
1513.0,0.0147
1512.0,0.0147
1511.0,0.0147
1510.0,0.0148
1509.0,0.0148
1508.0,0.0148
1507.0,0.0148
1506.0,0.0148
1505.0,0.0146
1504.0,0.0146
1503.0,0.0146
1502.0,0.0146
1501.0,0.0145
1500.0,0.0145
1499.0,0.0145
1498.0,0.0144
1497.0,0.0144
1496.0,0.0145
1495.0,0.0145
1494.0,0.0145
1493.0,0.0146
1492.0,0.0148
1491.0,0.0148
1490.0,0.0148
1489.0,0.015
1488.0,0.0152
1487.0,0.0153
1486.0,0.0155
1485.0,0.0158
1484.0,0.0162
1483.0,0.0165
1482.0,0.0168
1481.0,0.0173
1480.0,0.0178
1479.0,0.0182
1478.0,0.0188
1477.0,0.0197
1476.0,0.0208
1475.0,0.022
1474.0,0.024
1473.0,0.0277
1472.0,0.0323
1471.0,0.0361
1470.0,0.0395
1469.0,0.0432
1468.0,0.0472
1467.0,0.0517
1466.0,0.0574
1465.0,0.0641
1464.0,0.0698
1463.0,0.0736
1462.0,0.0759
1461.0,0.0777
1460.0,0.0792
1459.0,0.0803
1458.0,0.0817
1457.0,0.0838
1456.0,0.0851
1455.0,0.0853
1454.0,0.0853
1453.0,0.0851
1452.0,0.0844
1451.0,0.0832
1450.0,0.0812
1449.0,0.0781
1448.0,0.0737
1447.0,0.0689
1446.0,0.0646
1445.0,0.0607
1444.0,0.0572
1443.0,0.054
1442.0,0.0516
1441.0,0.0498
1440.0,0.0485
1439.0,0.0478
1438.0,0.0479
1437.0,0.0485
1436.0,0.0486
1435.0,0.0477
1434.0,0.0459
1433.0,0.0435
1432.0,0.0407
1431.0,0.038
1430.0,0.0358
1429.0,0.034
1428.0,0.0327
1427.0,0.0318
1426.0,0.0311
1425.0,0.0303
1424.0,0.0295
1423.0,0.029
1422.0,0.0286
1421.0,0.0282
1420.0,0.0277
1419.0,0.0273
1418.0,0.0272
1417.0,0.0269
1416.0,0.0267
1415.0,0.0265
1414.0,0.0263
1413.0,0.026
1412.0,0.0257
1411.0,0.0255
1410.0,0.0252
1409.0,0.0249
1408.0,0.0245
1407.0,0.0242
1406.0,0.0238
1405.0,0.0234
1404.0,0.0229
1403.0,0.0225
1402.0,0.0223
1401.0,0.022
1400.0,0.0216
1399.0,0.0213
1398.0,0.0211
1397.0,0.0208
1396.0,0.0204
1395.0,0.0201
1394.0,0.0199
1393.0,0.0196
1392.0,0.0193
1391.0,0.0192
1390.0,0.0193
1389.0,0.0194
1388.0,0.0199
1387.0,0.0213
1386.0,0.0235
1385.0,0.0266
1384.0,0.0312
1383.0,0.0379
1382.0,0.047
1381.0,0.0586
1380.0,0.0731
1379.0,0.0898
1378.0,0.1061
1377.0,0.1189
1376.0,0.1255
1375.0,0.1238
1374.0,0.1143
1373.0,0.1017
1372.0,0.0896
1371.0,0.0789
1370.0,0.0693
1369.0,0.0611
1368.0,0.055
1367.0,0.0509
1366.0,0.0484
1365.0,0.0469
1364.0,0.0464
1363.0,0.0468
1362.0,0.048
1361.0,0.0494
1360.0,0.0505
1359.0,0.0508
1358.0,0.0503
1357.0,0.0489
1356.0,0.0468
1355.0,0.0442
1354.0,0.0416
1353.0,0.0394
1352.0,0.0375
1351.0,0.0359
1350.0,0.0345
1349.0,0.0334
1348.0,0.0324
1347.0,0.0315
1346.0,0.0307
1345.0,0.03
1344.0,0.0294
1343.0,0.0289
1342.0,0.0285
1341.0,0.0282
1340.0,0.0279
1339.0,0.0277
1338.0,0.0275
1337.0,0.0273
1336.0,0.0272
1335.0,0.0271
1334.0,0.0272
1333.0,0.0274
1332.0,0.0276
1331.0,0.0279
1330.0,0.028
1329.0,0.0279
1328.0,0.0277
1327.0,0.0274
1326.0,0.027
1325.0,0.0266
1324.0,0.0263
1323.0,0.0259
1322.0,0.0256
1321.0,0.0253
1320.0,0.0251
1319.0,0.0249
1318.0,0.0248
1317.0,0.0246
1316.0,0.0244
1315.0,0.0242
1314.0,0.0241
1313.0,0.024
1312.0,0.0239
1311.0,0.0239
1310.0,0.0239
1309.0,0.0241
1308.0,0.0244
1307.0,0.0249
1306.0,0.0255
1305.0,0.026
1304.0,0.0261
1303.0,0.0261
1302.0,0.0259
1301.0,0.0258
1300.0,0.0257
1299.0,0.0258
1298.0,0.026
1297.0,0.0261
1296.0,0.0263
1295.0,0.0262
1294.0,0.0261
1293.0,0.0258
1292.0,0.0254
1291.0,0.0251
1290.0,0.0248
1289.0,0.0246
1288.0,0.0244
1287.0,0.0242
1286.0,0.0241
1285.0,0.0239
1284.0,0.0238
1283.0,0.0237
1282.0,0.0236
1281.0,0.0234
1280.0,0.0233
1279.0,0.0232
1278.0,0.0232
1277.0,0.0231
1276.0,0.023
1275.0,0.023
1274.0,0.023
1273.0,0.023
1272.0,0.0229
1271.0,0.0229
1270.0,0.0229
1269.0,0.023
1268.0,0.0231
1267.0,0.0232
1266.0,0.0233
1265.0,0.0233
1264.0,0.0234
1263.0,0.0236
1262.0,0.0238
1261.0,0.0241
1260.0,0.0246
1259.0,0.025
1258.0,0.0255
1257.0,0.0258
1256.0,0.026
1255.0,0.026
1254.0,0.0257
1253.0,0.0254
1252.0,0.0251
1251.0,0.0248
1250.0,0.0245
1249.0,0.0243
1248.0,0.0241
1247.0,0.0239
1246.0,0.0238
1245.0,0.0237
1244.0,0.0236
1243.0,0.0235
1242.0,0.0234
1241.0,0.0233
1240.0,0.0233
1239.0,0.0232
1238.0,0.0232
1237.0,0.0232
1236.0,0.0232
1235.0,0.0232
1234.0,0.0233
1233.0,0.0233
1232.0,0.0234
1231.0,0.0234
1230.0,0.0235
1229.0,0.0235
1228.0,0.0235
1227.0,0.0236
1226.0,0.0237
1225.0,0.0239
1224.0,0.0242
1223.0,0.0245
1222.0,0.0248
1221.0,0.025
1220.0,0.0251
1219.0,0.0252
1218.0,0.0252
1217.0,0.0252
1216.0,0.0252
1215.0,0.025
1214.0,0.0249
1213.0,0.0248
1212.0,0.0247
1211.0,0.0246
1210.0,0.0246
1209.0,0.0246
1208.0,0.0246
1207.0,0.0246
1206.0,0.0246
1205.0,0.0246
1204.0,0.0247
1203.0,0.0248
1202.0,0.0248
1201.0,0.0249
1200.0,0.0249
1199.0,0.025
1198.0,0.0252
1197.0,0.0253
1196.0,0.0255
1195.0,0.0257
1194.0,0.0258
1193.0,0.0259
1192.0,0.0259
1191.0,0.026
1190.0,0.0262
1189.0,0.0264
1188.0,0.0266
1187.0,0.0267
1186.0,0.0268
1185.0,0.027
1184.0,0.0271
1183.0,0.0274
1182.0,0.0276
1181.0,0.0279
1180.0,0.0283
1179.0,0.0287
1178.0,0.0291
1177.0,0.0297
1176.0,0.0304
1175.0,0.0314
1174.0,0.0325
1173.0,0.034
1172.0,0.0358
1171.0,0.0377
1170.0,0.0396
1169.0,0.0412
1168.0,0.0422
1167.0,0.0427
1166.0,0.0428
1165.0,0.0427
1164.0,0.0426
1163.0,0.0424
1162.0,0.0424
1161.0,0.0424
1160.0,0.0425
1159.0,0.0427
1158.0,0.043
1157.0,0.0434
1156.0,0.044
1155.0,0.0445
1154.0,0.0452
1153.0,0.0457
1152.0,0.0462
1151.0,0.0466
1150.0,0.0468
1149.0,0.0469
1148.0,0.047
1147.0,0.0471
1146.0,0.0473
1145.0,0.0474
1144.0,0.0476
1143.0,0.0478
1142.0,0.0482
1141.0,0.0485
1140.0,0.0489
1139.0,0.0493
1138.0,0.0497
1137.0,0.0501
1136.0,0.0506
1135.0,0.051
1134.0,0.0515
1133.0,0.0519
1132.0,0.0522
1131.0,0.0524
1130.0,0.0526
1129.0,0.0528
1128.0,0.0528
1127.0,0.0529
1126.0,0.0529
1125.0,0.053
1124.0,0.053
1123.0,0.0529
1122.0,0.0528
1121.0,0.0526
1120.0,0.0524
1119.0,0.0521
1118.0,0.0518
1117.0,0.0514
1116.0,0.051
1115.0,0.0506
1114.0,0.0502
1113.0,0.05
1112.0,0.0498
1111.0,0.0496
1110.0,0.0495
1109.0,0.0494
1108.0,0.0493
1107.0,0.0494
1106.0,0.0496
1105.0,0.0499
1104.0,0.0501
1103.0,0.0502
1102.0,0.05
1101.0,0.0495
1100.0,0.0489
1099.0,0.0483
1098.0,0.0477
1097.0,0.0471
1096.0,0.0464
1095.0,0.0459
1094.0,0.0453
1093.0,0.0449
1092.0,0.0446
1091.0,0.0443
1090.0,0.0439
1089.0,0.0435
1088.0,0.0431
1087.0,0.0428
1086.0,0.0425
1085.0,0.0422
1084.0,0.042
1083.0,0.0417
1082.0,0.0414
1081.0,0.041
1080.0,0.0406
1079.0,0.0402
1078.0,0.0397
1077.0,0.0393
1076.0,0.0388
1075.0,0.0384
1074.0,0.038
1073.0,0.0376
1072.0,0.0371
1071.0,0.0367
1070.0,0.0362
1069.0,0.0358
1068.0,0.0353
1067.0,0.0349
1066.0,0.0344
1065.0,0.034
1064.0,0.0337
1063.0,0.0333
1062.0,0.033
1061.0,0.0326
1060.0,0.0323
1059.0,0.032
1058.0,0.0317
1057.0,0.0315
1056.0,0.0313
1055.0,0.0311
1054.0,0.0309
1053.0,0.0306
1052.0,0.0305
1051.0,0.0304
1050.0,0.0304
1049.0,0.0304
1048.0,0.0304
1047.0,0.0303
1046.0,0.0302
1045.0,0.0301
1044.0,0.03
1043.0,0.0299
1042.0,0.0297
1041.0,0.0296
1040.0,0.0293
1039.0,0.0291
1038.0,0.0289
1037.0,0.0287
1036.0,0.0286
1035.0,0.0285
1034.0,0.0283
1033.0,0.0282
1032.0,0.028
1031.0,0.0278
1030.0,0.0277
1029.0,0.0276
1028.0,0.0275
1027.0,0.0273
1026.0,0.0271
1025.0,0.027
1024.0,0.0269
1023.0,0.0269
1022.0,0.0268
1021.0,0.0268
1020.0,0.0267
1019.0,0.0267
1018.0,0.0267
1017.0,0.0267
1016.0,0.0267
1015.0,0.0267
1014.0,0.0268
1013.0,0.0268
1012.0,0.0269
1011.0,0.0271
1010.0,0.0272
1009.0,0.0273
1008.0,0.0275
1007.0,0.0278
1006.0,0.0283
1005.0,0.0289
1004.0,0.0298
1003.0,0.0311
1002.0,0.0328
1001.0,0.035
1000.0,0.0373
999.0,0.0392
998.0,0.0403
997.0,0.0401
996.0,0.0388
995.0,0.0369
994.0,0.0348
993.0,0.033
992.0,0.0315
991.0,0.0304
990.0,0.0295
989.0,0.0289
988.0,0.0285
987.0,0.0283
986.0,0.0283
985.0,0.0283
984.0,0.0284
983.0,0.0285
982.0,0.029
981.0,0.0298
980.0,0.0312
979.0,0.0331
978.0,0.0355
977.0,0.0384
976.0,0.0415
975.0,0.0443
974.0,0.0463
973.0,0.047
972.0,0.0462
971.0,0.0442
970.0,0.0415
969.0,0.0387
968.0,0.0363
967.0,0.0345
966.0,0.0331
965.0,0.0321
964.0,0.0313
963.0,0.0307
962.0,0.0301
961.0,0.0297
960.0,0.0293
959.0,0.0289
958.0,0.0286
957.0,0.0282
956.0,0.0279
955.0,0.0277
954.0,0.0275
953.0,0.0274
952.0,0.0273
951.0,0.0272
950.0,0.0271
949.0,0.027
948.0,0.027
947.0,0.027
946.0,0.0271
945.0,0.0273
944.0,0.0277
943.0,0.028
942.0,0.0283
941.0,0.0285
940.0,0.0285
939.0,0.0284
938.0,0.0281
937.0,0.0278
936.0,0.0274
935.0,0.027
934.0,0.0268
933.0,0.0266
932.0,0.0264
931.0,0.0262
930.0,0.0261
929.0,0.026
928.0,0.026
927.0,0.0259
926.0,0.0258
925.0,0.0258
924.0,0.0258
923.0,0.0258
922.0,0.0258
921.0,0.0257
920.0,0.0257
919.0,0.0257
918.0,0.0256
917.0,0.0256
916.0,0.0257
915.0,0.0258
914.0,0.0259
913.0,0.026
912.0,0.0261
911.0,0.0262
910.0,0.0263
909.0,0.0263
908.0,0.0265
907.0,0.0268
906.0,0.0273
905.0,0.0282
904.0,0.0295
903.0,0.0311
902.0,0.0329
901.0,0.0347
900.0,0.0359
899.0,0.0364
898.0,0.0361
897.0,0.0352
896.0,0.034
895.0,0.0328
894.0,0.0317
893.0,0.0309
892.0,0.0302
891.0,0.0297
890.0,0.0293
889.0,0.029
888.0,0.0288
887.0,0.0287
886.0,0.0287
885.0,0.0287
884.0,0.0287
883.0,0.0287
882.0,0.0288
881.0,0.0289
880.0,0.0291
879.0,0.0293
878.0,0.0295
877.0,0.0296
876.0,0.0297
875.0,0.0298
874.0,0.0299
873.0,0.0301
872.0,0.0302
871.0,0.0301
870.0,0.03
869.0,0.0298
868.0,0.0298
867.0,0.0298
866.0,0.0299
865.0,0.03
864.0,0.03
863.0,0.03
862.0,0.03
861.0,0.03
860.0,0.03
859.0,0.0302
858.0,0.0304
857.0,0.0305
856.0,0.0306
855.0,0.0307
854.0,0.0309
853.0,0.0311
852.0,0.0313
851.0,0.0316
850.0,0.0319
849.0,0.0322
848.0,0.0326
847.0,0.0333
846.0,0.0344
845.0,0.0361
844.0,0.0386
843.0,0.0414
842.0,0.0437
841.0,0.0445
840.0,0.0435
839.0,0.0414
838.0,0.0391
837.0,0.0373
836.0,0.0361
835.0,0.0355
834.0,0.0351
833.0,0.0349
832.0,0.0347
831.0,0.0346
830.0,0.0343
829.0,0.0341
828.0,0.0338
827.0,0.0336
826.0,0.0334
825.0,0.0334
824.0,0.0334
823.0,0.0335
822.0,0.0336
821.0,0.0338
820.0,0.034
819.0,0.0343
818.0,0.0345
817.0,0.0349
816.0,0.0355
815.0,0.0363
814.0,0.0374
813.0,0.0388
812.0,0.0405
811.0,0.0421
810.0,0.0435
809.0,0.0443
808.0,0.0445
807.0,0.0441
806.0,0.0431
805.0,0.042
804.0,0.0408
803.0,0.0398
802.0,0.039
801.0,0.0385
800.0,0.0383
799.0,0.0382
798.0,0.0381
797.0,0.038
796.0,0.0379
795.0,0.0379
794.0,0.0379
793.0,0.0378
792.0,0.0376
791.0,0.0374
790.0,0.0373
789.0,0.0372
788.0,0.0373
787.0,0.0374
786.0,0.0375
785.0,0.0375
784.0,0.0376
783.0,0.0376
782.0,0.0376
781.0,0.0376
780.0,0.0376
779.0,0.0376
778.0,0.0377
777.0,0.0379
776.0,0.0382
775.0,0.0384
774.0,0.0385
773.0,0.0385
772.0,0.0385
771.0,0.0386
770.0,0.0385
769.0,0.0385
768.0,0.0386
767.0,0.0386
766.0,0.0386
765.0,0.0387
764.0,0.0388
763.0,0.0389
762.0,0.039
761.0,0.039
760.0,0.039
759.0,0.039
758.0,0.0389
757.0,0.0388
756.0,0.0387
755.0,0.0387
754.0,0.0387
753.0,0.0387
752.0,0.0388
751.0,0.039
750.0,0.0393
749.0,0.0396
748.0,0.0399
747.0,0.0401
746.0,0.0402
745.0,0.0403
744.0,0.0402
743.0,0.04
742.0,0.0397
741.0,0.0395
740.0,0.0394
739.0,0.0394
738.0,0.0394
737.0,0.0396
736.0,0.0397
735.0,0.0398
734.0,0.0398
733.0,0.0398
732.0,0.0399
731.0,0.04
730.0,0.0401
729.0,0.0402
728.0,0.0403
727.0,0.0404
726.0,0.0403
725.0,0.0403
724.0,0.0402
723.0,0.0398
722.0,0.0392
721.0,0.0387
720.0,0.0387
719.0,0.0393
718.0,0.0401
717.0,0.0405
716.0,0.0407
715.0,0.0408
714.0,0.0408
713.0,0.0409
712.0,0.0409
711.0,0.0409
710.0,0.0406
709.0,0.0401
708.0,0.0395
707.0,0.0391
706.0,0.039
705.0,0.0391
704.0,0.0395
703.0,0.04
702.0,0.0404
701.0,0.0404
700.0,0.0403
699.0,0.0401
698.0,0.0399
697.0,0.0398
696.0,0.0398
695.0,0.0399
694.0,0.0398
693.0,0.0395
692.0,0.0394
691.0,0.0395
690.0,0.0399
689.0,0.0402
688.0,0.0402
687.0,0.0404
686.0,0.0409
685.0,0.0416
684.0,0.042
683.0,0.0414
682.0,0.0401
681.0,0.0389
680.0,0.0382
679.0,0.0383
678.0,0.0387
677.0,0.0389
676.0,0.0392
675.0,0.0398
674.0,0.0406
673.0,0.0412
672.0,0.0424
671.0,0.0458
670.0,0.0522
669.0,0.06
668.0,0.0652
667.0,0.0621
666.0,0.0534
665.0,0.0464
664.0,0.0433
663.0,0.043
662.0,0.0431
661.0,0.0426
660.0,0.0417
659.0,0.0406
658.0,0.0399
657.0,0.04
656.0,0.0409
655.0,0.042
654.0,0.0427
653.0,0.0431
652.0,0.0436
651.0,0.044
650.0,0.0442
649.0,0.0442
648.0,0.0443
647.0,0.0448
646.0,0.0456
645.0,0.0466
644.0,0.0475
643.0,0.048
642.0,0.0482
641.0,0.0486
640.0,0.0494
639.0,0.0508
638.0,0.0524
637.0,0.0542
636.0,0.0556
635.0,0.0563
634.0,0.0557
633.0,0.0546
632.0,0.0536
631.0,0.0531
630.0,0.0527
629.0,0.0524
628.0,0.0523
627.0,0.0519
626.0,0.0514
625.0,0.0509
624.0,0.0508
623.0,0.0509
622.0,0.0511
621.0,0.0514
620.0,0.0517
619.0,0.0515
618.0,0.0507
617.0,0.05
616.0,0.0499
615.0,0.05
614.0,0.0499
613.0,0.0496
612.0,0.0494
611.0,0.0494
610.0,0.0495
609.0,0.0497
608.0,0.0501
607.0,0.0504
606.0,0.0504
605.0,0.0501
604.0,0.0495
603.0,0.0485
602.0,0.047
601.0,0.0456
600.0,0.0449
