cm-1,A
4000.0,0.0053
3999.0,0.0053
3998.0,0.0053
3997.0,0.0053
3996.0,0.0052
3995.0,0.0052
3994.0,0.0052
3993.0,0.0052
3992.0,0.0052
3991.0,0.0052
3990.0,0.0051
3989.0,0.0051
3988.0,0.0051
3987.0,0.0051
3986.0,0.0051
3985.0,0.0051
3984.0,0.0051
3983.0,0.005
3982.0,0.005
3981.0,0.005
3980.0,0.005
3979.0,0.0051
3978.0,0.0051
3977.0,0.0052
3976.0,0.0052
3975.0,0.0052
3974.0,0.0051
3973.0,0.005
3972.0,0.005
3971.0,0.005
3970.0,0.0051
3969.0,0.0051
3968.0,0.0052
3967.0,0.0053
3966.0,0.0053
3965.0,0.0054
3964.0,0.0054
3963.0,0.0054
3962.0,0.0054
3961.0,0.0053
3960.0,0.0052
3959.0,0.0052
3958.0,0.0051
3957.0,0.0051
3956.0,0.0052
3955.0,0.0052
3954.0,0.0053
3953.0,0.0053
3952.0,0.0052
3951.0,0.0052
3950.0,0.0053
3949.0,0.0053
3948.0,0.0054
3947.0,0.0054
3946.0,0.0054
3945.0,0.0053
3944.0,0.0052
3943.0,0.0052
3942.0,0.0052
3941.0,0.0052
3940.0,0.0052
3939.0,0.0052
3938.0,0.0052
3937.0,0.0052
3936.0,0.0052
3935.0,0.0052
3934.0,0.0052
3933.0,0.0052
3932.0,0.0053
3931.0,0.0054
3930.0,0.0055
3929.0,0.0055
3928.0,0.0055
3927.0,0.0055
3926.0,0.0054
3925.0,0.0053
3924.0,0.0053
3923.0,0.0053
3922.0,0.0054
3921.0,0.0054
3920.0,0.0053
3919.0,0.0053
3918.0,0.0053
3917.0,0.0054
3916.0,0.0054
3915.0,0.0054
3914.0,0.0055
3913.0,0.0055
3912.0,0.0055
3911.0,0.0055
3910.0,0.0054
3909.0,0.0053
3908.0,0.0053
3907.0,0.0052
3906.0,0.0052
3905.0,0.0053
3904.0,0.0053
3903.0,0.0054
3902.0,0.0055
3901.0,0.0056
3900.0,0.0056
3899.0,0.0056
3898.0,0.0056
3897.0,0.0055
3896.0,0.0055
3895.0,0.0054
3894.0,0.0054
3893.0,0.0053
3892.0,0.0053
3891.0,0.0052
3890.0,0.0052
3889.0,0.0053
3888.0,0.0055
3887.0,0.0056
3886.0,0.0056
3885.0,0.0056
3884.0,0.0056
3883.0,0.0057
3882.0,0.0056
3881.0,0.0056
3880.0,0.0055
3879.0,0.0055
3878.0,0.0055
3877.0,0.0055
3876.0,0.0055
3875.0,0.0054
3874.0,0.0053
3873.0,0.0053
3872.0,0.0053
3871.0,0.0053
3870.0,0.0053
3869.0,0.0053
3868.0,0.0054
3867.0,0.0055
3866.0,0.0056
3865.0,0.0055
3864.0,0.0056
3863.0,0.0056
3862.0,0.0056
3861.0,0.0055
3860.0,0.0054
3859.0,0.0052
3858.0,0.0051
3857.0,0.0052
3856.0,0.0054
3855.0,0.0057
3854.0,0.0057
3853.0,0.0055
3852.0,0.0054
3851.0,0.0054
3850.0,0.0055
3849.0,0.0056
3848.0,0.0056
3847.0,0.0055
3846.0,0.0055
3845.0,0.0055
3844.0,0.0056
3843.0,0.0055
3842.0,0.0055
3841.0,0.0054
3840.0,0.0053
3839.0,0.0052
3838.0,0.0052
3837.0,0.0052
3836.0,0.0053
3835.0,0.0055
3834.0,0.0056
3833.0,0.0057
3832.0,0.0057
3831.0,0.0056
3830.0,0.0056
3829.0,0.0057
3828.0,0.0057
3827.0,0.0056
3826.0,0.0055
3825.0,0.0055
3824.0,0.0055
3823.0,0.0055
3822.0,0.0054
3821.0,0.0053
3820.0,0.0054
3819.0,0.0056
3818.0,0.0058
3817.0,0.0059
3816.0,0.0059
3815.0,0.0059
3814.0,0.0059
3813.0,0.0059
3812.0,0.0059
3811.0,0.0058
3810.0,0.0058
3809.0,0.0057
3808.0,0.0056
3807.0,0.0055
3806.0,0.0054
3805.0,0.0054
3804.0,0.0054
3803.0,0.0055
3802.0,0.0055
3801.0,0.0055
3800.0,0.0056
3799.0,0.0057
3798.0,0.0057
3797.0,0.0057
3796.0,0.0058
3795.0,0.0059
3794.0,0.006
3793.0,0.006
3792.0,0.006
3791.0,0.006
3790.0,0.0059
3789.0,0.0059
3788.0,0.0058
3787.0,0.0058
3786.0,0.0058
3785.0,0.0058
3784.0,0.0058
3783.0,0.0058
3782.0,0.0059
3781.0,0.006
3780.0,0.006
3779.0,0.006
3778.0,0.006
3777.0,0.006
3776.0,0.006
3775.0,0.006
3774.0,0.0059
3773.0,0.0059
3772.0,0.0059
3771.0,0.0059
3770.0,0.0058
3769.0,0.0058
3768.0,0.0058
3767.0,0.0058
3766.0,0.0058
3765.0,0.0057
3764.0,0.0057
3763.0,0.0058
3762.0,0.0058
3761.0,0.0057
3760.0,0.0057
3759.0,0.0057
3758.0,0.0057
3757.0,0.0057
3756.0,0.0056
3755.0,0.0055
3754.0,0.0054
3753.0,0.0053
3752.0,0.0052
3751.0,0.0052
3750.0,0.0052
3749.0,0.005
3748.0,0.0049
3747.0,0.005
3746.0,0.005
3745.0,0.0049
3744.0,0.0047
3743.0,0.0046
3742.0,0.0046
3741.0,0.0044
3740.0,0.0042
3739.0,0.004
3738.0,0.0038
3737.0,0.0035
3736.0,0.0033
3735.0,0.0033
3734.0,0.0033
3733.0,0.0033
3732.0,0.0031
3731.0,0.0029
3730.0,0.0028
3729.0,0.0028
3728.0,0.0027
3727.0,0.0027
3726.0,0.0028
3725.0,0.003
3724.0,0.0032
3723.0,0.0034
3722.0,0.0037
3721.0,0.004
3720.0,0.0044
3719.0,0.0048
3718.0,0.0051
3717.0,0.0053
3716.0,0.0054
3715.0,0.0052
3714.0,0.0049
3713.0,0.0045
3712.0,0.0041
3711.0,0.0039
3710.0,0.0038
3709.0,0.0038
3708.0,0.0038
3707.0,0.0038
3706.0,0.0039
3705.0,0.004
3704.0,0.0041
3703.0,0.0043
3702.0,0.0044
3701.0,0.0044
3700.0,0.0043
3699.0,0.0043
3698.0,0.0043
3697.0,0.0044
3696.0,0.0044
3695.0,0.0044
3694.0,0.0043
3693.0,0.0043
3692.0,0.0043
3691.0,0.0046
3690.0,0.0049
3689.0,0.0052
3688.0,0.0053
3687.0,0.0054
3686.0,0.0055
3685.0,0.0056
3684.0,0.0056
3683.0,0.0057
3682.0,0.0056
3681.0,0.0056
3680.0,0.0054
3679.0,0.0053
3678.0,0.0053
3677.0,0.0054
3676.0,0.0055
3675.0,0.0057
3674.0,0.0057
3673.0,0.0059
3672.0,0.0061
3671.0,0.0062
3670.0,0.0063
3669.0,0.0063
3668.0,0.0063
3667.0,0.0062
3666.0,0.0062
3665.0,0.0061
3664.0,0.0061
3663.0,0.0061
3662.0,0.0061
3661.0,0.0061
3660.0,0.0061
3659.0,0.0062
3658.0,0.0063
3657.0,0.0064
3656.0,0.0064
3655.0,0.0064
3654.0,0.0064
3653.0,0.0065
3652.0,0.0066
3651.0,0.0065
3650.0,0.0065
3649.0,0.0066
3648.0,0.0066
3647.0,0.0065
3646.0,0.0065
3645.0,0.0064
3644.0,0.0064
3643.0,0.0063
3642.0,0.0062
3641.0,0.0061
3640.0,0.006
3639.0,0.006
3638.0,0.0059
3637.0,0.0058
3636.0,0.0057
3635.0,0.0054
3634.0,0.0051
3633.0,0.0048
3632.0,0.0047
3631.0,0.0046
3630.0,0.0046
3629.0,0.0046
3628.0,0.0046
3627.0,0.0047
3626.0,0.0048
3625.0,0.0049
3624.0,0.005
3623.0,0.0052
3622.0,0.0054
3621.0,0.0057
3620.0,0.006
3619.0,0.0062
3618.0,0.0063
3617.0,0.0064
3616.0,0.0065
3615.0,0.0067
3614.0,0.0068
3613.0,0.0069
3612.0,0.0068
3611.0,0.0067
3610.0,0.0065
3609.0,0.0063
3608.0,0.0063
3607.0,0.0064
3606.0,0.0065
3605.0,0.0065
3604.0,0.0065
3603.0,0.0064
3602.0,0.0063
3601.0,0.0063
3600.0,0.0064
3599.0,0.0065
3598.0,0.0065
3597.0,0.0065
3596.0,0.0065
3595.0,0.0065
3594.0,0.0065
3593.0,0.0066
3592.0,0.0067
3591.0,0.0068
3590.0,0.0069
3589.0,0.007
3588.0,0.0071
3587.0,0.0072
3586.0,0.0073
3585.0,0.0074
3584.0,0.0074
3583.0,0.0075
3582.0,0.0076
3581.0,0.0076
3580.0,0.0077
3579.0,0.0077
3578.0,0.0077
3577.0,0.0078
3576.0,0.0078
3575.0,0.0078
3574.0,0.0078
3573.0,0.0079
3572.0,0.0079
3571.0,0.008
3570.0,0.008
3569.0,0.0081
3568.0,0.0081
3567.0,0.0081
3566.0,0.0082
3565.0,0.0082
3564.0,0.0082
3563.0,0.0082
3562.0,0.0083
3561.0,0.0083
3560.0,0.0084
3559.0,0.0084
3558.0,0.0085
3557.0,0.0085
3556.0,0.0086
3555.0,0.0086
3554.0,0.0087
3553.0,0.0087
3552.0,0.0088
3551.0,0.0088
3550.0,0.0088
3549.0,0.0088
3548.0,0.0088
3547.0,0.0088
3546.0,0.0089
3545.0,0.009
3544.0,0.009
3543.0,0.009
3542.0,0.009
3541.0,0.009
3540.0,0.0091
3539.0,0.009
3538.0,0.009
3537.0,0.009
3536.0,0.009
3535.0,0.0091
3534.0,0.0091
3533.0,0.0091
3532.0,0.0091
3531.0,0.009
3530.0,0.009
3529.0,0.0091
3528.0,0.0092
3527.0,0.0093
3526.0,0.0093
3525.0,0.0093
3524.0,0.0093
3523.0,0.0093
3522.0,0.0092
3521.0,0.0093
3520.0,0.0094
3519.0,0.0095
3518.0,0.0095
3517.0,0.0095
3516.0,0.0095
3515.0,0.0094
3514.0,0.0094
3513.0,0.0094
3512.0,0.0094
3511.0,0.0095
3510.0,0.0095
3509.0,0.0095
3508.0,0.0095
3507.0,0.0095
3506.0,0.0096
3505.0,0.0097
3504.0,0.0097
3503.0,0.0097
3502.0,0.0097
3501.0,0.0097
3500.0,0.0097
3499.0,0.0097
3498.0,0.0098
3497.0,0.0099
3496.0,0.01
3495.0,0.01
3494.0,0.0099
3493.0,0.0099
3492.0,0.0099
3491.0,0.01
3490.0,0.01
3489.0,0.0099
3488.0,0.0099
3487.0,0.0099
3486.0,0.0099
3485.0,0.0098
3484.0,0.0098
3483.0,0.0098
3482.0,0.0098
3481.0,0.0099
3480.0,0.01
3479.0,0.0101
3478.0,0.0102
3477.0,0.0103
3476.0,0.0103
3475.0,0.0103
3474.0,0.0103
3473.0,0.0104
3472.0,0.0104
3471.0,0.0104
3470.0,0.0104
3469.0,0.0104
3468.0,0.0103
3467.0,0.0103
3466.0,0.0103
3465.0,0.0104
3464.0,0.0104
3463.0,0.0105
3462.0,0.0105
3461.0,0.0106
3460.0,0.0106
3459.0,0.0106
3458.0,0.0107
3457.0,0.0107
3456.0,0.0107
3455.0,0.0107
3454.0,0.0107
3453.0,0.0107
3452.0,0.0106
3451.0,0.0106
3450.0,0.0106
3449.0,0.0106
3448.0,0.0106
3447.0,0.0106
3446.0,0.0106
3445.0,0.0106
3444.0,0.0107
3443.0,0.0107
3442.0,0.0108
3441.0,0.0108
3440.0,0.0108
3439.0,0.0108
3438.0,0.0108
3437.0,0.0107
3436.0,0.0108
3435.0,0.0108
3434.0,0.0109
3433.0,0.0109
3432.0,0.0109
3431.0,0.0109
3430.0,0.0109
3429.0,0.0109
3428.0,0.011
3427.0,0.011
3426.0,0.011
3425.0,0.011
3424.0,0.0109
3423.0,0.0109
3422.0,0.0109
3421.0,0.0109
3420.0,0.011
3419.0,0.011
3418.0,0.0109
3417.0,0.0109
3416.0,0.0108
3415.0,0.0108
3414.0,0.0108
3413.0,0.0108
3412.0,0.0108
3411.0,0.0108
3410.0,0.0109
3409.0,0.011
3408.0,0.0111
3407.0,0.0111
3406.0,0.0111
3405.0,0.0111
3404.0,0.0111
3403.0,0.0112
3402.0,0.0112
3401.0,0.0112
3400.0,0.0111
3399.0,0.0111
3398.0,0.011
3397.0,0.011
3396.0,0.011
3395.0,0.011
3394.0,0.011
3393.0,0.011
3392.0,0.0109
3391.0,0.0109
3390.0,0.0109
3389.0,0.011
3388.0,0.0111
3387.0,0.0113
3386.0,0.0114
3385.0,0.0114
3384.0,0.0113
3383.0,0.0112
3382.0,0.0112
3381.0,0.0111
3380.0,0.0111
3379.0,0.011
3378.0,0.0109
3377.0,0.0109
3376.0,0.0109
3375.0,0.0109
3374.0,0.0109
3373.0,0.011
3372.0,0.011
3371.0,0.0111
3370.0,0.0111
3369.0,0.0111
3368.0,0.0111
3367.0,0.0111
3366.0,0.011
3365.0,0.0109
3364.0,0.0109
3363.0,0.0109
3362.0,0.0108
3361.0,0.0109
3360.0,0.0109
3359.0,0.0108
3358.0,0.0108
3357.0,0.0108
3356.0,0.0108
3355.0,0.0107
3354.0,0.0107
3353.0,0.0107
3352.0,0.0108
3351.0,0.0109
3350.0,0.011
3349.0,0.011
3348.0,0.011
3347.0,0.0109
3346.0,0.0108
3345.0,0.0108
3344.0,0.0108
3343.0,0.0109
3342.0,0.0109
3341.0,0.0109
3340.0,0.0109
3339.0,0.0109
3338.0,0.0109
3337.0,0.0109
3336.0,0.0109
3335.0,0.0108
3334.0,0.0107
3333.0,0.0106
3332.0,0.0106
3331.0,0.0106
3330.0,0.0106
3329.0,0.0107
3328.0,0.0108
3327.0,0.0109
3326.0,0.0109
3325.0,0.0109
3324.0,0.0108
3323.0,0.0107
3322.0,0.0107
3321.0,0.0107
3320.0,0.0107
3319.0,0.0106
3318.0,0.0106
3317.0,0.0106
3316.0,0.0106
3315.0,0.0105
3314.0,0.0105
3313.0,0.0105
3312.0,0.0104
3311.0,0.0104
3310.0,0.0104
3309.0,0.0104
3308.0,0.0104
3307.0,0.0103
3306.0,0.0103
3305.0,0.0103
3304.0,0.0104
3303.0,0.0105
3302.0,0.0106
3301.0,0.0106
3300.0,0.0106
3299.0,0.0105
3298.0,0.0105
3297.0,0.0104
3296.0,0.0104
3295.0,0.0104
3294.0,0.0103
3293.0,0.0103
3292.0,0.0102
3291.0,0.0101
3290.0,0.01
3289.0,0.0099
3288.0,0.0099
3287.0,0.0099
3286.0,0.0099
3285.0,0.01
3284.0,0.0101
3283.0,0.0101
3282.0,0.0101
3281.0,0.01
3280.0,0.01
3279.0,0.0099
3278.0,0.0098
3277.0,0.0097
3276.0,0.0097
3275.0,0.0096
3274.0,0.0097
3273.0,0.0098
3272.0,0.0099
3271.0,0.01
3270.0,0.01
3269.0,0.01
3268.0,0.01
3267.0,0.0099
3266.0,0.0098
3265.0,0.0097
3264.0,0.0097
3263.0,0.0097
3262.0,0.0097
3261.0,0.0097
3260.0,0.0096
3259.0,0.0095
3258.0,0.0095
3257.0,0.0095
3256.0,0.0096
3255.0,0.0096
3254.0,0.0096
3253.0,0.0096
3252.0,0.0095
3251.0,0.0094
3250.0,0.0093
3249.0,0.0092
3248.0,0.0092
3247.0,0.0092
3246.0,0.0092
3245.0,0.0093
3244.0,0.0093
3243.0,0.0094
3242.0,0.0094
3241.0,0.0093
3240.0,0.0092
3239.0,0.0091
3238.0,0.0091
3237.0,0.0091
3236.0,0.0092
3235.0,0.0092
3234.0,0.0091
3233.0,0.009
3232.0,0.0089
3231.0,0.0089
3230.0,0.0089
3229.0,0.009
3228.0,0.009
3227.0,0.0089
3226.0,0.0088
3225.0,0.0088
3224.0,0.0087
3223.0,0.0087
3222.0,0.0087
3221.0,0.0087
3220.0,0.0087
3219.0,0.0086
3218.0,0.0086
3217.0,0.0086
3216.0,0.0085
3215.0,0.0085
3214.0,0.0085
3213.0,0.0085
3212.0,0.0085
3211.0,0.0084
3210.0,0.0083
3209.0,0.0082
3208.0,0.0082
3207.0,0.0082
3206.0,0.0082
3205.0,0.0082
3204.0,0.0082
3203.0,0.0081
3202.0,0.0081
3201.0,0.0081
3200.0,0.008
3199.0,0.008
3198.0,0.008
3197.0,0.008
3196.0,0.008
3195.0,0.008
3194.0,0.0079
3193.0,0.0078
3192.0,0.0078
3191.0,0.0078
3190.0,0.0078
3189.0,0.0078
3188.0,0.0079
3187.0,0.0079
3186.0,0.0078
3185.0,0.0077
3184.0,0.0077
3183.0,0.0077
3182.0,0.0076
3181.0,0.0076
3180.0,0.0075
3179.0,0.0075
3178.0,0.0074
3177.0,0.0074
3176.0,0.0074
3175.0,0.0074
3174.0,0.0074
3173.0,0.0074
3172.0,0.0073
3171.0,0.0073
3170.0,0.0072
3169.0,0.0072
3168.0,0.0071
3167.0,0.0071
3166.0,0.0072
3165.0,0.0072
3164.0,0.0072
3163.0,0.0071
3162.0,0.0069
3161.0,0.0068
3160.0,0.0067
3159.0,0.0068
3158.0,0.0068
3157.0,0.0068
3156.0,0.0068
3155.0,0.0068
3154.0,0.0068
3153.0,0.0068
3152.0,0.0068
3151.0,0.0067
3150.0,0.0066
3149.0,0.0066
3148.0,0.0065
3147.0,0.0065
3146.0,0.0065
3145.0,0.0064
3144.0,0.0064
3143.0,0.0064
3142.0,0.0063
3141.0,0.0063
3140.0,0.0062
3139.0,0.0062
3138.0,0.0061
3137.0,0.0061
3136.0,0.006
3135.0,0.0059
3134.0,0.0059
3133.0,0.0059
3132.0,0.0059
3131.0,0.0059
3130.0,0.0059
3129.0,0.0059
3128.0,0.0058
3127.0,0.0058
3126.0,0.0057
3125.0,0.0057
3124.0,0.0057
3123.0,0.0057
3122.0,0.0056
3121.0,0.0056
3120.0,0.0055
3119.0,0.0055
3118.0,0.0054
3117.0,0.0053
3116.0,0.0052
3115.0,0.0052
3114.0,0.0052
3113.0,0.0052
3112.0,0.0052
3111.0,0.0052
3110.0,0.0052
3109.0,0.0052
3108.0,0.0052
3107.0,0.0052
3106.0,0.0052
3105.0,0.0052
3104.0,0.0051
3103.0,0.0051
3102.0,0.005
3101.0,0.005
3100.0,0.0049
3099.0,0.0049
3098.0,0.0049
3097.0,0.0049
3096.0,0.0049
3095.0,0.0049
3094.0,0.0048
3093.0,0.0048
3092.0,0.0047
3091.0,0.0047
3090.0,0.0047
3089.0,0.0047
3088.0,0.0047
3087.0,0.0046
3086.0,0.0045
3085.0,0.0045
3084.0,0.0044
3083.0,0.0045
3082.0,0.0045
3081.0,0.0045
3080.0,0.0045
3079.0,0.0044
3078.0,0.0043
3077.0,0.0043
3076.0,0.0042
3075.0,0.0042
3074.0,0.0042
3073.0,0.0042
3072.0,0.0042
3071.0,0.0041
3070.0,0.004
3069.0,0.004
3068.0,0.004
3067.0,0.004
3066.0,0.004
3065.0,0.004
3064.0,0.004
3063.0,0.0039
3062.0,0.0038
3061.0,0.0037
3060.0,0.0036
3059.0,0.0035
3058.0,0.0034
3057.0,0.0034
3056.0,0.0033
3055.0,0.0033
3054.0,0.0033
3053.0,0.0033
3052.0,0.0033
3051.0,0.0033
3050.0,0.0033
3049.0,0.0032
3048.0,0.0031
3047.0,0.0031
3046.0,0.0031
3045.0,0.003
3044.0,0.003
3043.0,0.003
3042.0,0.0029
3041.0,0.0029
3040.0,0.0028
3039.0,0.0027
3038.0,0.0026
3037.0,0.0026
3036.0,0.0025
3035.0,0.0025
3034.0,0.0025
3033.0,0.0025
3032.0,0.0024
3031.0,0.0023
3030.0,0.0022
3029.0,0.0022
3028.0,0.0021
3027.0,0.0021
3026.0,0.0021
3025.0,0.002
3024.0,0.0019
3023.0,0.0018
3022.0,0.0017
3021.0,0.0016
3020.0,0.0015
3019.0,0.0015
3018.0,0.0014
3017.0,0.0013
3016.0,0.0012
3015.0,0.0011
3014.0,0.001
3013.0,0.001
3012.0,0.0009
3011.0,0.0008
3010.0,0.0007
3009.0,0.0006
3008.0,0.0005
3007.0,0.0004
3006.0,0.0003
3005.0,0.0003
3004.0,0.0002
3003.0,0.0001
3002.0,0.0
3001.0,-0.0001
3000.0,-0.0002
2999.0,-0.0003
2998.0,-0.0004
2997.0,-0.0005
2996.0,-0.0006
2995.0,-0.0007
2994.0,-0.0008
2993.0,-0.0009
2992.0,-0.001
2991.0,-0.001
2990.0,-0.0011
2989.0,-0.0011
2988.0,-0.0012
2987.0,-0.0013
2986.0,-0.0014
2985.0,-0.0015
2984.0,-0.0016
2983.0,-0.0016
2982.0,-0.0017
2981.0,-0.0017
2980.0,-0.0018
2979.0,-0.0018
2978.0,-0.0018
2977.0,-0.0018
2976.0,-0.0018
2975.0,-0.0018
2974.0,-0.0017
2973.0,-0.0016
2972.0,-0.0015
2971.0,-0.0013
2970.0,-0.0012
2969.0,-0.0009
2968.0,-0.0007
2967.0,-0.0005
2966.0,-0.0004
2965.0,-0.0002
2964.0,-0.0
2963.0,0.0003
2962.0,0.0007
2961.0,0.0011
2960.0,0.0015
2959.0,0.0019
2958.0,0.0021
2957.0,0.0023
2956.0,0.0025
2955.0,0.0027
2954.0,0.0029
2953.0,0.0032
2952.0,0.0035
2951.0,0.0038
2950.0,0.0042
2949.0,0.0048
2948.0,0.0055
2947.0,0.0065
2946.0,0.0076
2945.0,0.0089
2944.0,0.0105
2943.0,0.0123
2942.0,0.0144
2941.0,0.0167
2940.0,0.0192
2939.0,0.0219
2938.0,0.0248
2937.0,0.028
2936.0,0.0316
2935.0,0.0355
2934.0,0.0398
2933.0,0.0445
2932.0,0.0497
2931.0,0.0553
2930.0,0.0614
2929.0,0.0682
2928.0,0.0759
2927.0,0.0845
2926.0,0.0944
2925.0,0.1056
2924.0,0.1185
2923.0,0.1332
2922.0,0.1495
2921.0,0.1673
2920.0,0.1859
2919.0,0.2046
2918.0,0.2216
2917.0,0.2347
2916.0,0.2417
2915.0,0.2416
2914.0,0.2348
2913.0,0.2233
2912.0,0.2097
2911.0,0.1959
2910.0,0.1831
2909.0,0.1716
2908.0,0.1616
2907.0,0.153
2906.0,0.1457
2905.0,0.1395
2904.0,0.1343
2903.0,0.1299
2902.0,0.126
2901.0,0.1225
2900.0,0.1193
2899.0,0.1164
2898.0,0.1137
2897.0,0.1112
2896.0,0.1086
2895.0,0.1061
2894.0,0.1035
2893.0,0.1008
2892.0,0.0982
2891.0,0.0955
2890.0,0.0928
2889.0,0.0902
2888.0,0.0875
2887.0,0.0848
2886.0,0.0821
2885.0,0.0794
2884.0,0.0766
2883.0,0.0737
2882.0,0.0708
2881.0,0.0679
2880.0,0.065
2879.0,0.062
2878.0,0.0591
2877.0,0.0563
2876.0,0.0536
2875.0,0.051
2874.0,0.0487
2873.0,0.0466
2872.0,0.0447
2871.0,0.0431
2870.0,0.0416
2869.0,0.0403
2868.0,0.0392
2867.0,0.0385
2866.0,0.0381
2865.0,0.0382
2864.0,0.0387
2863.0,0.0399
2862.0,0.0417
2861.0,0.0444
2860.0,0.0482
2859.0,0.0532
2858.0,0.0598
2857.0,0.0683
2856.0,0.079
2855.0,0.0926
2854.0,0.1096
2853.0,0.1304
2852.0,0.1545
2851.0,0.1802
2850.0,0.2038
2849.0,0.2206
2848.0,0.2268
2847.0,0.2217
2846.0,0.2081
2845.0,0.1904
2844.0,0.1721
2843.0,0.1551
2842.0,0.1403
2841.0,0.1277
2840.0,0.117
2839.0,0.1081
2838.0,0.1005
2837.0,0.094
2836.0,0.0885
2835.0,0.0836
2834.0,0.0795
2833.0,0.0758
2832.0,0.0726
2831.0,0.0698
2830.0,0.0673
2829.0,0.065
2828.0,0.063
2827.0,0.061
2826.0,0.0592
2825.0,0.0575
2824.0,0.056
2823.0,0.0546
2822.0,0.0534
2821.0,0.0523
2820.0,0.0513
2819.0,0.0503
2818.0,0.0494
2817.0,0.0485
2816.0,0.0476
2815.0,0.0468
2814.0,0.046
2813.0,0.0454
2812.0,0.0447
2811.0,0.0441
2810.0,0.0435
2809.0,0.0429
2808.0,0.0422
2807.0,0.0416
2806.0,0.0411
2805.0,0.0406
2804.0,0.0401
2803.0,0.0396
2802.0,0.0391
2801.0,0.0387
2800.0,0.0382
2799.0,0.0378
2798.0,0.0374
2797.0,0.037
2796.0,0.0366
2795.0,0.0362
2794.0,0.0359
2793.0,0.0355
2792.0,0.0352
2791.0,0.0348
2790.0,0.0344
2789.0,0.034
2788.0,0.0337
2787.0,0.0334
2786.0,0.0331
2785.0,0.0329
2784.0,0.0326
2783.0,0.0324
2782.0,0.0321
2781.0,0.0318
2780.0,0.0315
2779.0,0.0312
2778.0,0.0309
2777.0,0.0306
2776.0,0.0303
2775.0,0.03
2774.0,0.0298
2773.0,0.0296
2772.0,0.0295
2771.0,0.0293
2770.0,0.0291
2769.0,0.0289
2768.0,0.0288
2767.0,0.0285
2766.0,0.0284
2765.0,0.0282
2764.0,0.0281
2763.0,0.028
2762.0,0.0278
2761.0,0.0277
2760.0,0.0275
2759.0,0.0273
2758.0,0.0271
2757.0,0.0269
2756.0,0.0268
2755.0,0.0266
2754.0,0.0265
2753.0,0.0264
2752.0,0.0263
2751.0,0.0262
2750.0,0.0261
2749.0,0.026
2748.0,0.0259
2747.0,0.0258
2746.0,0.0257
2745.0,0.0256
2744.0,0.0254
2743.0,0.0254
2742.0,0.0253
2741.0,0.0252
2740.0,0.0252
2739.0,0.0251
2738.0,0.0251
2737.0,0.0251
2736.0,0.025
2735.0,0.0249
2734.0,0.0248
2733.0,0.0247
2732.0,0.0246
2731.0,0.0244
2730.0,0.0244
2729.0,0.0243
2728.0,0.0242
2727.0,0.0241
2726.0,0.0241
2725.0,0.024
2724.0,0.0239
2723.0,0.0238
2722.0,0.0237
2721.0,0.0236
2720.0,0.0235
2719.0,0.0234
2718.0,0.0233
2717.0,0.0232
2716.0,0.0231
2715.0,0.023
2714.0,0.023
2713.0,0.0229
2712.0,0.0228
2711.0,0.0227
2710.0,0.0226
2709.0,0.0226
2708.0,0.0225
2707.0,0.0224
2706.0,0.0224
2705.0,0.0223
2704.0,0.0222
2703.0,0.0222
2702.0,0.0221
2701.0,0.022
2700.0,0.022
2699.0,0.0219
2698.0,0.0219
2697.0,0.0218
2696.0,0.0217
2695.0,0.0216
2694.0,0.0215
2693.0,0.0215
2692.0,0.0215
2691.0,0.0215
2690.0,0.0215
2689.0,0.0214
2688.0,0.0214
2687.0,0.0213
2686.0,0.0212
2685.0,0.0211
2684.0,0.0211
2683.0,0.0211
2682.0,0.021
2681.0,0.021
2680.0,0.0209
2679.0,0.0209
2678.0,0.0209
2677.0,0.0209
2676.0,0.0209
2675.0,0.0209
2674.0,0.0209
2673.0,0.0209
2672.0,0.0208
2671.0,0.0208
2670.0,0.0209
2669.0,0.0209
2668.0,0.0209
2667.0,0.0209
2666.0,0.0209
2665.0,0.0209
2664.0,0.0209
2663.0,0.021
2662.0,0.021
2661.0,0.021
2660.0,0.021
2659.0,0.021
2658.0,0.021
2657.0,0.0209
2656.0,0.0209
2655.0,0.0208
2654.0,0.0208
2653.0,0.0207
2652.0,0.0207
2651.0,0.0207
2650.0,0.0206
2649.0,0.0206
2648.0,0.0205
2647.0,0.0205
2646.0,0.0205
2645.0,0.0205
2644.0,0.0205
2643.0,0.0205
2642.0,0.0205
2641.0,0.0205
2640.0,0.0205
2639.0,0.0205
2638.0,0.0205
2637.0,0.0205
2636.0,0.0205
2635.0,0.0205
2634.0,0.0205
2633.0,0.0204
2632.0,0.0204
2631.0,0.0204
2630.0,0.0203
2629.0,0.0202
2628.0,0.0202
2627.0,0.0201
2626.0,0.02
2625.0,0.02
2624.0,0.0199
2623.0,0.0199
2622.0,0.0198
2621.0,0.0197
2620.0,0.0197
2619.0,0.0196
2618.0,0.0196
2617.0,0.0195
2616.0,0.0194
2615.0,0.0194
2614.0,0.0193
2613.0,0.0193
2612.0,0.0192
2611.0,0.0192
2610.0,0.0191
2609.0,0.019
2608.0,0.019
2607.0,0.019
2606.0,0.0189
2605.0,0.0189
2604.0,0.0188
2603.0,0.0188
2602.0,0.0187
2601.0,0.0187
2600.0,0.0186
2599.0,0.0186
2598.0,0.0186
2597.0,0.0186
2596.0,0.0185
2595.0,0.0185
2594.0,0.0184
2593.0,0.0183
2592.0,0.0183
2591.0,0.0182
2590.0,0.0182
2589.0,0.0182
2588.0,0.0182
2587.0,0.0182
2586.0,0.0182
2585.0,0.0182
2584.0,0.0181
2583.0,0.018
2582.0,0.018
2581.0,0.0179
2580.0,0.0179
2579.0,0.0178
2578.0,0.0178
2577.0,0.0177
2576.0,0.0177
2575.0,0.0176
2574.0,0.0176
2573.0,0.0175
2572.0,0.0175
2571.0,0.0174
2570.0,0.0175
2569.0,0.0175
2568.0,0.0175
2567.0,0.0175
2566.0,0.0175
2565.0,0.0175
2564.0,0.0174
2563.0,0.0173
2562.0,0.0173
2561.0,0.0172
2560.0,0.0172
2559.0,0.0172
2558.0,0.0172
2557.0,0.0171
2556.0,0.0171
2555.0,0.0171
2554.0,0.017
2553.0,0.017
2552.0,0.017
2551.0,0.0171
2550.0,0.0171
2549.0,0.0171
2548.0,0.0171
2547.0,0.017
2546.0,0.0169
2545.0,0.0168
2544.0,0.0168
2543.0,0.0167
2542.0,0.0166
2541.0,0.0166
2540.0,0.0166
2539.0,0.0166
2538.0,0.0166
2537.0,0.0166
2536.0,0.0166
2535.0,0.0165
2534.0,0.0165
2533.0,0.0165
2532.0,0.0165
2531.0,0.0164
2530.0,0.0164
2529.0,0.0164
2528.0,0.0165
2527.0,0.0165
2526.0,0.0165
2525.0,0.0164
2524.0,0.0164
2523.0,0.0163
2522.0,0.0163
2521.0,0.0162
2520.0,0.0162
2519.0,0.0162
2518.0,0.0162
2517.0,0.0162
2516.0,0.0161
2515.0,0.0161
2514.0,0.0161
2513.0,0.0161
2512.0,0.016
2511.0,0.016
2510.0,0.016
2509.0,0.0159
2508.0,0.0159
2507.0,0.0159
2506.0,0.0159
2505.0,0.0159
2504.0,0.0158
2503.0,0.0158
2502.0,0.0158
2501.0,0.0158
2500.0,0.0158
2499.0,0.0158
2498.0,0.0158
2497.0,0.0158
2496.0,0.0158
2495.0,0.0158
2494.0,0.0158
2493.0,0.0158
2492.0,0.0159
2491.0,0.0159
2490.0,0.0159
2489.0,0.0158
2488.0,0.0157
2487.0,0.0156
2486.0,0.0155
2485.0,0.0155
2484.0,0.0156
2483.0,0.0156
2482.0,0.0156
2481.0,0.0156
2480.0,0.0156
2479.0,0.0155
2478.0,0.0155
2477.0,0.0155
2476.0,0.0155
2475.0,0.0155
2474.0,0.0155
2473.0,0.0155
2472.0,0.0155
2471.0,0.0154
2470.0,0.0155
2469.0,0.0155
2468.0,0.0155
2467.0,0.0156
2466.0,0.0155
2465.0,0.0155
2464.0,0.0155
2463.0,0.0155
2462.0,0.0154
2461.0,0.0154
2460.0,0.0154
2459.0,0.0154
2458.0,0.0153
2457.0,0.0153
2456.0,0.0153
2455.0,0.0152
2454.0,0.0151
2453.0,0.0151
2452.0,0.0151
2451.0,0.0151
2450.0,0.0151
2449.0,0.0152
2448.0,0.0152
2447.0,0.0152
2446.0,0.0152
2445.0,0.0152
2444.0,0.0152
2443.0,0.0152
2442.0,0.0151
2441.0,0.0151
2440.0,0.0151
2439.0,0.0151
2438.0,0.015
2437.0,0.015
2436.0,0.015
2435.0,0.015
2434.0,0.0149
2433.0,0.0149
2432.0,0.0149
2431.0,0.015
2430.0,0.015
2429.0,0.015
2428.0,0.015
2427.0,0.0149
2426.0,0.0149
2425.0,0.0149
2424.0,0.0149
2423.0,0.015
2422.0,0.015
2421.0,0.0151
2420.0,0.0151
2419.0,0.0151
2418.0,0.015
2417.0,0.015
2416.0,0.015
2415.0,0.015
2414.0,0.0151
2413.0,0.0151
2412.0,0.0151
2411.0,0.0151
2410.0,0.015
2409.0,0.015
2408.0,0.015
2407.0,0.0149
2406.0,0.0149
2405.0,0.0149
2404.0,0.0149
2403.0,0.015
2402.0,0.0151
2401.0,0.0151
2400.0,0.015
2399.0,0.0149
2398.0,0.0148
2397.0,0.0147
2396.0,0.0148
2395.0,0.0148
2394.0,0.0149
2393.0,0.0149
2392.0,0.0148
2391.0,0.0147
2390.0,0.0145
2389.0,0.0143
2388.0,0.014
2387.0,0.0136
2386.0,0.0131
2385.0,0.0125
2384.0,0.0119
2383.0,0.0112
2382.0,0.0107
2381.0,0.0102
2380.0,0.0098
2379.0,0.0095
2378.0,0.0092
2377.0,0.0092
2376.0,0.0092
2375.0,0.0093
2374.0,0.0093
2373.0,0.0089
2372.0,0.0082
2371.0,0.007
2370.0,0.0056
2369.0,0.0043
2368.0,0.0037
2367.0,0.0039
2366.0,0.0048
2365.0,0.0062
2364.0,0.0072
2363.0,0.0075
2362.0,0.0083
2361.0,0.0103
2360.0,0.0127
2359.0,0.0137
2358.0,0.0123
2357.0,0.0089
2356.0,0.0046
2355.0,0.001
2354.0,-0.0004
2353.0,0.0008
2352.0,0.0034
2351.0,0.0053
2350.0,0.0059
2349.0,0.0049
2348.0,0.0033
2347.0,0.0021
2346.0,0.0019
2345.0,0.0025
2344.0,0.0031
2343.0,0.0032
2342.0,0.0034
2341.0,0.0038
2340.0,0.0038
2339.0,0.0034
2338.0,0.003
2337.0,0.003
2336.0,0.0031
2335.0,0.003
2334.0,0.0032
2333.0,0.0037
2332.0,0.0043
2331.0,0.0043
2330.0,0.0044
2329.0,0.0045
2328.0,0.0046
2327.0,0.0045
2326.0,0.0045
2325.0,0.005
2324.0,0.0057
2323.0,0.0063
2322.0,0.0065
2321.0,0.0066
2320.0,0.0067
2319.0,0.0068
2318.0,0.0069
2317.0,0.0068
2316.0,0.0066
2315.0,0.0063
2314.0,0.006
2313.0,0.0057
2312.0,0.0056
2311.0,0.0055
2310.0,0.0056
2309.0,0.006
2308.0,0.0066
2307.0,0.0072
2306.0,0.0079
2305.0,0.0083
2304.0,0.0085
2303.0,0.0085
2302.0,0.0086
2301.0,0.0088
2300.0,0.0091
2299.0,0.0094
2298.0,0.0096
2297.0,0.0097
2296.0,0.01
2295.0,0.0103
2294.0,0.0107
2293.0,0.0111
2292.0,0.0114
2291.0,0.0117
2290.0,0.0119
2289.0,0.0122
2288.0,0.0126
2287.0,0.0129
2286.0,0.0132
2285.0,0.0135
2284.0,0.0136
2283.0,0.0136
2282.0,0.0135
2281.0,0.0133
2280.0,0.0132
2279.0,0.0131
2278.0,0.0131
2277.0,0.0131
2276.0,0.0131
2275.0,0.0131
2274.0,0.0131
2273.0,0.0131
2272.0,0.0131
2271.0,0.0131
2270.0,0.0131
2269.0,0.0131
2268.0,0.0131
2267.0,0.0132
2266.0,0.0132
2265.0,0.0131
2264.0,0.0131
2263.0,0.0131
2262.0,0.0132
2261.0,0.0132
2260.0,0.0133
2259.0,0.0133
2258.0,0.0134
2257.0,0.0135
2256.0,0.0136
2255.0,0.0137
2254.0,0.0137
2253.0,0.0138
2252.0,0.0138
2251.0,0.0139
2250.0,0.0139
2249.0,0.0139
2248.0,0.014
2247.0,0.014
2246.0,0.014
2245.0,0.014
2244.0,0.014
2243.0,0.0141
2242.0,0.0141
2241.0,0.0141
2240.0,0.0141
2239.0,0.0141
2238.0,0.0142
2237.0,0.0142
2236.0,0.0143
2235.0,0.0143
2234.0,0.0143
2233.0,0.0143
2232.0,0.0143
2231.0,0.0143
2230.0,0.0143
2229.0,0.0143
2228.0,0.0143
2227.0,0.0143
2226.0,0.0143
2225.0,0.0143
2224.0,0.0142
2223.0,0.0142
2222.0,0.0141
2221.0,0.0141
2220.0,0.0142
2219.0,0.0143
2218.0,0.0143
2217.0,0.0144
2216.0,0.0144
2215.0,0.0144
2214.0,0.0143
2213.0,0.0142
2212.0,0.0142
2211.0,0.0141
2210.0,0.0141
2209.0,0.0141
2208.0,0.0142
2207.0,0.0142
2206.0,0.0142
2205.0,0.0142
2204.0,0.0142
2203.0,0.0142
2202.0,0.0142
2201.0,0.0142
2200.0,0.0142
2199.0,0.0142
2198.0,0.0142
2197.0,0.0142
2196.0,0.0142
2195.0,0.0142
2194.0,0.0143
2193.0,0.0143
2192.0,0.0143
2191.0,0.0143
2190.0,0.0143
2189.0,0.0143
2188.0,0.0143
2187.0,0.0143
2186.0,0.0143
2185.0,0.0143
2184.0,0.0143
2183.0,0.0143
2182.0,0.0143
2181.0,0.0143
2180.0,0.0143
2179.0,0.0143
2178.0,0.0142
2177.0,0.0143
2176.0,0.0143
2175.0,0.0143
2174.0,0.0143
2173.0,0.0143
2172.0,0.0143
2171.0,0.0143
2170.0,0.0143
2169.0,0.0143
2168.0,0.0143
2167.0,0.0143
2166.0,0.0143
2165.0,0.0143
2164.0,0.0143
2163.0,0.0143
2162.0,0.0143
2161.0,0.0143
2160.0,0.0143
2159.0,0.0144
2158.0,0.0144
2157.0,0.0144
2156.0,0.0144
2155.0,0.0144
2154.0,0.0144
2153.0,0.0144
2152.0,0.0144
2151.0,0.0144
2150.0,0.0144
2149.0,0.0144
2148.0,0.0144
2147.0,0.0143
2146.0,0.0143
2145.0,0.0143
2144.0,0.0143
2143.0,0.0143
2142.0,0.0144
2141.0,0.0143
2140.0,0.0143
2139.0,0.0143
2138.0,0.0143
2137.0,0.0143
2136.0,0.0143
2135.0,0.0143
2134.0,0.0143
2133.0,0.0143
2132.0,0.0143
2131.0,0.0143
2130.0,0.0142
2129.0,0.0142
2128.0,0.0142
2127.0,0.0142
2126.0,0.0142
2125.0,0.0143
2124.0,0.0143
2123.0,0.0143
2122.0,0.0143
2121.0,0.0143
2120.0,0.0143
2119.0,0.0143
2118.0,0.0142
2117.0,0.0142
2116.0,0.0141
2115.0,0.0141
2114.0,0.0141
2113.0,0.0141
2112.0,0.0142
2111.0,0.0142
2110.0,0.0142
2109.0,0.0142
2108.0,0.0142
2107.0,0.0142
2106.0,0.0142
2105.0,0.0142
2104.0,0.0142
2103.0,0.0142
2102.0,0.0142
2101.0,0.0142
2100.0,0.0142
2099.0,0.0142
2098.0,0.0142
2097.0,0.0142
2096.0,0.0142
2095.0,0.0142
2094.0,0.0142
2093.0,0.0142
2092.0,0.0142
2091.0,0.0142
2090.0,0.0142
2089.0,0.0143
2088.0,0.0143
2087.0,0.0143
2086.0,0.0144
2085.0,0.0144
2084.0,0.0144
2083.0,0.0143
2082.0,0.0143
2081.0,0.0143
2080.0,0.0143
2079.0,0.0143
2078.0,0.0143
2077.0,0.0143
2076.0,0.0143
2075.0,0.0143
2074.0,0.0142
2073.0,0.0143
2072.0,0.0143
2071.0,0.0143
2070.0,0.0143
2069.0,0.0144
2068.0,0.0144
2067.0,0.0144
2066.0,0.0144
2065.0,0.0144
2064.0,0.0144
2063.0,0.0144
2062.0,0.0144
2061.0,0.0144
2060.0,0.0144
2059.0,0.0144
2058.0,0.0144
2057.0,0.0144
2056.0,0.0144
2055.0,0.0144
2054.0,0.0144
2053.0,0.0145
2052.0,0.0145
2051.0,0.0145
2050.0,0.0145
2049.0,0.0145
2048.0,0.0145
2047.0,0.0145
2046.0,0.0146
2045.0,0.0146
2044.0,0.0146
2043.0,0.0146
2042.0,0.0146
2041.0,0.0146
2040.0,0.0146
2039.0,0.0146
2038.0,0.0146
2037.0,0.0146
2036.0,0.0146
2035.0,0.0146
2034.0,0.0146
2033.0,0.0146
2032.0,0.0146
2031.0,0.0146
2030.0,0.0146
2029.0,0.0147
2028.0,0.0147
2027.0,0.0147
2026.0,0.0147
2025.0,0.0148
2024.0,0.0148
2023.0,0.0148
2022.0,0.0148
2021.0,0.0148
2020.0,0.0148
2019.0,0.0148
2018.0,0.0148
2017.0,0.0149
2016.0,0.0149
2015.0,0.0149
2014.0,0.0149
2013.0,0.0148
2012.0,0.0148
2011.0,0.0148
2010.0,0.0147
2009.0,0.0147
2008.0,0.0147
2007.0,0.0146
2006.0,0.0146
2005.0,0.0146
2004.0,0.0145
2003.0,0.0145
2002.0,0.0145
2001.0,0.0145
2000.0,0.0145
1999.0,0.0145
1998.0,0.0145
1997.0,0.0145
1996.0,0.0146
1995.0,0.0146
1994.0,0.0146
1993.0,0.0146
1992.0,0.0146
1991.0,0.0146
1990.0,0.0146
1989.0,0.0146
1988.0,0.0146
1987.0,0.0146
1986.0,0.0146
1985.0,0.0146
1984.0,0.0146
1983.0,0.0146
1982.0,0.0147
1981.0,0.0147
1980.0,0.0147
1979.0,0.0146
1978.0,0.0146
1977.0,0.0145
1976.0,0.0145
1975.0,0.0145
1974.0,0.0145
1973.0,0.0145
1972.0,0.0146
1971.0,0.0146
1970.0,0.0146
1969.0,0.0146
1968.0,0.0145
1967.0,0.0146
1966.0,0.0146
1965.0,0.0146
1964.0,0.0146
1963.0,0.0146
1962.0,0.0146
1961.0,0.0146
1960.0,0.0146
1959.0,0.0146
1958.0,0.0146
1957.0,0.0146
1956.0,0.0146
1955.0,0.0146
1954.0,0.0146
1953.0,0.0146
1952.0,0.0146
1951.0,0.0147
1950.0,0.0147
1949.0,0.0147
1948.0,0.0147
1947.0,0.0147
1946.0,0.0148
1945.0,0.0148
1944.0,0.0147
1943.0,0.0147
1942.0,0.0147
1941.0,0.0147
1940.0,0.0147
1939.0,0.0147
1938.0,0.0147
1937.0,0.0147
1936.0,0.0148
1935.0,0.0148
1934.0,0.0148
1933.0,0.0148
1932.0,0.0148
1931.0,0.0148
1930.0,0.0148
1929.0,0.0147
1928.0,0.0147
1927.0,0.0147
1926.0,0.0147
1925.0,0.0147
1924.0,0.0147
1923.0,0.0146
1922.0,0.0146
1921.0,0.0146
1920.0,0.0146
1919.0,0.0146
1918.0,0.0147
1917.0,0.0148
1916.0,0.0148
1915.0,0.0148
1914.0,0.0148
1913.0,0.0148
1912.0,0.0148
1911.0,0.0148
1910.0,0.0149
1909.0,0.015
1908.0,0.015
1907.0,0.0151
1906.0,0.0151
1905.0,0.0151
1904.0,0.0151
1903.0,0.015
1902.0,0.015
1901.0,0.0151
1900.0,0.0151
1899.0,0.0152
1898.0,0.0153
1897.0,0.0153
1896.0,0.0153
1895.0,0.0152
1894.0,0.0152
1893.0,0.0151
1892.0,0.015
1891.0,0.015
1890.0,0.015
1889.0,0.015
1888.0,0.015
1887.0,0.015
1886.0,0.0149
1885.0,0.0149
1884.0,0.0148
1883.0,0.0148
1882.0,0.0148
1881.0,0.0148
1880.0,0.0148
1879.0,0.0148
1878.0,0.0147
1877.0,0.0147
1876.0,0.0147
1875.0,0.0147
1874.0,0.0147
1873.0,0.0147
1872.0,0.0147
1871.0,0.0146
1870.0,0.0146
1869.0,0.0146
1868.0,0.0146
1867.0,0.0147
1866.0,0.0147
1865.0,0.0147
1864.0,0.0148
1863.0,0.0147
1862.0,0.0147
1861.0,0.0147
1860.0,0.0147
1859.0,0.0147
1858.0,0.0147
1857.0,0.0147
1856.0,0.0147
1855.0,0.0147
1854.0,0.0147
1853.0,0.0147
1852.0,0.0147
1851.0,0.0147
1850.0,0.0147
1849.0,0.0147
1848.0,0.0146
1847.0,0.0146
1846.0,0.0145
1845.0,0.0144
1844.0,0.0144
1843.0,0.0144
1842.0,0.0145
1841.0,0.0146
1840.0,0.0147
1839.0,0.0147
1838.0,0.0146
1837.0,0.0147
1836.0,0.0147
1835.0,0.0147
1834.0,0.0147
1833.0,0.0147
1832.0,0.0147
1831.0,0.0147
1830.0,0.0146
1829.0,0.0146
1828.0,0.0146
1827.0,0.0146
1826.0,0.0146
1825.0,0.0146
1824.0,0.0147
1823.0,0.0147
1822.0,0.0148
1821.0,0.0148
1820.0,0.0148
1819.0,0.0147
1818.0,0.0147
1817.0,0.0147
1816.0,0.0147
1815.0,0.0147
1814.0,0.0147
1813.0,0.0148
1812.0,0.0148
1811.0,0.0148
1810.0,0.0148
1809.0,0.0147
1808.0,0.0147
1807.0,0.0147
1806.0,0.0147
1805.0,0.0147
1804.0,0.0148
1803.0,0.0147
1802.0,0.0147
1801.0,0.0147
1800.0,0.0147
1799.0,0.0147
1798.0,0.0147
1797.0,0.0147
1796.0,0.0147
1795.0,0.0147
1794.0,0.0147
1793.0,0.0146
1792.0,0.0145
1791.0,0.0145
1790.0,0.0145
1789.0,0.0146
1788.0,0.0146
1787.0,0.0147
1786.0,0.0147
1785.0,0.0147
1784.0,0.0148
1783.0,0.0148
1782.0,0.0149
1781.0,0.0149
1780.0,0.0148
1779.0,0.0148
1778.0,0.0147
1777.0,0.0147
1776.0,0.0147
1775.0,0.0147
1774.0,0.0146
1773.0,0.0146
1772.0,0.0147
1771.0,0.0148
1770.0,0.0148
1769.0,0.0149
1768.0,0.0149
1767.0,0.0148
1766.0,0.0148
1765.0,0.0148
1764.0,0.0148
1763.0,0.0148
1762.0,0.0148
1761.0,0.0149
1760.0,0.015
1759.0,0.0151
1758.0,0.0152
1757.0,0.0153
1756.0,0.0154
1755.0,0.0154
1754.0,0.0155
1753.0,0.0155
1752.0,0.0156
1751.0,0.0157
1750.0,0.0158
1749.0,0.0159
1748.0,0.016
1747.0,0.016
1746.0,0.016
1745.0,0.016
1744.0,0.016
1743.0,0.0161
1742.0,0.0161
1741.0,0.016
1740.0,0.0159
1739.0,0.0158
1738.0,0.0158
1737.0,0.0158
1736.0,0.0158
1735.0,0.0157
1734.0,0.0157
1733.0,0.0156
1732.0,0.0156
1731.0,0.0157
1730.0,0.0157
1729.0,0.0158
1728.0,0.0158
1727.0,0.0158
1726.0,0.0158
1725.0,0.0158
1724.0,0.0158
1723.0,0.0157
1722.0,0.0157
1721.0,0.0157
1720.0,0.0158
1719.0,0.0157
1718.0,0.0155
1717.0,0.0155
1716.0,0.0156
1715.0,0.0156
1714.0,0.0157
1713.0,0.0157
1712.0,0.0157
1711.0,0.0157
1710.0,0.0157
1709.0,0.0157
1708.0,0.0158
1707.0,0.0157
1706.0,0.0157
1705.0,0.0157
1704.0,0.0157
1703.0,0.0157
1702.0,0.0156
1701.0,0.0156
1700.0,0.0156
1699.0,0.0156
1698.0,0.0157
1697.0,0.0159
1696.0,0.0161
1695.0,0.0161
1694.0,0.0161
1693.0,0.0162
1692.0,0.0163
1691.0,0.0163
1690.0,0.0163
1689.0,0.0163
1688.0,0.0164
1687.0,0.0165
1686.0,0.0166
1685.0,0.0166
1684.0,0.0168
1683.0,0.0169
1682.0,0.0168
1681.0,0.0169
1680.0,0.017
1679.0,0.017
1678.0,0.017
1677.0,0.017
1676.0,0.017
1675.0,0.0171
1674.0,0.0171
1673.0,0.0172
1672.0,0.0172
1671.0,0.0173
1670.0,0.0174
1669.0,0.0176
1668.0,0.0177
1667.0,0.0178
1666.0,0.0178
1665.0,0.0179
1664.0,0.018
1663.0,0.018
1662.0,0.0181
1661.0,0.0181
1660.0,0.0181
1659.0,0.0181
1658.0,0.018
1657.0,0.018
1656.0,0.018
1655.0,0.018
1654.0,0.0181
1653.0,0.0182
1652.0,0.0181
1651.0,0.018
1650.0,0.0181
1649.0,0.0182
1648.0,0.0181
1647.0,0.0181
1646.0,0.0182
1645.0,0.0182
1644.0,0.0182
1643.0,0.0183
1642.0,0.0183
1641.0,0.0183
1640.0,0.0183
1639.0,0.0182
1638.0,0.0181
1637.0,0.0181
1636.0,0.0181
1635.0,0.0182
1634.0,0.0181
1633.0,0.0181
1632.0,0.0182
1631.0,0.0181
1630.0,0.0181
1629.0,0.0181
1628.0,0.0181
1627.0,0.0181
1626.0,0.0181
1625.0,0.0181
1624.0,0.018
1623.0,0.018
1622.0,0.018
1621.0,0.018
1620.0,0.0179
1619.0,0.0179
1618.0,0.0178
1617.0,0.0177
1616.0,0.0177
1615.0,0.0177
1614.0,0.0177
1613.0,0.0177
1612.0,0.0176
1611.0,0.0175
1610.0,0.0175
1609.0,0.0175
1608.0,0.0176
1607.0,0.0176
1606.0,0.0177
1605.0,0.0177
1604.0,0.0176
1603.0,0.0176
1602.0,0.0175
1601.0,0.0175
1600.0,0.0175
1599.0,0.0175
1598.0,0.0174
1597.0,0.0174
1596.0,0.0173
1595.0,0.0173
1594.0,0.0173
1593.0,0.0173
1592.0,0.0173
1591.0,0.0173
1590.0,0.0173
1589.0,0.0173
1588.0,0.0173
1587.0,0.0173
1586.0,0.0173
1585.0,0.0173
1584.0,0.0173
1583.0,0.0173
1582.0,0.0173
1581.0,0.0173
1580.0,0.0172
1579.0,0.0171
1578.0,0.017
1577.0,0.0169
1576.0,0.0169
1575.0,0.0169
1574.0,0.0169
1573.0,0.0168
1572.0,0.0168
1571.0,0.0168
1570.0,0.0168
1569.0,0.0169
1568.0,0.0169
1567.0,0.0169
1566.0,0.0167
1565.0,0.0166
1564.0,0.0166
1563.0,0.0166
1562.0,0.0166
1561.0,0.0167
1560.0,0.0169
1559.0,0.0171
1558.0,0.0168
1557.0,0.0165
1556.0,0.0164
1555.0,0.0164
1554.0,0.0163
1553.0,0.0164
1552.0,0.0164
1551.0,0.0165
1550.0,0.0165
1549.0,0.0165
1548.0,0.0164
1547.0,0.0163
1546.0,0.0162
1545.0,0.0161
1544.0,0.0161
1543.0,0.0161
1542.0,0.0161
1541.0,0.0162
1540.0,0.0164
1539.0,0.0162
1538.0,0.016
1537.0,0.016
1536.0,0.016
1535.0,0.016
1534.0,0.0159
1533.0,0.0158
1532.0,0.0158
1531.0,0.0157
1530.0,0.0157
1529.0,0.0157
1528.0,0.0156
1527.0,0.0155
1526.0,0.0154
1525.0,0.0154
1524.0,0.0154
1523.0,0.0153
1522.0,0.0151
1521.0,0.015
1520.0,0.0151
1519.0,0.0151
1518.0,0.015
1517.0,0.015
1516.0,0.0149
1515.0,0.0148
1514.0,0.0147
1513.0,0.0146
1512.0,0.0147
1511.0,0.0147
1510.0,0.0147
1509.0,0.0147
1508.0,0.0149
1507.0,0.0149
1506.0,0.0146
1505.0,0.0144
1504.0,0.0144
1503.0,0.0144
1502.0,0.0143
1501.0,0.0143
1500.0,0.0143
1499.0,0.0143
1498.0,0.0141
1497.0,0.0141
1496.0,0.0141
1495.0,0.0139
1494.0,0.0138
1493.0,0.0138
1492.0,0.0137
1491.0,0.0135
1490.0,0.0132
1489.0,0.013
1488.0,0.0131
1487.0,0.0129
1486.0,0.0126
1485.0,0.0126
1484.0,0.0126
1483.0,0.0125
1482.0,0.0125
1481.0,0.0127
1480.0,0.0133
1479.0,0.0146
1478.0,0.0176
1477.0,0.0244
1476.0,0.0358
1475.0,0.0513
1474.0,0.0693
1473.0,0.0839
1472.0,0.0876
1471.0,0.083
1470.0,0.0774
1469.0,0.0734
1468.0,0.0709
1467.0,0.0705
1466.0,0.0746
1465.0,0.0848
1464.0,0.0966
1463.0,0.1033
1462.0,0.1027
1461.0,0.096
1460.0,0.0851
1459.0,0.0725
1458.0,0.0605
1457.0,0.0521
1456.0,0.0477
1455.0,0.0454
1454.0,0.0436
1453.0,0.0418
1452.0,0.0399
1451.0,0.0383
1450.0,0.0371
1449.0,0.036
1448.0,0.0349
1447.0,0.0341
1446.0,0.0336
1445.0,0.0332
1444.0,0.0327
1443.0,0.0322
1442.0,0.0319
1441.0,0.0315
1440.0,0.0311
1439.0,0.0308
1438.0,0.0304
1437.0,0.03
1436.0,0.0296
1435.0,0.0293
1434.0,0.029
1433.0,0.0286
1432.0,0.0281
1431.0,0.0276
1430.0,0.0271
1429.0,0.0266
1428.0,0.0262
1427.0,0.0258
1426.0,0.0255
1425.0,0.0251
1424.0,0.0247
1423.0,0.0245
1422.0,0.0243
1421.0,0.024
1420.0,0.0236
1419.0,0.0234
1418.0,0.0234
1417.0,0.0233
1416.0,0.0232
1415.0,0.023
1414.0,0.0229
1413.0,0.0228
1412.0,0.0226
1411.0,0.0225
1410.0,0.0224
1409.0,0.0223
1408.0,0.0222
1407.0,0.0221
1406.0,0.022
1405.0,0.0219
1404.0,0.0218
1403.0,0.0218
1402.0,0.0218
1401.0,0.0217
1400.0,0.0215
1399.0,0.0214
1398.0,0.0213
1397.0,0.0212
1396.0,0.0211
1395.0,0.021
1394.0,0.0211
1393.0,0.021
1392.0,0.021
1391.0,0.021
1390.0,0.021
1389.0,0.021
1388.0,0.0209
1387.0,0.021
1386.0,0.0211
1385.0,0.0211
1384.0,0.0212
1383.0,0.0214
1382.0,0.0217
1381.0,0.022
1380.0,0.0223
1379.0,0.0225
1378.0,0.0227
1377.0,0.0227
1376.0,0.0226
1375.0,0.0226
1374.0,0.0228
1373.0,0.0229
1372.0,0.0231
1371.0,0.0232
1370.0,0.0234
1369.0,0.0235
1368.0,0.0235
1367.0,0.0235
1366.0,0.0234
1365.0,0.0233
1364.0,0.0232
1363.0,0.023
1362.0,0.0229
1361.0,0.0228
1360.0,0.0226
1359.0,0.0224
1358.0,0.0223
1357.0,0.0223
1356.0,0.0224
1355.0,0.0224
1354.0,0.0225
1353.0,0.0225
1352.0,0.0225
1351.0,0.0225
1350.0,0.0224
1349.0,0.0224
1348.0,0.0223
1347.0,0.0222
1346.0,0.022
1345.0,0.0219
1344.0,0.0218
1343.0,0.0217
1342.0,0.0216
1341.0,0.0214
1340.0,0.0213
1339.0,0.0213
1338.0,0.0212
1337.0,0.0211
1336.0,0.021
1335.0,0.0209
1334.0,0.0208
1333.0,0.0207
1332.0,0.0207
1331.0,0.0206
1330.0,0.0206
1329.0,0.0206
1328.0,0.0206
1327.0,0.0206
1326.0,0.0207
1325.0,0.0207
1324.0,0.0207
1323.0,0.0208
1322.0,0.0209
1321.0,0.0209
1320.0,0.021
1319.0,0.0211
1318.0,0.0211
1317.0,0.0212
1316.0,0.0212
1315.0,0.0213
1314.0,0.0214
1313.0,0.0215
1312.0,0.0215
1311.0,0.0216
1310.0,0.0217
1309.0,0.0217
1308.0,0.0217
1307.0,0.0218
1306.0,0.0218
1305.0,0.0218
1304.0,0.0218
1303.0,0.0219
1302.0,0.0219
1301.0,0.022
1300.0,0.022
1299.0,0.0219
1298.0,0.0219
1297.0,0.0218
1296.0,0.0217
1295.0,0.0217
1294.0,0.0216
1293.0,0.0216
1292.0,0.0215
1291.0,0.0215
1290.0,0.0214
1289.0,0.0214
1288.0,0.0213
1287.0,0.0213
1286.0,0.0213
1285.0,0.0213
1284.0,0.0212
1283.0,0.0212
1282.0,0.0211
1281.0,0.0211
1280.0,0.0211
1279.0,0.0211
1278.0,0.0211
1277.0,0.0211
1276.0,0.0211
1275.0,0.0211
1274.0,0.0212
1273.0,0.0212
1272.0,0.0212
1271.0,0.0212
1270.0,0.0213
1269.0,0.0213
1268.0,0.0213
1267.0,0.0214
1266.0,0.0214
1265.0,0.0214
1264.0,0.0213
1263.0,0.0213
1262.0,0.0213
1261.0,0.0213
1260.0,0.0213
1259.0,0.0213
1258.0,0.0213
1257.0,0.0213
1256.0,0.0213
1255.0,0.0212
1254.0,0.0212
1253.0,0.0212
1252.0,0.0212
1251.0,0.0212
1250.0,0.0212
1249.0,0.0211
1248.0,0.0211
1247.0,0.0211
1246.0,0.0211
1245.0,0.0212
1244.0,0.0212
1243.0,0.0212
1242.0,0.0212
1241.0,0.0211
1240.0,0.0211
1239.0,0.0211
1238.0,0.0212
1237.0,0.0211
1236.0,0.0211
1235.0,0.0212
1234.0,0.0212
1233.0,0.0212
1232.0,0.0212
1231.0,0.0212
1230.0,0.0212
1229.0,0.0212
1228.0,0.0211
1227.0,0.0211
1226.0,0.021
1225.0,0.021
1224.0,0.021
1223.0,0.021
1222.0,0.0211
1221.0,0.0211
1220.0,0.0211
1219.0,0.0211
1218.0,0.0211
1217.0,0.0211
1216.0,0.0211
1215.0,0.0212
1214.0,0.0213
1213.0,0.0213
1212.0,0.0213
1211.0,0.0214
1210.0,0.0214
1209.0,0.0214
1208.0,0.0215
1207.0,0.0215
1206.0,0.0216
1205.0,0.0216
1204.0,0.0217
1203.0,0.0217
1202.0,0.0218
1201.0,0.0219
1200.0,0.0219
1199.0,0.0219
1198.0,0.0219
1197.0,0.0219
1196.0,0.0219
1195.0,0.0219
1194.0,0.0219
1193.0,0.0219
1192.0,0.0219
1191.0,0.022
1190.0,0.022
1189.0,0.022
1188.0,0.0221
1187.0,0.0222
1186.0,0.0223
1185.0,0.0224
1184.0,0.0225
1183.0,0.0226
1182.0,0.0227
1181.0,0.0228
1180.0,0.0229
1179.0,0.0231
1178.0,0.0232
1177.0,0.0233
1176.0,0.0234
1175.0,0.0235
1174.0,0.0236
1173.0,0.0237
1172.0,0.0237
1171.0,0.0237
1170.0,0.0237
1169.0,0.0237
1168.0,0.0237
1167.0,0.0237
1166.0,0.0237
1165.0,0.0237
1164.0,0.0237
1163.0,0.0236
1162.0,0.0235
1161.0,0.0235
1160.0,0.0235
1159.0,0.0235
1158.0,0.0235
1157.0,0.0234
1156.0,0.0234
1155.0,0.0233
1154.0,0.0234
1153.0,0.0235
1152.0,0.0235
1151.0,0.0235
1150.0,0.0235
1149.0,0.0234
1148.0,0.0233
1147.0,0.0233
1146.0,0.0232
1145.0,0.0232
1144.0,0.0232
1143.0,0.0232
1142.0,0.0232
1141.0,0.0232
1140.0,0.0233
1139.0,0.0233
1138.0,0.0233
1137.0,0.0233
1136.0,0.0232
1135.0,0.0232
1134.0,0.0232
1133.0,0.0231
1132.0,0.0231
1131.0,0.0231
1130.0,0.0231
1129.0,0.0232
1128.0,0.0232
1127.0,0.0232
1126.0,0.0232
1125.0,0.0232
1124.0,0.0232
1123.0,0.0232
1122.0,0.0232
1121.0,0.0233
1120.0,0.0233
1119.0,0.0233
1118.0,0.0233
1117.0,0.0233
1116.0,0.0233
1115.0,0.0233
1114.0,0.0234
1113.0,0.0234
1112.0,0.0234
1111.0,0.0233
1110.0,0.0234
1109.0,0.0234
1108.0,0.0234
1107.0,0.0235
1106.0,0.0235
1105.0,0.0235
1104.0,0.0235
1103.0,0.0235
1102.0,0.0235
1101.0,0.0235
1100.0,0.0236
1099.0,0.0237
1098.0,0.0237
1097.0,0.0238
1096.0,0.0238
1095.0,0.0238
1094.0,0.0239
1093.0,0.0239
1092.0,0.024
1091.0,0.024
1090.0,0.024
1089.0,0.024
1088.0,0.024
1087.0,0.0241
1086.0,0.0241
1085.0,0.0241
1084.0,0.024
1083.0,0.024
1082.0,0.0241
1081.0,0.0242
1080.0,0.0243
1079.0,0.0244
1078.0,0.0244
1077.0,0.0243
1076.0,0.0243
1075.0,0.0242
1074.0,0.0242
1073.0,0.0242
1072.0,0.0242
1071.0,0.0242
1070.0,0.0241
1069.0,0.0241
1068.0,0.0241
1067.0,0.0241
1066.0,0.0242
1065.0,0.0243
1064.0,0.0243
1063.0,0.0243
1062.0,0.0243
1061.0,0.0243
1060.0,0.0243
1059.0,0.0243
1058.0,0.0242
1057.0,0.0242
1056.0,0.0241
1055.0,0.0241
1054.0,0.0242
1053.0,0.0242
1052.0,0.0242
1051.0,0.0242
1050.0,0.0243
1049.0,0.0243
1048.0,0.0244
1047.0,0.0244
1046.0,0.0244
1045.0,0.0244
1044.0,0.0243
1043.0,0.0242
1042.0,0.0242
1041.0,0.0242
1040.0,0.0242
1039.0,0.0243
1038.0,0.0243
1037.0,0.0244
1036.0,0.0244
1035.0,0.0244
1034.0,0.0245
1033.0,0.0245
1032.0,0.0246
1031.0,0.0247
1030.0,0.0247
1029.0,0.0247
1028.0,0.0247
1027.0,0.0247
1026.0,0.0247
1025.0,0.0247
1024.0,0.0247
1023.0,0.0247
1022.0,0.0247
1021.0,0.0247
1020.0,0.0247
1019.0,0.0247
1018.0,0.0248
1017.0,0.0248
1016.0,0.0248
1015.0,0.0248
1014.0,0.0248
1013.0,0.0247
1012.0,0.0247
1011.0,0.0246
1010.0,0.0245
1009.0,0.0245
1008.0,0.0244
1007.0,0.0243
1006.0,0.0243
1005.0,0.0243
1004.0,0.0243
1003.0,0.0244
1002.0,0.0243
1001.0,0.0242
1000.0,0.0241
999.0,0.024
998.0,0.0239
997.0,0.0238
996.0,0.0238
995.0,0.0237
994.0,0.0237
993.0,0.0237
992.0,0.0236
991.0,0.0236
990.0,0.0236
989.0,0.0235
988.0,0.0235
987.0,0.0234
986.0,0.0234
985.0,0.0234
984.0,0.0234
983.0,0.0234
982.0,0.0234
981.0,0.0234
980.0,0.0234
979.0,0.0235
978.0,0.0236
977.0,0.0237
976.0,0.0238
975.0,0.0238
974.0,0.0238
973.0,0.0238
972.0,0.0238
971.0,0.0237
970.0,0.0236
969.0,0.0236
968.0,0.0237
967.0,0.0237
966.0,0.0237
965.0,0.0237
964.0,0.0237
963.0,0.0237
962.0,0.0238
961.0,0.0238
960.0,0.0239
959.0,0.0238
958.0,0.0238
957.0,0.0237
956.0,0.0236
955.0,0.0235
954.0,0.0234
953.0,0.0233
952.0,0.0232
951.0,0.0232
950.0,0.0232
949.0,0.0231
948.0,0.0231
947.0,0.0232
946.0,0.0234
945.0,0.0234
944.0,0.0235
943.0,0.0234
942.0,0.0234
941.0,0.0234
940.0,0.0234
939.0,0.0233
938.0,0.0233
937.0,0.0233
936.0,0.0233
935.0,0.0233
934.0,0.0234
933.0,0.0235
932.0,0.0235
931.0,0.0235
930.0,0.0234
929.0,0.0233
928.0,0.0233
927.0,0.0233
926.0,0.0233
925.0,0.0233
924.0,0.0231
923.0,0.023
922.0,0.0229
921.0,0.0229
920.0,0.023
919.0,0.0231
918.0,0.0232
917.0,0.0232
916.0,0.0233
915.0,0.0235
914.0,0.0236
913.0,0.0237
912.0,0.0237
911.0,0.0237
910.0,0.0237
909.0,0.0236
908.0,0.0235
907.0,0.0233
906.0,0.0232
905.0,0.0231
904.0,0.0231
903.0,0.0232
902.0,0.0232
901.0,0.0233
900.0,0.0233
899.0,0.0234
898.0,0.0234
897.0,0.0234
896.0,0.0233
895.0,0.0233
894.0,0.0233
893.0,0.0233
892.0,0.0233
891.0,0.0233
890.0,0.0232
889.0,0.0232
888.0,0.0233
887.0,0.0233
886.0,0.0234
885.0,0.0235
884.0,0.0235
883.0,0.0236
882.0,0.0236
881.0,0.0236
880.0,0.0235
879.0,0.0235
878.0,0.0235
877.0,0.0235
876.0,0.0234
875.0,0.0234
874.0,0.0233
873.0,0.0231
872.0,0.0231
871.0,0.0231
870.0,0.0232
869.0,0.0234
868.0,0.0236
867.0,0.0237
866.0,0.0238
865.0,0.0238
864.0,0.0237
863.0,0.0235
862.0,0.0233
861.0,0.0232
860.0,0.023
859.0,0.0228
858.0,0.0227
857.0,0.0227
856.0,0.0228
855.0,0.0229
854.0,0.0229
853.0,0.0229
852.0,0.023
851.0,0.0232
850.0,0.0234
849.0,0.0235
848.0,0.0234
847.0,0.0231
846.0,0.0228
845.0,0.0225
844.0,0.0223
843.0,0.0223
842.0,0.0224
841.0,0.0226
840.0,0.0227
839.0,0.0227
838.0,0.0227
837.0,0.0227
836.0,0.0227
835.0,0.0229
834.0,0.023
833.0,0.0231
832.0,0.023
831.0,0.0227
830.0,0.0225
829.0,0.0223
828.0,0.0223
827.0,0.0223
826.0,0.0223
825.0,0.0224
824.0,0.0223
823.0,0.0223
822.0,0.0223
821.0,0.0223
820.0,0.0224
819.0,0.0224
818.0,0.0225
817.0,0.0226
816.0,0.0227
815.0,0.0226
814.0,0.0223
813.0,0.0221
812.0,0.0219
811.0,0.0218
810.0,0.0218
809.0,0.0218
808.0,0.0218
807.0,0.0218
806.0,0.022
805.0,0.0221
804.0,0.0223
803.0,0.0224
802.0,0.0226
801.0,0.0227
800.0,0.0228
799.0,0.0227
798.0,0.0225
797.0,0.0222
796.0,0.022
795.0,0.0218
794.0,0.0216
793.0,0.0215
792.0,0.0215
791.0,0.0216
790.0,0.0218
789.0,0.022
788.0,0.0222
787.0,0.0223
786.0,0.0224
785.0,0.0224
784.0,0.0224
783.0,0.0223
782.0,0.0222
781.0,0.0221
780.0,0.0219
779.0,0.0217
778.0,0.0215
777.0,0.0215
776.0,0.0215
775.0,0.0217
774.0,0.0218
773.0,0.0219
772.0,0.022
771.0,0.0219
770.0,0.0218
769.0,0.0218
768.0,0.0218
767.0,0.0217
766.0,0.0217
765.0,0.0216
764.0,0.0215
763.0,0.0214
762.0,0.0212
761.0,0.0211
760.0,0.0211
759.0,0.0212
758.0,0.0214
757.0,0.0216
756.0,0.0217
755.0,0.0218
754.0,0.0217
753.0,0.0214
752.0,0.0211
751.0,0.0207
750.0,0.0203
749.0,0.0201
748.0,0.0198
747.0,0.0196
746.0,0.0195
745.0,0.0197
744.0,0.0198
743.0,0.0198
742.0,0.0198
741.0,0.0199
740.0,0.02
739.0,0.0202
738.0,0.0207
737.0,0.0217
736.0,0.0238
735.0,0.0286
734.0,0.0382
733.0,0.0539
732.0,0.0741
731.0,0.0926
730.0,0.1027
729.0,0.1016
728.0,0.0931
727.0,0.0831
726.0,0.0757
725.0,0.0725
724.0,0.0736
723.0,0.0799
722.0,0.0928
721.0,0.1118
720.0,0.1306
719.0,0.1392
718.0,0.1338
717.0,0.119
716.0,0.1017
715.0,0.0866
714.0,0.0753
713.0,0.0674
712.0,0.0618
711.0,0.0576
710.0,0.0542
709.0,0.0509
708.0,0.048
707.0,0.0457
706.0,0.0439
705.0,0.0423
704.0,0.0409
703.0,0.0397
702.0,0.0386
701.0,0.0374
700.0,0.036
699.0,0.035
698.0,0.0345
697.0,0.0344
696.0,0.0345
695.0,0.0345
694.0,0.0345
693.0,0.0345
692.0,0.0341
691.0,0.0329
690.0,0.0308
689.0,0.0285
688.0,0.0272
687.0,0.0272
686.0,0.028
685.0,0.0287
684.0,0.029
683.0,0.0294
682.0,0.0299
681.0,0.0305
680.0,0.0309
679.0,0.0313
678.0,0.0315
677.0,0.0314
676.0,0.0311
675.0,0.0305
674.0,0.0293
673.0,0.0273
672.0,0.0252
671.0,0.0246
670.0,0.0255
669.0,0.0291
668.0,0.0361
667.0,0.0396
666.0,0.0369
665.0,0.0333
664.0,0.0314
663.0,0.0309
662.0,0.0305
661.0,0.0301
660.0,0.0296
659.0,0.0286
658.0,0.0266
657.0,0.024
656.0,0.0213
655.0,0.0197
654.0,0.0197
653.0,0.0211
652.0,0.0233
651.0,0.0256
650.0,0.0277
649.0,0.0292
648.0,0.0303
647.0,0.0309
646.0,0.031
645.0,0.0305
644.0,0.0296
643.0,0.0284
642.0,0.0269
641.0,0.0251
640.0,0.0235
639.0,0.0229
638.0,0.0235
637.0,0.0252
636.0,0.0279
635.0,0.0314
634.0,0.0347
633.0,0.0363
632.0,0.0359
631.0,0.0345
630.0,0.0331
629.0,0.0322
628.0,0.0317
627.0,0.031
626.0,0.0302
625.0,0.0293
624.0,0.0286
623.0,0.0283
622.0,0.0282
621.0,0.0282
620.0,0.0285
619.0,0.0294
618.0,0.0309
617.0,0.0326
616.0,0.0338
615.0,0.0342
614.0,0.0337
613.0,0.0331
612.0,0.0328
611.0,0.0328
610.0,0.0328
609.0,0.032
608.0,0.0308
607.0,0.0298
606.0,0.0296
605.0,0.03
604.0,0.031
603.0,0.0328
602.0,0.0353
601.0,0.0383
600.0,0.0407
