nm,Intensity
528.615,1833.22
528.699,1831.58
528.784,1833.06
528.868,1833.26
528.952,1832.48
529.036,1833.68
529.121,1832.7
529.205,1832.92
529.289,1833.38
529.373,1832.8
529.458,1833.8
529.542,1834.18
529.626,1833.04
529.71,1833.06
529.795,1832.8
529.879,1831.76
529.963,1832.36
530.047,1832.82
530.132,1834.44
530.216,1833.72
530.3,1833.16
530.384,1832.84
530.469,1834.2
530.553,1834.02
530.637,1833.8
530.721,1834.48
530.806,1834.48
530.89,1834.44
530.974,1834.22
531.058,1835.0
531.143,1836.32
531.227,1837.22
531.311,1837.06
531.395,1838.32
531.479,1842.24
531.564,1850.12
531.648,1883.42
531.732,2021.48
531.816,2405.28
531.901,3045.82
531.985,3674.16
532.069,3479.7
532.153,2679.2
532.237,2076.08
532.322,1866.06
532.406,1839.7
532.49,1838.08
532.574,1837.66
532.658,1837.4
532.743,1838.38
532.827,1838.74
532.911,1839.74
532.995,1839.76
533.079,1842.86
533.164,1845.74
533.248,1849.9
533.332,1863.54
533.416,1917.04
533.5,2068.62
533.585,2426.6
533.669,3040.92
533.753,3786.6
533.837,4452.02
533.921,4932.66
534.005,5265.38
534.09,5454.32
534.174,5528.62
534.258,5494.86
534.342,5447.64
534.426,5485.42
534.511,5576.6
534.595,5692.54
534.679,5760.04
534.763,5819.56
534.847,5880.94
534.931,5952.22
535.016,5946.64
535.1,5917.48
535.184,5972.62
535.268,6098.14
535.352,6189.36
535.436,6198.46
535.52,6219.7
535.605,6182.84
535.689,6141.62
535.773,6201.54
535.857,6186.16
535.941,6200.66
536.025,6305.56
536.109,6281.96
536.194,6251.28
536.278,6286.04
536.362,6246.46
536.446,6267.3
536.53,6369.72
536.614,6376.76
536.698,6334.1
536.783,6396.34
536.867,6394.48
536.951,6393.6
537.035,6446.2
537.119,6495.72
537.203,6520.74
537.287,6588.96
537.371,6609.56
537.456,6617.48
537.54,6640.08
537.624,6682.24
537.708,6719.12
537.792,6745.46
537.876,6755.36
537.96,6762.24
538.044,6684.74
538.128,6646.48
538.213,6652.38
538.297,6684.66
538.381,6698.92
538.465,6751.44
538.549,6741.08
538.633,6780.3
538.717,6862.86
538.801,6845.8
538.885,6895.02
538.969,6994.36
539.053,6978.62
539.138,6975.4
539.222,6996.1
539.306,7046.1
539.39,7081.28
539.474,7086.32
539.558,7083.72
539.642,7008.16
539.726,7051.28
539.81,7122.66
539.894,7249.06
539.978,7274.92
540.062,7281.74
540.147,7215.64
540.231,7250.54
540.315,7301.9
540.399,7288.28
540.483,7326.64
540.567,7315.52
540.651,7356.24
540.735,7384.28
540.819,7415.52
540.903,7425.48
540.987,7402.82
541.071,7390.9
541.155,7423.42
541.239,7418.32
541.323,7436.22
541.407,7521.48
541.491,7450.24
541.575,7503.32
541.66,7596.68
541.744,7656.54
541.828,7634.6
541.912,7672.62
541.996,7732.22
542.08,7721.78
542.164,7673.5
542.248,7711.06
542.332,7744.5
542.416,7760.16
542.5,7797.04
542.584,7813.4
542.668,7804.52
542.752,7790.06
542.836,7852.02
542.92,7835.78
543.004,7886.94
543.088,7902.68
543.172,7917.42
543.256,7964.22
543.34,7999.02
543.424,8001.5
543.508,8009.6
543.592,8020.0
543.676,8088.24
543.76,8105.4
543.844,8110.94
543.928,8072.7
544.012,8035.98
544.096,7992.14
544.18,8021.84
544.264,8179.52
544.348,8254.98
544.432,8187.18
544.516,8198.9
544.6,8180.52
544.684,8224.02
544.768,8236.06
544.852,8251.72
544.936,8321.06
545.02,8357.16
545.104,8282.12
545.188,8301.44
545.272,8255.32
545.356,8270.92
545.44,8268.96
545.524,8355.96
545.608,8400.88
545.692,8489.92
545.776,8526.22
545.86,8488.36
545.944,8517.42
546.028,8594.74
546.112,8609.52
546.195,8594.5
546.279,8551.6
546.363,8548.38
546.447,8573.68
546.531,8646.72
546.615,8709.34
546.699,8706.66
546.783,8712.86
546.867,8705.26
546.951,8689.9
547.035,8639.54
547.119,8670.8
547.203,8747.4
547.287,8865.06
547.371,8861.82
547.455,8828.32
547.539,8812.52
547.623,8873.84
547.706,8905.74
547.79,8846.44
547.874,8870.54
547.958,8891.36
548.042,8979.46
548.126,9014.92
548.21,9013.96
548.294,9011.14
548.378,9012.82
548.462,9085.32
548.546,9087.64
548.63,9104.94
548.713,9199.64
548.797,9275.2
548.881,9208.22
548.965,9176.16
549.049,9091.0
549.133,9175.26
549.217,9139.42
549.301,9145.3
549.385,9175.0
549.469,9131.58
549.552,9133.7
549.636,9223.1
549.72,9173.64
549.804,9224.46
549.888,9219.0
549.972,9240.74
550.056,9202.66
550.14,9216.66
550.224,9309.7
550.307,9320.18
550.391,9320.98
550.475,9346.04
550.559,9396.82
550.643,9435.1
550.727,9458.32
550.811,9541.18
550.895,9532.24
550.978,9529.76
551.062,9485.4
551.146,9512.56
551.23,9564.6
551.314,9633.48
551.398,9638.86
551.482,9692.22
551.565,9802.26
551.649,9802.0
551.733,9716.24
551.817,9797.74
551.901,9809.0
551.985,9724.6
552.069,9733.24
552.152,9801.5
552.236,9812.1
552.32,9847.62
552.404,9833.72
552.488,9725.4
552.572,9724.92
552.655,9764.22
552.739,9771.36
552.823,9851.2
552.907,9950.4
552.991,9906.9
553.075,9881.38
553.158,9871.38
553.242,9857.76
553.326,9757.28
553.41,9837.22
553.494,9989.08
553.577,10095.9
553.661,10039.8
553.745,10051.5
553.829,10084.0
553.913,10068.6
553.997,10094.8
554.08,10132.5
554.164,10055.8
554.248,10163.8
554.332,10217.0
554.416,10234.5
554.499,10170.2
554.583,10174.9
554.667,10308.2
554.751,10346.4
554.835,10369.1
554.918,10344.3
555.002,10304.9
555.086,10370.2
555.17,10436.3
555.253,10325.1
555.337,10257.7
555.421,10305.9
555.505,10380.8
555.589,10442.1
555.672,10449.6
555.756,10397.1
555.84,10349.1
555.924,10321.0
556.007,10308.2
556.091,10506.1
556.175,10555.6
556.259,10581.2
556.342,10565.9
556.426,10455.6
556.51,10451.0
556.594,10481.4
556.678,10614.0
556.761,10595.6
556.845,10560.8
556.929,10492.3
557.013,10487.9
557.096,10585.2
557.18,10645.1
557.264,10633.4
557.347,10706.9
557.431,10749.1
557.515,10669.4
557.599,10717.0
557.682,10752.3
557.766,10693.0
557.85,10711.0
557.934,10767.7
558.017,10796.7
558.101,10837.9
558.185,10898.6
558.269,10942.8
558.352,10875.7
558.436,10824.3
558.52,10906.5
558.603,10935.8
558.687,10895.8
558.771,10940.8
558.855,10974.1
558.938,10953.9
559.022,10994.9
559.106,10986.9
559.189,10939.5
559.273,10947.5
559.357,11049.7
559.44,10994.4
559.524,10983.5
559.608,11044.3
559.692,11145.2
559.775,11159.3
559.859,11067.8
559.943,11052.3
560.026,11116.8
560.11,11166.0
560.194,11178.9
560.277,11186.7
560.361,11110.5
560.445,11189.5
560.528,11191.6
560.612,11190.3
560.696,11330.1
560.779,11378.6
560.863,11356.0
560.947,11371.4
561.03,11368.9
561.114,11349.9
561.198,11284.0
561.281,11319.5
561.365,11420.7
561.449,11480.7
561.532,11453.1
561.616,11448.0
561.7,11477.0
561.783,11495.0
561.867,11514.0
561.951,11486.3
562.034,11461.6
562.118,11556.5
562.202,11541.7
562.285,11547.4
562.369,11517.1
562.452,11484.8
562.536,11617.3
562.62,11628.8
562.703,11558.2
562.787,11608.6
562.871,11750.9
562.954,11661.0
563.038,11616.2
563.122,11678.0
563.205,11712.2
563.289,11651.1
563.372,11593.8
563.456,11640.2
563.54,11648.6
563.623,11724.1
563.707,11785.1
563.79,11854.9
563.874,11984.3
563.958,12147.5
564.041,12134.1
564.125,12051.5
564.208,12044.4
564.292,12048.2
564.376,11930.5
564.459,11914.1
564.543,11946.8
564.626,12042.1
564.71,12023.6
564.794,12085.0
564.877,12159.8
564.961,12021.7
565.044,12046.8
565.128,12052.7
565.212,12097.7
565.295,12078.1
565.379,12155.2
565.462,12214.6
565.546,12173.3
565.629,12159.8
565.713,12213.5
565.797,12228.3
565.88,12209.0
565.964,12355.9
566.047,12609.3
566.131,12543.8
566.214,12401.3
566.298,12356.3
566.381,12254.4
566.465,12303.4
566.549,12267.2
566.632,12286.6
566.716,12186.8
566.799,12084.3
566.883,12106.0
566.966,12105.5
567.05,12168.1
567.133,12273.2
567.217,12287.5
567.3,12318.9
567.384,12290.9
567.468,12253.6
567.551,12331.6
567.635,12429.3
567.718,12397.0
567.802,12337.3
567.885,12331.1
567.969,12314.8
568.052,12376.9
568.136,12351.5
568.219,12323.6
568.303,12391.3
568.386,12511.6
568.47,12661.3
568.553,12569.4
568.637,12583.8
568.72,12611.1
568.804,12624.8
568.887,12572.6
568.971,12558.7
569.054,12605.3
569.138,12639.1
569.221,12702.3
569.305,12787.7
569.388,12642.1
569.472,12453.1
569.555,12383.9
569.639,12452.5
569.722,12735.4
569.806,12723.5
569.889,12678.5
569.973,12711.5
570.056,12820.2
570.14,12757.9
570.223,12749.3
570.307,12786.8
570.39,12788.8
570.474,12706.4
570.557,12651.4
570.64,12678.8
570.724,12864.2
570.807,12929.2
570.891,12854.3
570.974,12842.7
571.058,12936.1
571.141,13048.6
571.225,13143.4
571.308,13134.9
571.392,13298.2
571.475,13511.8
571.558,13480.2
571.642,13360.4
571.725,13211.5
571.809,13119.1
571.892,13120.2
571.976,13163.1
572.059,13187.0
572.143,13267.9
572.226,13113.7
572.309,13133.0
572.393,13216.8
572.476,13264.2
572.56,13311.4
572.643,13180.8
572.726,13133.8
572.81,13154.9
572.893,13228.9
572.977,13331.2
573.06,13254.0
573.144,13103.4
573.227,13195.5
573.31,13222.0
573.394,13210.7
573.477,13142.1
573.561,13144.7
573.644,13174.6
573.727,13121.0
573.811,13092.6
573.894,13168.1
573.978,13213.6
574.061,13153.7
574.144,13170.2
574.228,13191.1
574.311,13269.6
574.395,13272.1
574.478,13158.9
574.561,13120.1
574.645,13208.8
574.728,13207.2
574.811,13268.7
574.895,13246.4
574.978,13270.5
575.062,13394.1
575.145,13444.0
575.228,13490.8
575.312,13481.4
575.395,13520.9
575.478,13572.1
575.562,13646.2
575.645,13621.8
575.728,13642.9
575.812,13750.0
575.895,13865.1
575.978,13844.3
576.062,13794.8
576.145,13903.4
576.228,14106.3
576.312,14110.0
576.395,14128.3
576.478,14060.4
576.562,13889.6
576.645,13812.2
576.728,13845.0
576.812,13931.7
576.895,13819.3
576.978,13937.0
577.062,14014.3
577.145,13926.7
577.228,13787.2
577.312,13776.2
577.395,13750.9
577.478,13683.5
577.562,13638.5
577.645,13655.9
577.728,13600.1
577.812,13594.7
577.895,13700.6
577.978,13764.1
578.062,13626.4
578.145,13529.7
578.228,13520.9
578.311,13659.9
578.395,13584.4
578.478,13473.6
578.561,13605.6
578.645,13699.3
578.728,13652.5
578.811,13638.8
578.894,13639.0
578.978,13808.3
579.061,13921.2
579.144,13918.4
579.228,13782.2
579.311,13630.4
579.394,13669.9
579.477,13800.4
579.561,13828.6
579.644,13861.2
579.727,13827.5
579.81,13780.5
579.894,13806.5
579.977,13812.7
580.06,13832.8
580.144,13905.8
580.227,13937.6
580.31,13905.9
580.393,13968.1
580.477,13942.3
580.56,13907.3
580.643,13910.1
580.726,13982.8
580.809,14131.1
580.893,14094.9
580.976,13975.8
581.059,13887.1
581.142,13906.9
581.226,13942.6
581.309,13950.0
581.392,13972.8
581.475,14051.1
581.559,14076.9
581.642,14012.9
581.725,14031.8
581.808,14013.7
581.891,13945.0
581.975,14014.9
582.058,13901.7
582.141,13856.4
582.224,13894.1
582.307,14018.8
582.391,14126.1
582.474,14083.4
582.557,14019.7
582.64,13944.7
582.723,13838.0
582.807,13837.1
582.89,13848.0
582.973,13921.9
583.056,14017.0
583.139,14056.0
583.223,14108.2
583.306,14180.3
583.389,14095.6
583.472,14064.7
583.555,14108.7
583.639,13981.3
583.722,13952.4
583.805,14076.5
583.888,14201.7
583.971,14141.4
584.054,14127.9
584.138,14123.1
584.221,14138.9
584.304,14108.2
584.387,14014.7
584.47,14120.7
584.553,14116.0
584.636,14130.2
584.72,14078.7
584.803,14130.2
584.886,14040.6
584.969,14010.3
585.052,14058.3
585.135,14109.8
585.218,14176.2
585.302,14057.9
585.385,13932.1
585.468,13983.1
585.551,14059.3
585.634,14014.8
585.717,14114.4
585.8,14084.8
585.884,14026.4
585.967,14116.1
586.05,14204.0
586.133,14090.3
586.216,14031.4
586.299,14065.2
586.382,14038.6
586.465,13959.7
586.548,14139.3
586.632,14305.0
586.715,14307.4
586.798,14192.8
586.881,14181.6
586.964,14328.1
587.047,14306.5
587.13,14306.0
587.213,14215.8
587.296,14215.8
587.379,14368.2
587.463,14448.1
587.546,14418.8
587.629,14448.4
587.712,14441.3
587.795,14495.7
587.878,14402.6
587.961,14362.7
588.044,14310.6
588.127,14451.9
588.21,14513.7
588.293,14466.7
588.376,14364.4
588.459,14527.4
588.542,14478.6
588.626,14430.8
588.709,14457.6
588.792,14428.0
588.875,14470.3
588.958,14429.5
589.041,14289.8
589.124,14278.2
589.207,14378.6
589.29,14360.7
589.373,14366.1
589.456,14381.6
589.539,14372.6
589.622,14331.1
589.705,14381.2
589.788,14406.0
589.871,14441.8
589.954,14385.8
590.037,14325.7
590.12,14219.4
590.203,14257.9
590.286,14447.6
590.369,14386.7
590.452,14488.5
590.535,14467.4
590.618,14543.6
590.701,14582.2
590.784,14417.4
590.867,14418.2
590.95,14545.9
591.033,14527.2
591.116,14439.0
591.199,14441.9
591.282,14589.1
591.365,14742.7
591.448,14527.0
591.531,14479.2
591.614,14521.7
591.697,14673.3
591.78,14625.9
591.863,14581.8
591.946,14629.4
592.029,14696.7
592.112,14673.7
592.195,14529.3
592.278,14495.3
592.361,14519.9
592.444,14622.7
592.527,14673.2
592.61,14730.9
592.693,14722.8
592.776,14691.3
592.859,14571.0
592.942,14594.1
593.025,14715.6
593.108,14578.0
593.191,14489.4
593.274,14537.1
593.357,14470.8
593.44,14521.5
593.523,14565.8
593.606,14631.8
593.688,14513.6
593.771,14560.1
593.854,14644.0
593.937,14701.8
594.02,14753.5
594.103,14686.5
594.186,14536.4
594.269,14502.2
594.352,14517.5
594.435,14531.9
594.518,14534.2
594.601,14533.8
594.684,14505.8
594.767,14617.9
594.849,14698.7
594.932,14713.0
595.015,14789.2
595.098,14693.6
595.181,14670.3
595.264,14693.7
595.347,14690.0
595.43,14641.7
595.513,14725.7
595.596,14835.3
595.678,14797.4
595.761,14759.0
595.844,14628.3
595.927,14638.9
596.01,14755.2
596.093,14800.1
596.176,14743.7
596.259,14757.0
596.341,14767.8
596.424,14685.3
596.507,14833.8
596.59,15042.2
596.673,14978.3
596.756,14950.9
596.839,14819.9
596.922,14739.6
597.004,14873.8
597.087,14936.9
597.17,14886.5
597.253,14852.7
597.336,14674.7
597.419,14670.0
597.502,14766.4
597.584,14665.0
597.667,14629.4
597.75,14847.8
597.833,15018.0
597.916,15070.8
597.999,14912.1
598.081,14953.9
598.164,14920.2
598.247,14962.5
598.33,14953.2
598.413,14877.7
598.496,14641.8
598.578,14637.0
598.661,14900.5
598.744,15008.5
598.827,15034.1
598.91,14957.4
598.992,15012.1
599.075,15020.2
599.158,15008.0
599.241,14946.4
599.324,15011.9
599.406,14918.5
599.489,14892.3
599.572,15103.2
599.655,15166.8
599.738,14924.5
599.82,14893.3
599.903,14958.4
599.986,14916.5
600.069,14929.4
600.152,15099.6
600.234,15172.1
600.317,15317.2
600.4,15307.9
600.483,15106.5
600.565,15059.0
600.648,14969.3
600.731,15045.3
600.814,15016.2
600.896,14990.6
600.979,15019.0
601.062,15107.2
601.145,15105.0
601.228,15070.2
601.31,15145.5
601.393,15188.6
601.476,15234.2
601.558,15270.7
601.641,15189.5
601.724,15109.0
601.807,15122.2
601.889,15329.9
601.972,15234.3
602.055,15252.0
602.138,15041.3
602.22,14939.0
602.303,15025.3
602.386,15347.8
602.469,15245.6
602.551,15101.1
602.634,14990.3
602.717,15189.8
602.799,15188.3
602.882,15119.8
602.965,15250.2
603.048,15240.8
603.13,15246.4
603.213,15278.6
603.296,15316.8
603.378,15189.3
603.461,15153.2
603.544,15218.5
603.626,15337.2
603.709,15333.4
603.792,14992.1
603.875,14887.7
603.957,15065.4
604.04,15174.2
604.123,15222.0
604.205,15268.7
604.288,15308.8
604.371,15214.8
604.453,15365.1
604.536,15357.5
604.619,15124.5
604.701,15082.7
604.784,15140.2
604.867,15163.2
604.949,15170.1
605.032,15231.6
605.115,15259.5
605.197,15241.0
605.28,15101.1
605.363,15057.9
605.445,15077.9
605.528,15176.6
605.611,15267.9
605.693,15149.7
605.776,15139.2
605.858,15151.9
605.941,15090.1
606.024,15195.4
606.106,15223.0
606.189,15327.1
606.272,15376.0
606.354,15441.9
606.437,15086.0
606.519,15079.9
606.602,15159.7
606.685,15416.5
606.767,15384.9
606.85,15207.6
606.933,15284.2
607.015,15231.0
607.098,15151.7
607.18,15205.1
607.263,15275.1
607.346,15319.6
607.428,15381.1
607.511,15363.6
607.593,15191.4
607.676,15245.2
607.759,15321.7
607.841,15230.9
607.924,15129.8
608.006,15289.1
608.089,15260.9
608.171,15216.4
608.254,15303.3
608.337,15364.7
608.419,15285.0
608.502,15123.6
608.584,15240.0
608.667,15309.6
608.749,15169.6
608.832,15158.4
608.915,15226.6
608.997,15207.1
609.08,15113.4
609.162,15101.4
609.245,15225.4
609.327,15257.9
609.41,15218.4
609.492,15266.3
609.575,15191.8
609.658,15143.7
609.74,15182.1
609.823,15248.6
609.905,15264.4
609.988,15376.7
610.07,15331.2
610.153,15198.1
610.235,15054.1
610.318,15069.4
610.4,15269.2
610.483,15366.3
610.565,15180.5
610.648,15239.3
610.73,15284.1
610.813,15279.0
610.895,15200.8
610.978,15136.1
611.06,15105.7
611.143,15102.0
611.225,15133.3
611.308,15251.4
611.39,15389.7
611.473,15241.5
611.555,15322.5
611.638,15348.1
611.72,15086.5
611.803,14843.2
611.885,14999.6
611.968,15163.5
612.05,15194.7
612.133,15126.3
612.215,14975.9
612.298,15106.5
612.38,15013.3
612.463,14966.6
612.545,15123.3
612.628,15245.5
612.71,15111.3
612.792,14943.9
612.875,14830.2
612.957,14894.4
613.04,14903.7
613.122,14947.4
613.205,14920.4
613.287,15033.3
613.37,14978.4
613.452,14820.6
613.534,14908.7
613.617,15045.2
613.699,15013.3
613.782,14890.1
613.864,14983.3
613.947,14800.2
614.029,14721.4
614.111,14868.1
614.194,14821.7
614.276,14950.6
614.359,14952.3
614.441,14891.3
614.524,14823.4
614.606,14883.4
614.688,15152.7
614.771,14999.9
614.853,14759.0
614.936,14728.5
615.018,14712.4
615.1,14738.9
615.183,14847.5
615.265,14888.3
615.348,14900.7
615.43,14720.4
615.512,14625.3
615.595,14506.4
615.677,14489.3
615.76,14599.6
615.842,14609.6
615.924,14721.0
616.007,14849.2
616.089,14800.0
616.171,14654.8
616.254,14637.0
616.336,14661.3
616.418,14623.9
616.501,14554.2
616.583,14491.7
616.666,14472.8
616.748,14421.2
616.83,14561.4
616.913,14618.1
616.995,14486.9
617.077,14417.1
617.16,14396.3
617.242,14403.8
617.324,14501.8
617.407,14572.2
617.489,14586.1
617.571,14450.0
617.654,14302.6
617.736,14260.1
617.818,14376.6
617.901,14491.1
617.983,14459.4
618.065,14442.4
618.148,14380.9
618.23,14228.8
618.312,14188.2
618.395,14315.5
618.477,14424.2
618.559,14547.9
618.641,14424.0
618.724,14354.4
618.806,14140.1
618.888,13994.0
618.971,14160.0
619.053,14349.8
619.135,14250.7
619.218,14135.2
619.3,14075.0
619.382,14222.3
619.464,14317.2
619.547,14185.4
619.629,14151.4
619.711,14148.5
619.793,14049.7
619.876,14210.4
619.958,14155.5
620.04,14110.6
620.123,13992.1
620.205,14050.1
620.287,14111.8
620.369,14078.6
620.452,14006.0
620.534,13858.1
620.616,13852.6
620.698,14023.9
620.781,14094.1
620.863,13915.7
620.945,13809.2
621.027,13903.4
621.11,13875.0
621.192,13940.2
621.274,13778.8
621.356,13729.9
621.438,13893.2
621.521,14020.4
621.603,13954.7
621.685,13741.9
621.767,13661.1
621.85,13673.7
621.932,13762.8
622.014,13734.8
622.096,13724.0
622.178,13791.2
622.261,13753.8
622.343,13761.3
622.425,13679.8
622.507,13577.3
622.589,13502.5
622.672,13573.6
622.754,13676.5
622.836,13546.7
622.918,13596.9
623.0,13670.3
623.083,13563.7
623.165,13419.3
623.247,13466.3
623.329,13441.9
623.411,13420.7
623.493,13428.9
623.576,13285.1
623.658,13318.5
623.74,13315.7
623.822,13414.7
623.904,13372.1
623.986,13391.2
624.069,13344.8
624.151,13273.2
624.233,13289.6
624.315,13384.4
624.397,13323.0
624.479,13289.8
624.561,13184.1
624.644,13270.8
624.726,13231.3
624.808,13161.2
624.89,12954.7
624.972,12988.3
625.054,13000.4
625.136,13061.8
625.218,13096.9
625.301,13094.6
625.383,13055.9
625.465,12961.3
625.547,12894.8
625.629,12865.2
625.711,12950.7
625.793,13190.0
625.875,13120.9
625.958,12847.8
626.04,12792.1
626.122,12918.6
626.204,13044.0
626.286,13002.9
626.368,13005.5
626.45,13065.0
626.532,13049.1
626.614,13333.1
626.696,13574.8
626.778,13768.2
626.86,14089.7
626.943,14459.2
627.025,14926.4
627.107,15027.7
627.189,15076.8
627.271,14821.5
627.353,14625.2
627.435,14332.8
627.517,14157.5
627.599,14005.4
627.681,14061.9
627.763,14093.2
627.845,13989.5
627.927,13913.8
628.009,13966.5
628.091,14053.8
628.173,14240.0
628.255,14364.2
628.338,14561.2
628.42,14892.6
628.502,15105.5
628.584,14855.6
628.666,14542.6
628.748,14187.4
628.83,14058.8
628.912,13953.8
628.994,13854.9
629.076,13654.9
629.158,13495.3
629.24,13560.0
629.322,13611.4
629.404,13603.4
629.486,13337.2
629.568,13234.3
629.65,13164.5
629.732,13232.4
629.814,13163.1
629.896,13100.7
629.978,13154.7
630.06,13052.5
630.142,12911.8
630.224,12887.8
630.306,12895.3
630.388,12811.9
630.47,12680.7
630.552,12634.9
630.634,12599.2
630.716,12586.6
630.798,12414.0
630.88,12392.8
630.961,12338.9
631.043,12172.7
631.125,12136.3
631.207,12200.8
631.289,12187.5
631.371,12203.2
631.453,12009.6
631.535,11993.7
631.617,11965.0
631.699,11846.3
631.781,11836.0
631.863,11832.2
631.945,11844.8
632.027,11853.0
632.109,11836.2
632.191,11773.0
632.273,11629.5
632.355,11623.4
632.436,11754.3
632.518,11924.0
632.6,11827.6
632.682,11643.8
632.764,11520.5
632.846,11631.9
632.928,11694.2
633.01,11659.5
633.092,11466.7
633.174,11469.3
633.256,11609.6
633.337,11571.5
633.419,11553.0
633.501,11511.0
633.583,11559.7
633.665,11664.0
633.747,11769.2
633.829,11726.2
633.911,11555.5
633.993,11471.6
634.074,11464.6
634.156,11414.3
634.238,11384.9
634.32,11361.1
634.402,11256.4
634.484,11189.5
634.566,11150.2
634.647,11175.3
634.729,11295.0
634.811,11403.0
634.893,11347.7
634.975,11259.8
635.057,11245.8
635.139,11226.8
635.22,11156.9
635.302,11022.0
635.384,11044.0
635.466,11073.4
635.548,11127.8
635.63,11179.7
635.711,11098.6
635.793,10988.2
635.875,10862.4
635.957,10921.7
636.039,10889.8
636.12,11015.1
636.202,11014.6
636.284,10966.1
636.366,10944.1
636.448,10776.9
636.53,10719.3
636.611,10778.8
636.693,10906.2
636.775,10847.7
636.857,10853.5
636.939,10881.6
637.02,10728.4
637.102,10702.3
637.184,10853.0
637.266,10837.6
637.347,10786.0
637.429,10811.8
637.511,10753.2
637.593,10695.9
637.675,10607.6
637.756,10706.0
637.838,10753.5
637.92,10781.9
638.002,10705.2
638.083,10594.6
638.165,10546.3
638.247,10582.1
638.329,10654.7
638.41,10692.4
638.492,10744.1
638.574,10704.2
638.656,10569.3
638.737,10544.2
638.819,10426.8
638.901,10444.8
638.983,10450.5
639.064,10443.7
639.146,10402.0
639.228,10363.0
639.309,10467.6
639.391,10557.2
639.473,10545.4
639.555,10435.6
639.636,10212.3
639.718,10236.8
639.8,10301.8
639.881,10268.4
639.963,10250.4
640.045,10257.4
640.127,10325.7
640.208,10120.7
640.29,10168.4
640.372,10272.1
640.453,10194.6
640.535,10079.2
640.617,10121.1
640.698,10040.2
640.78,10003.5
640.862,10082.7
640.943,10001.6
641.025,9979.0
641.107,9990.46
641.188,10045.2
641.27,10073.5
641.352,10150.0
641.433,10169.0
641.515,10044.9
641.597,9972.5
641.678,9880.1
641.76,9806.22
641.842,9974.82
641.923,10034.9
642.005,9908.82
642.087,9875.2
642.168,9846.86
642.25,9804.9
642.332,9863.26
642.413,9809.56
642.495,9873.12
642.576,9885.1
642.658,9773.74
642.74,9764.2
642.821,9749.76
642.903,9724.4
642.985,9683.86
643.066,9690.14
643.148,9743.44
643.229,9749.18
643.311,9738.56
643.393,9680.76
643.474,9693.36
643.556,9658.2
643.637,9554.8
643.719,9684.12
643.801,9741.1
643.882,9682.62
643.964,9665.32
644.045,9579.82
644.127,9586.76
644.208,9675.84
644.29,9734.3
644.372,9651.62
644.453,9403.82
644.535,9438.94
644.616,9483.16
644.698,9453.04
644.779,9488.9
644.861,9432.1
644.943,9483.56
645.024,9536.54
645.106,9473.84
645.187,9458.66
645.269,9529.98
645.35,9529.0
645.432,9479.0
645.513,9518.8
645.595,9475.28
645.677,9385.2
645.758,9357.78
645.84,9279.5
645.921,9193.86
646.003,9307.34
646.084,9320.34
646.166,9259.74
646.247,9237.88
646.329,9284.22
646.41,9273.68
646.492,9270.8
646.573,9240.12
646.655,9260.82
646.736,9264.76
646.818,9192.22
646.899,9124.44
646.981,9047.4
647.062,8977.98
647.144,8885.12
647.225,8958.34
647.307,9097.48
647.388,9131.06
647.47,9158.42
647.551,9111.06
647.633,9060.24
647.714,8996.68
647.796,8920.64
647.877,8958.92
647.958,8962.4
648.04,8872.0
648.121,8821.0
648.203,8864.64
648.284,8980.78
648.366,8880.84
648.447,8819.62
648.529,8934.86
648.61,8896.06
648.692,8930.78
648.773,8910.38
648.854,8789.34
648.936,8765.88
649.017,8666.62
649.099,8698.98
649.18,8703.2
649.262,8750.5
649.343,8654.18
649.424,8719.14
649.506,8741.34
649.587,8542.74
649.669,8471.4
649.75,8572.36
649.832,8692.28
649.913,8721.92
649.994,8599.94
650.076,8446.5
650.157,8435.12
650.239,8485.48
650.32,8570.76
650.401,8623.24
650.483,8637.0
650.564,8481.58
650.646,8383.62
650.727,8410.66
650.808,8420.28
650.89,8356.72
650.971,8447.2
651.052,8494.06
651.134,8516.72
651.215,8466.24
651.297,8412.54
651.378,8408.9
651.459,8427.76
651.541,8400.6
651.622,8342.08
651.703,8317.58
651.785,8352.18
651.866,8424.0
651.947,8398.5
652.029,8345.7
652.11,8329.9
652.191,8319.8
652.273,8213.88
652.354,8112.36
652.435,8000.88
652.517,8062.7
652.598,8110.16
652.679,8125.44
652.761,8173.0
652.842,8191.62
652.923,8171.1
653.005,8065.94
653.086,7998.54
653.167,8039.24
653.249,8098.84
653.33,8045.64
653.411,8024.48
653.492,8017.78
653.574,7945.72
653.655,7934.54
653.736,7928.38
653.818,7880.22
653.899,7879.66
653.98,7884.32
654.061,7834.26
654.143,7815.96
654.224,7841.12
654.305,7797.82
654.387,7721.48
654.468,7805.44
654.549,7912.44
654.63,7869.0
654.712,7790.32
654.793,7744.3
654.874,7820.3
654.955,7860.9
655.037,7790.14
655.118,7767.54
655.199,7683.24
655.28,7602.98
655.362,7641.72
655.443,7670.56
655.524,7703.16
655.605,7712.2
655.687,7792.34
655.768,7816.08
655.849,7762.84
655.93,7736.26
656.011,7664.92
656.093,7622.84
656.174,7644.72
656.255,7616.74
656.336,7636.26
656.417,7627.62
656.499,7630.9
656.58,7508.44
656.661,7481.98
656.742,7447.34
656.823,7606.62
656.905,7573.34
656.986,7518.58
657.067,7479.3
657.148,7506.38
657.229,7499.46
657.311,7424.3
657.392,7405.48
657.473,7254.5
657.554,7274.94
657.635,7333.88
657.716,7274.48
657.798,7189.38
657.879,7262.54
657.96,7338.14
658.041,7255.9
658.122,7190.26
658.203,7161.48
658.285,7179.34
658.366,7259.26
658.447,7236.5
658.528,7221.14
658.609,7273.8
658.69,7162.08
658.771,7203.22
658.852,7203.66
658.934,7165.74
659.015,7113.92
659.096,7165.08
659.177,7044.34
659.258,6903.74
659.339,6972.98
659.42,6959.36
659.501,6926.96
659.583,7011.64
659.664,7094.64
659.745,7051.6
659.826,6983.16
659.907,6924.46
659.988,6933.1
660.069,6942.56
660.15,6941.36
660.231,7045.94
660.312,6982.54
660.393,6883.2
660.475,6775.68
660.556,6822.66
660.637,6919.32
660.718,6906.92
660.799,6875.1
660.88,6736.18
660.961,6701.1
661.042,6767.74
