cm-1,A
4000.0,0.0095
3999.0,0.0096
3998.0,0.0096
3997.0,0.0097
3996.0,0.0097
3995.0,0.0096
3994.0,0.0096
3993.0,0.0096
3992.0,0.0097
3991.0,0.0097
3990.0,0.0098
3989.0,0.0098
3988.0,0.0098
3987.0,0.0097
3986.0,0.0096
3985.0,0.0095
3984.0,0.0095
3983.0,0.0096
3982.0,0.0097
3981.0,0.0098
3980.0,0.0098
3979.0,0.0098
3978.0,0.0098
3977.0,0.0097
3976.0,0.0096
3975.0,0.0096
3974.0,0.0097
3973.0,0.0098
3972.0,0.0098
3971.0,0.0098
3970.0,0.0098
3969.0,0.0098
3968.0,0.0098
3967.0,0.0098
3966.0,0.0098
3965.0,0.0098
3964.0,0.0098
3963.0,0.0097
3962.0,0.0097
3961.0,0.0097
3960.0,0.0098
3959.0,0.0098
3958.0,0.0098
3957.0,0.0098
3956.0,0.0098
3955.0,0.0098
3954.0,0.0098
3953.0,0.0098
3952.0,0.0098
3951.0,0.0098
3950.0,0.0098
3949.0,0.0098
3948.0,0.0099
3947.0,0.0099
3946.0,0.0099
3945.0,0.0099
3944.0,0.0099
3943.0,0.0099
3942.0,0.0099
3941.0,0.0098
3940.0,0.0098
3939.0,0.0098
3938.0,0.0098
3937.0,0.0098
3936.0,0.0099
3935.0,0.0099
3934.0,0.0098
3933.0,0.0098
3932.0,0.0098
3931.0,0.0099
3930.0,0.0099
3929.0,0.01
3928.0,0.01
3927.0,0.01
3926.0,0.01
3925.0,0.01
3924.0,0.0101
3923.0,0.0101
3922.0,0.01
3921.0,0.01
3920.0,0.01
3919.0,0.0101
3918.0,0.0102
3917.0,0.0102
3916.0,0.0102
3915.0,0.0101
3914.0,0.0101
3913.0,0.01
3912.0,0.0099
3911.0,0.0099
3910.0,0.0099
3909.0,0.0099
3908.0,0.0099
3907.0,0.01
3906.0,0.01
3905.0,0.0101
3904.0,0.0102
3903.0,0.0103
3902.0,0.0104
3901.0,0.0104
3900.0,0.0103
3899.0,0.0102
3898.0,0.0101
3897.0,0.0101
3896.0,0.0102
3895.0,0.0104
3894.0,0.0105
3893.0,0.0106
3892.0,0.0104
3891.0,0.0102
3890.0,0.01
3889.0,0.0101
3888.0,0.0101
3887.0,0.0101
3886.0,0.01
3885.0,0.0101
3884.0,0.0104
3883.0,0.0106
3882.0,0.0107
3881.0,0.0106
3880.0,0.0104
3879.0,0.0102
3878.0,0.0101
3877.0,0.0101
3876.0,0.0102
3875.0,0.0102
3874.0,0.0103
3873.0,0.0104
3872.0,0.0105
3871.0,0.0104
3870.0,0.0102
3869.0,0.0102
3868.0,0.0103
3867.0,0.0104
3866.0,0.0103
3865.0,0.0103
3864.0,0.0104
3863.0,0.0105
3862.0,0.0105
3861.0,0.0104
3860.0,0.0103
3859.0,0.0102
3858.0,0.0102
3857.0,0.0103
3856.0,0.0104
3855.0,0.0103
3854.0,0.0101
3853.0,0.01
3852.0,0.01
3851.0,0.0101
3850.0,0.0102
3849.0,0.0103
3848.0,0.0104
3847.0,0.0105
3846.0,0.0106
3845.0,0.0106
3844.0,0.0107
3843.0,0.0107
3842.0,0.0106
3841.0,0.0106
3840.0,0.0105
3839.0,0.0104
3838.0,0.0103
3837.0,0.0103
3836.0,0.0103
3835.0,0.0104
3834.0,0.0105
3833.0,0.0105
3832.0,0.0105
3831.0,0.0105
3830.0,0.0106
3829.0,0.0107
3828.0,0.0108
3827.0,0.0108
3826.0,0.0108
3825.0,0.0108
3824.0,0.0108
3823.0,0.0108
3822.0,0.0105
3821.0,0.0104
3820.0,0.0103
3819.0,0.0104
3818.0,0.0104
3817.0,0.0103
3816.0,0.0102
3815.0,0.0102
3814.0,0.0102
3813.0,0.0102
3812.0,0.0102
3811.0,0.0102
3810.0,0.0103
3809.0,0.0104
3808.0,0.0104
3807.0,0.0103
3806.0,0.0103
3805.0,0.0104
3804.0,0.0105
3803.0,0.0104
3802.0,0.0103
3801.0,0.0103
3800.0,0.0104
3799.0,0.0107
3798.0,0.0108
3797.0,0.0109
3796.0,0.0109
3795.0,0.0108
3794.0,0.0107
3793.0,0.0106
3792.0,0.0105
3791.0,0.0104
3790.0,0.0104
3789.0,0.0104
3788.0,0.0105
3787.0,0.0106
3786.0,0.0106
3785.0,0.0106
3784.0,0.0106
3783.0,0.0106
3782.0,0.0106
3781.0,0.0106
3780.0,0.0106
3779.0,0.0106
3778.0,0.0107
3777.0,0.0107
3776.0,0.0107
3775.0,0.0107
3774.0,0.0108
3773.0,0.0109
3772.0,0.0109
3771.0,0.0107
3770.0,0.0106
3769.0,0.0106
3768.0,0.0107
3767.0,0.0108
3766.0,0.0108
3765.0,0.0107
3764.0,0.0107
3763.0,0.0107
3762.0,0.0108
3761.0,0.0108
3760.0,0.011
3759.0,0.0112
3758.0,0.0112
3757.0,0.0111
3756.0,0.0109
3755.0,0.0107
3754.0,0.0104
3753.0,0.0101
3752.0,0.0101
3751.0,0.0104
3750.0,0.0105
3749.0,0.0104
3748.0,0.0105
3747.0,0.0106
3746.0,0.0106
3745.0,0.0104
3744.0,0.0105
3743.0,0.0107
3742.0,0.011
3741.0,0.0112
3740.0,0.0113
3739.0,0.0114
3738.0,0.0115
3737.0,0.0116
3736.0,0.0116
3735.0,0.0117
3734.0,0.0117
3733.0,0.0116
3732.0,0.0115
3731.0,0.0115
3730.0,0.0115
3729.0,0.0116
3728.0,0.0115
3727.0,0.0114
3726.0,0.0113
3725.0,0.0113
3724.0,0.0114
3723.0,0.0114
3722.0,0.0114
3721.0,0.0114
3720.0,0.0113
3719.0,0.0113
3718.0,0.0112
3717.0,0.011
3716.0,0.011
3715.0,0.0109
3714.0,0.0109
3713.0,0.011
3712.0,0.0113
3711.0,0.0115
3710.0,0.0115
3709.0,0.0113
3708.0,0.0111
3707.0,0.011
3706.0,0.011
3705.0,0.0111
3704.0,0.0111
3703.0,0.011
3702.0,0.0109
3701.0,0.0109
3700.0,0.0109
3699.0,0.0108
3698.0,0.0108
3697.0,0.0107
3696.0,0.0106
3695.0,0.0106
3694.0,0.0105
3693.0,0.0105
3692.0,0.0104
3691.0,0.0105
3690.0,0.0108
3689.0,0.011
3688.0,0.011
3687.0,0.0109
3686.0,0.0108
3685.0,0.0108
3684.0,0.0107
3683.0,0.0108
3682.0,0.0108
3681.0,0.0108
3680.0,0.0107
3679.0,0.0106
3678.0,0.0105
3677.0,0.0104
3676.0,0.0105
3675.0,0.0107
3674.0,0.0109
3673.0,0.0112
3672.0,0.0113
3671.0,0.0113
3670.0,0.0113
3669.0,0.0112
3668.0,0.011
3667.0,0.0108
3666.0,0.0107
3665.0,0.0106
3664.0,0.0107
3663.0,0.0108
3662.0,0.0109
3661.0,0.011
3660.0,0.011
3659.0,0.0111
3658.0,0.0113
3657.0,0.0114
3656.0,0.0115
3655.0,0.0117
3654.0,0.0119
3653.0,0.0121
3652.0,0.0123
3651.0,0.0125
3650.0,0.0127
3649.0,0.0129
3648.0,0.0128
3647.0,0.0127
3646.0,0.0126
3645.0,0.0125
3644.0,0.0125
3643.0,0.0125
3642.0,0.0126
3641.0,0.0127
3640.0,0.0128
3639.0,0.0128
3638.0,0.0128
3637.0,0.0128
3636.0,0.0128
3635.0,0.0128
3634.0,0.0128
3633.0,0.013
3632.0,0.0132
3631.0,0.0134
3630.0,0.0135
3629.0,0.0135
3628.0,0.0135
3627.0,0.0134
3626.0,0.0133
3625.0,0.0132
3624.0,0.0131
3623.0,0.0131
3622.0,0.0131
3621.0,0.0132
3620.0,0.0133
3619.0,0.0134
3618.0,0.0135
3617.0,0.0135
3616.0,0.0135
3615.0,0.0135
3614.0,0.0135
3613.0,0.0136
3612.0,0.0136
3611.0,0.0137
3610.0,0.0138
3609.0,0.0138
3608.0,0.0139
3607.0,0.0139
3606.0,0.0138
3605.0,0.0136
3604.0,0.0134
3603.0,0.0133
3602.0,0.0132
3601.0,0.0132
3600.0,0.0133
3599.0,0.0134
3598.0,0.0134
3597.0,0.0135
3596.0,0.0136
3595.0,0.0137
3594.0,0.0137
3593.0,0.0137
3592.0,0.0137
3591.0,0.0137
3590.0,0.0137
3589.0,0.0137
3588.0,0.0137
3587.0,0.0137
3586.0,0.0138
3585.0,0.0138
3584.0,0.0138
3583.0,0.0137
3582.0,0.0137
3581.0,0.0136
3580.0,0.0136
3579.0,0.0136
3578.0,0.0136
3577.0,0.0136
3576.0,0.0137
3575.0,0.0139
3574.0,0.014
3573.0,0.0141
3572.0,0.0142
3571.0,0.0143
3570.0,0.0145
3569.0,0.0148
3568.0,0.0151
3567.0,0.0153
3566.0,0.0152
3565.0,0.015
3564.0,0.0147
3563.0,0.0145
3562.0,0.0143
3561.0,0.0143
3560.0,0.0144
3559.0,0.0145
3558.0,0.0146
3557.0,0.0147
3556.0,0.0148
3555.0,0.0149
3554.0,0.0151
3553.0,0.0151
3552.0,0.0152
3551.0,0.0151
3550.0,0.0151
3549.0,0.015
3548.0,0.0151
3547.0,0.0151
3546.0,0.0152
3545.0,0.0153
3544.0,0.0153
3543.0,0.0153
3542.0,0.0152
3541.0,0.0152
3540.0,0.0151
3539.0,0.0151
3538.0,0.015
3537.0,0.0149
3536.0,0.0149
3535.0,0.015
3534.0,0.0151
3533.0,0.0151
3532.0,0.0152
3531.0,0.0152
3530.0,0.0152
3529.0,0.0152
3528.0,0.0152
3527.0,0.0152
3526.0,0.0154
3525.0,0.0154
3524.0,0.0155
3523.0,0.0154
3522.0,0.0153
3521.0,0.0151
3520.0,0.015
3519.0,0.0148
3518.0,0.0148
3517.0,0.0148
3516.0,0.0148
3515.0,0.0149
3514.0,0.0149
3513.0,0.015
3512.0,0.0151
3511.0,0.0151
3510.0,0.015
3509.0,0.0148
3508.0,0.0146
3507.0,0.0145
3506.0,0.0146
3505.0,0.0147
3504.0,0.0149
3503.0,0.0151
3502.0,0.0152
3501.0,0.0152
3500.0,0.0152
3499.0,0.0151
3498.0,0.0151
3497.0,0.015
3496.0,0.0149
3495.0,0.0149
3494.0,0.015
3493.0,0.015
3492.0,0.0151
3491.0,0.0152
3490.0,0.0152
3489.0,0.0152
3488.0,0.0152
3487.0,0.0151
3486.0,0.015
3485.0,0.0149
3484.0,0.0149
3483.0,0.0149
3482.0,0.0149
3481.0,0.015
3480.0,0.015
3479.0,0.0149
3478.0,0.0149
3477.0,0.0148
3476.0,0.0149
3475.0,0.015
3474.0,0.0151
3473.0,0.0152
3472.0,0.0152
3471.0,0.0152
3470.0,0.0153
3469.0,0.0153
3468.0,0.0154
3467.0,0.0154
3466.0,0.0153
3465.0,0.0153
3464.0,0.0154
3463.0,0.0156
3462.0,0.0157
3461.0,0.0159
3460.0,0.0159
3459.0,0.0159
3458.0,0.0159
3457.0,0.0159
3456.0,0.0159
3455.0,0.016
3454.0,0.0161
3453.0,0.0162
3452.0,0.0164
3451.0,0.0165
3450.0,0.0166
3449.0,0.0167
3448.0,0.0168
3447.0,0.0169
3446.0,0.0171
3445.0,0.0173
3444.0,0.0175
3443.0,0.0175
3442.0,0.0176
3441.0,0.0176
3440.0,0.0176
3439.0,0.0176
3438.0,0.0176
3437.0,0.0176
3436.0,0.0177
3435.0,0.0179
3434.0,0.0181
3433.0,0.0183
3432.0,0.0184
3431.0,0.0184
3430.0,0.0183
3429.0,0.0182
3428.0,0.0181
3427.0,0.0181
3426.0,0.018
3425.0,0.018
3424.0,0.018
3423.0,0.018
3422.0,0.0179
3421.0,0.0177
3420.0,0.0176
3419.0,0.0174
3418.0,0.0173
3417.0,0.0172
3416.0,0.0171
3415.0,0.017
3414.0,0.0169
3413.0,0.0168
3412.0,0.0167
3411.0,0.0165
3410.0,0.0164
3409.0,0.0164
3408.0,0.0164
3407.0,0.0164
3406.0,0.0164
3405.0,0.0164
3404.0,0.0163
3403.0,0.0162
3402.0,0.016
3401.0,0.016
3400.0,0.016
3399.0,0.016
3398.0,0.016
3397.0,0.016
3396.0,0.0159
3395.0,0.0158
3394.0,0.0158
3393.0,0.0158
3392.0,0.0158
3391.0,0.0157
3390.0,0.0157
3389.0,0.0158
3388.0,0.0159
3387.0,0.0161
3386.0,0.0162
3385.0,0.0162
3384.0,0.0161
3383.0,0.016
3382.0,0.0159
3381.0,0.0157
3380.0,0.0157
3379.0,0.0156
3378.0,0.0157
3377.0,0.0158
3376.0,0.0159
3375.0,0.0159
3374.0,0.0159
3373.0,0.0159
3372.0,0.0159
3371.0,0.0158
3370.0,0.0157
3369.0,0.0157
3368.0,0.0157
3367.0,0.0156
3366.0,0.0156
3365.0,0.0155
3364.0,0.0155
3363.0,0.0155
3362.0,0.0155
3361.0,0.0155
3360.0,0.0156
3359.0,0.0156
3358.0,0.0155
3357.0,0.0154
3356.0,0.0154
3355.0,0.0153
3354.0,0.0153
3353.0,0.0154
3352.0,0.0155
3351.0,0.0156
3350.0,0.0156
3349.0,0.0156
3348.0,0.0156
3347.0,0.0155
3346.0,0.0155
3345.0,0.0154
3344.0,0.0154
3343.0,0.0154
3342.0,0.0154
3341.0,0.0155
3340.0,0.0156
3339.0,0.0156
3338.0,0.0157
3337.0,0.0157
3336.0,0.0157
3335.0,0.0156
3334.0,0.0155
3333.0,0.0153
3332.0,0.0152
3331.0,0.015
3330.0,0.015
3329.0,0.0149
3328.0,0.015
3327.0,0.0151
3326.0,0.0152
3325.0,0.0152
3324.0,0.0153
3323.0,0.0152
3322.0,0.0151
3321.0,0.015
3320.0,0.015
3319.0,0.015
3318.0,0.0151
3317.0,0.0151
3316.0,0.015
3315.0,0.0149
3314.0,0.0149
3313.0,0.0149
3312.0,0.015
3311.0,0.0151
3310.0,0.0151
3309.0,0.015
3308.0,0.0149
3307.0,0.0148
3306.0,0.0147
3305.0,0.0148
3304.0,0.0148
3303.0,0.0148
3302.0,0.0148
3301.0,0.0147
3300.0,0.0147
3299.0,0.0147
3298.0,0.0147
3297.0,0.0147
3296.0,0.0148
3295.0,0.0149
3294.0,0.0149
3293.0,0.0149
3292.0,0.0148
3291.0,0.0147
3290.0,0.0146
3289.0,0.0144
3288.0,0.0144
3287.0,0.0143
3286.0,0.0144
3285.0,0.0144
3284.0,0.0144
3283.0,0.0145
3282.0,0.0146
3281.0,0.0147
3280.0,0.0147
3279.0,0.0147
3278.0,0.0147
3277.0,0.0146
3276.0,0.0146
3275.0,0.0146
3274.0,0.0146
3273.0,0.0145
3272.0,0.0145
3271.0,0.0144
3270.0,0.0144
3269.0,0.0143
3268.0,0.0143
3267.0,0.0143
3266.0,0.0143
3265.0,0.0142
3264.0,0.0142
3263.0,0.0141
3262.0,0.0141
3261.0,0.0142
3260.0,0.0142
3259.0,0.0142
3258.0,0.0142
3257.0,0.0141
3256.0,0.014
3255.0,0.014
3254.0,0.014
3253.0,0.014
3252.0,0.0141
3251.0,0.0141
3250.0,0.0141
3249.0,0.0141
3248.0,0.0141
3247.0,0.014
3246.0,0.014
3245.0,0.014
3244.0,0.014
3243.0,0.014
3242.0,0.014
3241.0,0.014
3240.0,0.0138
3239.0,0.0135
3238.0,0.0134
3237.0,0.0134
3236.0,0.0134
3235.0,0.0135
3234.0,0.0135
3233.0,0.0135
3232.0,0.0134
3231.0,0.0135
3230.0,0.0135
3229.0,0.0136
3228.0,0.0137
3227.0,0.0136
3226.0,0.0135
3225.0,0.0133
3224.0,0.0132
3223.0,0.0132
3222.0,0.0133
3221.0,0.0134
3220.0,0.0135
3219.0,0.0135
3218.0,0.0135
3217.0,0.0134
3216.0,0.0134
3215.0,0.0133
3214.0,0.0133
3213.0,0.0132
3212.0,0.0132
3211.0,0.0132
3210.0,0.0132
3209.0,0.0133
3208.0,0.0133
3207.0,0.0133
3206.0,0.0132
3205.0,0.0131
3204.0,0.013
3203.0,0.0131
3202.0,0.0131
3201.0,0.0131
3200.0,0.0131
3199.0,0.0131
3198.0,0.0131
3197.0,0.0131
3196.0,0.0131
3195.0,0.0131
3194.0,0.0131
3193.0,0.0131
3192.0,0.013
3191.0,0.0129
3190.0,0.0128
3189.0,0.0127
3188.0,0.0127
3187.0,0.0127
3186.0,0.0128
3185.0,0.0129
3184.0,0.0129
3183.0,0.0129
3182.0,0.0129
3181.0,0.0129
3180.0,0.0129
3179.0,0.0128
3178.0,0.0127
3177.0,0.0126
3176.0,0.0125
3175.0,0.0125
3174.0,0.0125
3173.0,0.0125
3172.0,0.0125
3171.0,0.0125
3170.0,0.0125
3169.0,0.0125
3168.0,0.0125
3167.0,0.0126
3166.0,0.0126
3165.0,0.0126
3164.0,0.0126
3163.0,0.0127
3162.0,0.0127
3161.0,0.0128
3160.0,0.0129
3159.0,0.013
3158.0,0.013
3157.0,0.0129
3156.0,0.0129
3155.0,0.0127
3154.0,0.0126
3153.0,0.0124
3152.0,0.0124
3151.0,0.0124
3150.0,0.0123
3149.0,0.0123
3148.0,0.0122
3147.0,0.0123
3146.0,0.0124
3145.0,0.0125
3144.0,0.0125
3143.0,0.0125
3142.0,0.0125
3141.0,0.0125
3140.0,0.0125
3139.0,0.0126
3138.0,0.0127
3137.0,0.0127
3136.0,0.0128
3135.0,0.0128
3134.0,0.0128
3133.0,0.0129
3132.0,0.0129
3131.0,0.0129
3130.0,0.0129
3129.0,0.0129
3128.0,0.0129
3127.0,0.0129
3126.0,0.0129
3125.0,0.0129
3124.0,0.0129
3123.0,0.0129
3122.0,0.0129
3121.0,0.0129
3120.0,0.0128
3119.0,0.0128
3118.0,0.0128
3117.0,0.0128
3116.0,0.0129
3115.0,0.0131
3114.0,0.0132
3113.0,0.0133
3112.0,0.0134
3111.0,0.0134
3110.0,0.0135
3109.0,0.0136
3108.0,0.0137
3107.0,0.0137
3106.0,0.0138
3105.0,0.0139
3104.0,0.014
3103.0,0.0141
3102.0,0.0142
3101.0,0.0141
3100.0,0.0139
3099.0,0.0137
3098.0,0.0136
3097.0,0.0135
3096.0,0.0135
3095.0,0.0134
3094.0,0.0133
3093.0,0.0133
3092.0,0.0133
3091.0,0.0134
3090.0,0.0135
3089.0,0.0136
3088.0,0.0138
3087.0,0.014
3086.0,0.0141
3085.0,0.0143
3084.0,0.0144
3083.0,0.0144
3082.0,0.0144
3081.0,0.0144
3080.0,0.0144
3079.0,0.0144
3078.0,0.0144
3077.0,0.0144
3076.0,0.0144
3075.0,0.0144
3074.0,0.0143
3073.0,0.0143
3072.0,0.0143
3071.0,0.0144
3070.0,0.0145
3069.0,0.0146
3068.0,0.0146
3067.0,0.0146
3066.0,0.0145
3065.0,0.0144
3064.0,0.0144
3063.0,0.0143
3062.0,0.0143
3061.0,0.0143
3060.0,0.0144
3059.0,0.0145
3058.0,0.0145
3057.0,0.0146
3056.0,0.0147
3055.0,0.0147
3054.0,0.0147
3053.0,0.0146
3052.0,0.0144
3051.0,0.0142
3050.0,0.0139
3049.0,0.0136
3048.0,0.0134
3047.0,0.0132
3046.0,0.013
3045.0,0.0129
3044.0,0.0127
3043.0,0.0126
3042.0,0.0124
3041.0,0.0122
3040.0,0.0121
3039.0,0.012
3038.0,0.0119
3037.0,0.0118
3036.0,0.0118
3035.0,0.0117
3034.0,0.0117
3033.0,0.0117
3032.0,0.0117
3031.0,0.0117
3030.0,0.0117
3029.0,0.0117
3028.0,0.0117
3027.0,0.0117
3026.0,0.0118
3025.0,0.0119
3024.0,0.0119
3023.0,0.012
3022.0,0.0121
3021.0,0.0122
3020.0,0.0124
3019.0,0.0125
3018.0,0.0126
3017.0,0.0127
3016.0,0.0128
3015.0,0.0129
3014.0,0.0131
3013.0,0.0133
3012.0,0.0135
3011.0,0.0137
3010.0,0.0139
3009.0,0.0141
3008.0,0.0142
3007.0,0.0143
3006.0,0.0145
3005.0,0.0146
3004.0,0.0147
3003.0,0.0149
3002.0,0.015
3001.0,0.0151
3000.0,0.0152
2999.0,0.0152
2998.0,0.0153
2997.0,0.0154
2996.0,0.0155
2995.0,0.0158
2994.0,0.0159
2993.0,0.016
2992.0,0.016
2991.0,0.0159
2990.0,0.0159
2989.0,0.016
2988.0,0.0164
2987.0,0.0168
2986.0,0.0172
2985.0,0.0176
2984.0,0.018
2983.0,0.0184
2982.0,0.0188
2981.0,0.0193
2980.0,0.0198
2979.0,0.0204
2978.0,0.0209
2977.0,0.0213
2976.0,0.0218
2975.0,0.0223
2974.0,0.0227
2973.0,0.023
2972.0,0.0234
2971.0,0.0237
2970.0,0.0241
2969.0,0.0244
2968.0,0.0246
2967.0,0.0248
2966.0,0.0249
2965.0,0.025
2964.0,0.0251
2963.0,0.0252
2962.0,0.0251
2961.0,0.0249
2960.0,0.0247
2959.0,0.0245
2958.0,0.0242
2957.0,0.024
2956.0,0.0237
2955.0,0.0233
2954.0,0.0228
2953.0,0.0223
2952.0,0.0219
2951.0,0.0215
2950.0,0.0211
2949.0,0.0206
2948.0,0.0203
2947.0,0.0199
2946.0,0.0195
2945.0,0.0192
2944.0,0.019
2943.0,0.0187
2942.0,0.0185
2941.0,0.0183
2940.0,0.0182
2939.0,0.0181
2938.0,0.0181
2937.0,0.0181
2936.0,0.0181
2935.0,0.0181
2934.0,0.0182
2933.0,0.0183
2932.0,0.0183
2931.0,0.0183
2930.0,0.0184
2929.0,0.0184
2928.0,0.0184
2927.0,0.0184
2926.0,0.0184
2925.0,0.0184
2924.0,0.0184
2923.0,0.0183
2922.0,0.0182
2921.0,0.0181
2920.0,0.018
2919.0,0.0179
2918.0,0.0178
2917.0,0.0178
2916.0,0.0177
2915.0,0.0177
2914.0,0.0177
2913.0,0.0177
2912.0,0.0178
2911.0,0.0179
2910.0,0.018
2909.0,0.0181
2908.0,0.0181
2907.0,0.0181
2906.0,0.0178
2905.0,0.0175
2904.0,0.0169
2903.0,0.0164
2902.0,0.0159
2901.0,0.0156
2900.0,0.0154
2899.0,0.0154
2898.0,0.0154
2897.0,0.0153
2896.0,0.0152
2895.0,0.0151
2894.0,0.015
2893.0,0.0148
2892.0,0.0147
2891.0,0.0146
2890.0,0.0146
2889.0,0.0145
2888.0,0.0145
2887.0,0.0144
2886.0,0.0142
2885.0,0.0141
2884.0,0.014
2883.0,0.0139
2882.0,0.0139
2881.0,0.0139
2880.0,0.0139
2879.0,0.0139
2878.0,0.0138
2877.0,0.0138
2876.0,0.0138
2875.0,0.0139
2874.0,0.014
2873.0,0.014
2872.0,0.014
2871.0,0.014
2870.0,0.014
2869.0,0.014
2868.0,0.014
2867.0,0.0141
2866.0,0.0142
2865.0,0.0143
2864.0,0.0144
2863.0,0.0146
2862.0,0.0148
2861.0,0.015
2860.0,0.0151
2859.0,0.0153
2858.0,0.0154
2857.0,0.0155
2856.0,0.0156
2855.0,0.0156
2854.0,0.0156
2853.0,0.0155
2852.0,0.0153
2851.0,0.0151
2850.0,0.0148
2849.0,0.0146
2848.0,0.0143
2847.0,0.0139
2846.0,0.0135
2845.0,0.0131
2844.0,0.0128
2843.0,0.0126
2842.0,0.0124
2841.0,0.0123
2840.0,0.0122
2839.0,0.0121
2838.0,0.0121
2837.0,0.012
2836.0,0.0119
2835.0,0.0118
2834.0,0.0118
2833.0,0.0118
2832.0,0.0118
2831.0,0.0117
2830.0,0.0116
2829.0,0.0114
2828.0,0.0114
2827.0,0.0114
2826.0,0.0114
2825.0,0.0114
2824.0,0.0114
2823.0,0.0114
2822.0,0.0114
2821.0,0.0114
2820.0,0.0114
2819.0,0.0113
2818.0,0.0113
2817.0,0.0113
2816.0,0.0113
2815.0,0.0114
2814.0,0.0114
2813.0,0.0114
2812.0,0.0114
2811.0,0.0114
2810.0,0.0114
2809.0,0.0114
2808.0,0.0114
2807.0,0.0114
2806.0,0.0114
2805.0,0.0113
2804.0,0.0113
2803.0,0.0112
2802.0,0.0111
2801.0,0.0111
2800.0,0.011
2799.0,0.011
2798.0,0.011
2797.0,0.011
2796.0,0.011
2795.0,0.011
2794.0,0.011
2793.0,0.0109
2792.0,0.0109
2791.0,0.0108
2790.0,0.0107
2789.0,0.0107
2788.0,0.0107
2787.0,0.0107
2786.0,0.0108
2785.0,0.0108
2784.0,0.0108
2783.0,0.0107
2782.0,0.0106
2781.0,0.0105
2780.0,0.0105
2779.0,0.0105
2778.0,0.0105
2777.0,0.0105
2776.0,0.0104
2775.0,0.0104
2774.0,0.0104
2773.0,0.0104
2772.0,0.0104
2771.0,0.0104
2770.0,0.0104
2769.0,0.0104
2768.0,0.0104
2767.0,0.0105
2766.0,0.0105
2765.0,0.0105
2764.0,0.0104
2763.0,0.0104
2762.0,0.0103
2761.0,0.0103
2760.0,0.0104
2759.0,0.0104
2758.0,0.0105
2757.0,0.0105
2756.0,0.0105
2755.0,0.0104
2754.0,0.0104
2753.0,0.0103
2752.0,0.0103
2751.0,0.0102
2750.0,0.0102
2749.0,0.0102
2748.0,0.0102
2747.0,0.0102
2746.0,0.0102
2745.0,0.0101
2744.0,0.0101
2743.0,0.0101
2742.0,0.0101
2741.0,0.0102
2740.0,0.0103
2739.0,0.0103
2738.0,0.0104
2737.0,0.0104
2736.0,0.0103
2735.0,0.0102
2734.0,0.0102
2733.0,0.0102
2732.0,0.0102
2731.0,0.0102
2730.0,0.0102
2729.0,0.0102
2728.0,0.0102
2727.0,0.0101
2726.0,0.0101
2725.0,0.0101
2724.0,0.0101
2723.0,0.01
2722.0,0.01
2721.0,0.0099
2720.0,0.0098
2719.0,0.0098
2718.0,0.0097
2717.0,0.0097
2716.0,0.0097
2715.0,0.0097
2714.0,0.0098
2713.0,0.0098
2712.0,0.0098
2711.0,0.0098
2710.0,0.0097
2709.0,0.0097
2708.0,0.0097
2707.0,0.0097
2706.0,0.0097
2705.0,0.0097
2704.0,0.0097
2703.0,0.0097
2702.0,0.0096
2701.0,0.0096
2700.0,0.0096
2699.0,0.0096
2698.0,0.0096
2697.0,0.0096
2696.0,0.0095
2695.0,0.0095
2694.0,0.0095
2693.0,0.0095
2692.0,0.0095
2691.0,0.0095
2690.0,0.0095
2689.0,0.0095
2688.0,0.0096
2687.0,0.0096
2686.0,0.0096
2685.0,0.0096
2684.0,0.0095
2683.0,0.0095
2682.0,0.0095
2681.0,0.0096
2680.0,0.0096
2679.0,0.0097
2678.0,0.0097
2677.0,0.0097
2676.0,0.0096
2675.0,0.0095
2674.0,0.0094
2673.0,0.0094
2672.0,0.0094
2671.0,0.0094
2670.0,0.0095
2669.0,0.0095
2668.0,0.0095
2667.0,0.0094
2666.0,0.0093
2665.0,0.0093
2664.0,0.0092
2663.0,0.0091
2662.0,0.009
2661.0,0.009
2660.0,0.009
2659.0,0.0091
2658.0,0.0091
2657.0,0.0091
2656.0,0.0091
2655.0,0.0091
2654.0,0.0092
2653.0,0.0092
2652.0,0.0093
2651.0,0.0093
2650.0,0.0093
2649.0,0.0092
2648.0,0.0092
2647.0,0.0092
2646.0,0.0092
2645.0,0.0091
2644.0,0.0091
2643.0,0.0091
2642.0,0.0091
2641.0,0.0091
2640.0,0.0091
2639.0,0.0092
2638.0,0.0092
2637.0,0.0092
2636.0,0.0093
2635.0,0.0094
2634.0,0.0094
2633.0,0.0094
2632.0,0.0093
2631.0,0.0092
2630.0,0.0092
2629.0,0.0092
2628.0,0.0092
2627.0,0.0092
2626.0,0.0093
2625.0,0.0093
2624.0,0.0092
2623.0,0.0093
2622.0,0.0093
2621.0,0.0093
2620.0,0.0093
2619.0,0.0092
2618.0,0.0092
2617.0,0.0091
2616.0,0.0091
2615.0,0.0092
2614.0,0.0093
2613.0,0.0093
2612.0,0.0093
2611.0,0.0093
2610.0,0.0093
2609.0,0.0093
2608.0,0.0093
2607.0,0.0093
2606.0,0.0093
2605.0,0.0093
2604.0,0.0093
2603.0,0.0092
2602.0,0.0092
2601.0,0.0092
2600.0,0.0093
2599.0,0.0093
2598.0,0.0094
2597.0,0.0094
2596.0,0.0093
2595.0,0.0092
2594.0,0.0092
2593.0,0.0092
2592.0,0.0092
2591.0,0.0092
2590.0,0.0093
2589.0,0.0094
2588.0,0.0095
2587.0,0.0095
2586.0,0.0095
2585.0,0.0095
2584.0,0.0094
2583.0,0.0095
2582.0,0.0095
2581.0,0.0095
2580.0,0.0094
2579.0,0.0094
2578.0,0.0094
2577.0,0.0094
2576.0,0.0094
2575.0,0.0094
2574.0,0.0095
2573.0,0.0096
2572.0,0.0096
2571.0,0.0095
2570.0,0.0094
2569.0,0.0093
2568.0,0.0092
2567.0,0.0092
2566.0,0.0092
2565.0,0.0092
2564.0,0.0093
2563.0,0.0093
2562.0,0.0094
2561.0,0.0095
2560.0,0.0095
2559.0,0.0095
2558.0,0.0095
2557.0,0.0095
2556.0,0.0094
2555.0,0.0093
2554.0,0.0093
2553.0,0.0092
2552.0,0.0093
2551.0,0.0093
2550.0,0.0093
2549.0,0.0093
2548.0,0.0092
2547.0,0.0092
2546.0,0.0092
2545.0,0.0092
2544.0,0.0092
2543.0,0.0093
2542.0,0.0092
2541.0,0.0092
2540.0,0.0091
2539.0,0.0091
2538.0,0.0091
2537.0,0.0091
2536.0,0.0092
2535.0,0.0092
2534.0,0.0091
2533.0,0.0091
2532.0,0.009
2531.0,0.009
2530.0,0.009
2529.0,0.009
2528.0,0.009
2527.0,0.009
2526.0,0.0091
2525.0,0.0091
2524.0,0.009
2523.0,0.009
2522.0,0.009
2521.0,0.0089
2520.0,0.0089
2519.0,0.0088
2518.0,0.0088
2517.0,0.0087
2516.0,0.0087
2515.0,0.0087
2514.0,0.0087
2513.0,0.0087
2512.0,0.0088
2511.0,0.0088
2510.0,0.0088
2509.0,0.0087
2508.0,0.0087
2507.0,0.0087
2506.0,0.0086
2505.0,0.0086
2504.0,0.0086
2503.0,0.0086
2502.0,0.0086
2501.0,0.0085
2500.0,0.0085
2499.0,0.0084
2498.0,0.0084
2497.0,0.0084
2496.0,0.0085
2495.0,0.0087
2494.0,0.0087
2493.0,0.0086
2492.0,0.0085
2491.0,0.0083
2490.0,0.0083
2489.0,0.0082
2488.0,0.0082
2487.0,0.0082
2486.0,0.0082
2485.0,0.0082
2484.0,0.0083
2483.0,0.0083
2482.0,0.0083
2481.0,0.0083
2480.0,0.0082
2479.0,0.0081
2478.0,0.0081
2477.0,0.0081
2476.0,0.0081
2475.0,0.008
2474.0,0.008
2473.0,0.0079
2472.0,0.0079
2471.0,0.0079
2470.0,0.008
2469.0,0.008
2468.0,0.0079
2467.0,0.0078
2466.0,0.0078
2465.0,0.0077
2464.0,0.0077
2463.0,0.0078
2462.0,0.0078
2461.0,0.0079
2460.0,0.0079
2459.0,0.0079
2458.0,0.0078
2457.0,0.0077
2456.0,0.0077
2455.0,0.0076
2454.0,0.0077
2453.0,0.0077
2452.0,0.0077
2451.0,0.0077
2450.0,0.0077
2449.0,0.0077
2448.0,0.0077
2447.0,0.0077
2446.0,0.0076
2445.0,0.0076
2444.0,0.0076
2443.0,0.0076
2442.0,0.0076
2441.0,0.0075
2440.0,0.0075
2439.0,0.0074
2438.0,0.0074
2437.0,0.0074
2436.0,0.0074
2435.0,0.0075
2434.0,0.0075
2433.0,0.0076
2432.0,0.0077
2431.0,0.0078
2430.0,0.0078
2429.0,0.0077
2428.0,0.0077
2427.0,0.0077
2426.0,0.0077
2425.0,0.0077
2424.0,0.0077
2423.0,0.0077
2422.0,0.0077
2421.0,0.0076
2420.0,0.0076
2419.0,0.0076
2418.0,0.0077
2417.0,0.0078
2416.0,0.0079
2415.0,0.0079
2414.0,0.0078
2413.0,0.0078
2412.0,0.0077
2411.0,0.0077
2410.0,0.0078
2409.0,0.0079
2408.0,0.008
2407.0,0.008
2406.0,0.008
2405.0,0.008
2404.0,0.008
2403.0,0.008
2402.0,0.008
2401.0,0.008
2400.0,0.008
2399.0,0.008
2398.0,0.008
2397.0,0.0079
2396.0,0.008
2395.0,0.0081
2394.0,0.0081
2393.0,0.0081
2392.0,0.0081
2391.0,0.0081
2390.0,0.0081
2389.0,0.0081
2388.0,0.0081
2387.0,0.0082
2386.0,0.0083
2385.0,0.0083
2384.0,0.0083
2383.0,0.0083
2382.0,0.0083
2381.0,0.0082
2380.0,0.0082
2379.0,0.0081
2378.0,0.0079
2377.0,0.0078
2376.0,0.0079
2375.0,0.0082
2374.0,0.0084
2373.0,0.0085
2372.0,0.0083
2371.0,0.0082
2370.0,0.0083
2369.0,0.0083
2368.0,0.0084
2367.0,0.0085
2366.0,0.0085
2365.0,0.008
2364.0,0.0073
2363.0,0.007
2362.0,0.0073
2361.0,0.0081
2360.0,0.0094
2359.0,0.0103
2358.0,0.0103
2357.0,0.0092
2356.0,0.0082
2355.0,0.0078
2354.0,0.0079
2353.0,0.008
2352.0,0.0079
2351.0,0.0077
2350.0,0.0075
2349.0,0.0073
2348.0,0.0072
2347.0,0.0073
2346.0,0.0076
2345.0,0.0079
2344.0,0.0082
2343.0,0.0086
2342.0,0.0086
2341.0,0.008
2340.0,0.0072
2339.0,0.0066
2338.0,0.0065
2337.0,0.0065
2336.0,0.0065
2335.0,0.0062
2334.0,0.0059
2333.0,0.0059
2332.0,0.0064
2331.0,0.0071
2330.0,0.0075
2329.0,0.0074
2328.0,0.0071
2327.0,0.0069
2326.0,0.0067
2325.0,0.0066
2324.0,0.0066
2323.0,0.0067
2322.0,0.0069
2321.0,0.007
2320.0,0.0072
2319.0,0.0074
2318.0,0.0075
2317.0,0.0075
2316.0,0.0074
2315.0,0.0074
2314.0,0.0074
2313.0,0.0075
2312.0,0.0076
2311.0,0.0076
2310.0,0.0076
2309.0,0.0076
2308.0,0.0075
2307.0,0.0074
2306.0,0.0072
2305.0,0.0072
2304.0,0.0072
2303.0,0.0072
2302.0,0.0072
2301.0,0.0072
2300.0,0.0072
2299.0,0.0072
2298.0,0.0073
2297.0,0.0073
2296.0,0.0073
2295.0,0.0074
2294.0,0.0075
2293.0,0.0075
2292.0,0.0074
2291.0,0.0073
2290.0,0.0072
2289.0,0.0071
2288.0,0.007
2287.0,0.0071
2286.0,0.0072
2285.0,0.0072
2284.0,0.0072
2283.0,0.0072
2282.0,0.007
2281.0,0.007
2280.0,0.0069
2279.0,0.0069
2278.0,0.0069
2277.0,0.0069
2276.0,0.0068
2275.0,0.0067
2274.0,0.0067
2273.0,0.0066
2272.0,0.0066
2271.0,0.0067
2270.0,0.0067
2269.0,0.0067
2268.0,0.0067
2267.0,0.0067
2266.0,0.0066
2265.0,0.0066
2264.0,0.0066
2263.0,0.0067
2262.0,0.0067
2261.0,0.0067
2260.0,0.0066
2259.0,0.0065
2258.0,0.0065
2257.0,0.0065
2256.0,0.0065
2255.0,0.0065
2254.0,0.0064
2253.0,0.0063
2252.0,0.0063
2251.0,0.0062
2250.0,0.0062
2249.0,0.0061
2248.0,0.0061
2247.0,0.0061
2246.0,0.0061
2245.0,0.0061
2244.0,0.0061
2243.0,0.006
2242.0,0.0059
2241.0,0.0059
2240.0,0.0059
2239.0,0.0059
2238.0,0.006
2237.0,0.0059
2236.0,0.0059
2235.0,0.0059
2234.0,0.0058
2233.0,0.0058
2232.0,0.0057
2231.0,0.0057
2230.0,0.0057
2229.0,0.0056
2228.0,0.0055
2227.0,0.0055
2226.0,0.0055
2225.0,0.0055
2224.0,0.0054
2223.0,0.0054
2222.0,0.0054
2221.0,0.0054
2220.0,0.0054
2219.0,0.0054
2218.0,0.0054
2217.0,0.0054
2216.0,0.0054
2215.0,0.0053
2214.0,0.0053
2213.0,0.0052
2212.0,0.0052
2211.0,0.0052
2210.0,0.0053
2209.0,0.0053
2208.0,0.0053
2207.0,0.0053
2206.0,0.0052
2205.0,0.0051
2204.0,0.0051
2203.0,0.005
2202.0,0.005
2201.0,0.0049
2200.0,0.0049
2199.0,0.0049
2198.0,0.0049
2197.0,0.0049
2196.0,0.0048
2195.0,0.0047
2194.0,0.0047
2193.0,0.0047
2192.0,0.0047
2191.0,0.0047
2190.0,0.0047
2189.0,0.0047
2188.0,0.0046
2187.0,0.0047
2186.0,0.0046
2185.0,0.0046
2184.0,0.0045
2183.0,0.0045
2182.0,0.0044
2181.0,0.0043
2180.0,0.0042
2179.0,0.0042
2178.0,0.0042
2177.0,0.0043
2176.0,0.0043
2175.0,0.0044
2174.0,0.0044
2173.0,0.0044
2172.0,0.0043
2171.0,0.0042
2170.0,0.0042
2169.0,0.0042
2168.0,0.0043
2167.0,0.0043
2166.0,0.0044
2165.0,0.0044
2164.0,0.0044
2163.0,0.0045
2162.0,0.0045
2161.0,0.0045
2160.0,0.0045
2159.0,0.0046
2158.0,0.0046
2157.0,0.0046
2156.0,0.0045
2155.0,0.0045
2154.0,0.0044
2153.0,0.0045
2152.0,0.0045
2151.0,0.0046
2150.0,0.0046
2149.0,0.0047
2148.0,0.0047
2147.0,0.0047
2146.0,0.0047
2145.0,0.0046
2144.0,0.0046
2143.0,0.0046
2142.0,0.0046
2141.0,0.0047
2140.0,0.0047
2139.0,0.0048
2138.0,0.0048
2137.0,0.0048
2136.0,0.0047
2135.0,0.0047
2134.0,0.0048
2133.0,0.0048
2132.0,0.0047
2131.0,0.0047
2130.0,0.0048
2129.0,0.0048
2128.0,0.0049
2127.0,0.0049
2126.0,0.0049
2125.0,0.0048
2124.0,0.0048
2123.0,0.0048
2122.0,0.0048
2121.0,0.0048
2120.0,0.0049
2119.0,0.0049
2118.0,0.0049
2117.0,0.0049
2116.0,0.0049
2115.0,0.0049
2114.0,0.0049
2113.0,0.0049
2112.0,0.0049
2111.0,0.0049
2110.0,0.0049
2109.0,0.005
2108.0,0.005
2107.0,0.005
2106.0,0.005
2105.0,0.005
2104.0,0.005
2103.0,0.0049
2102.0,0.0049
2101.0,0.0048
2100.0,0.0048
2099.0,0.0048
2098.0,0.0048
2097.0,0.0048
2096.0,0.0048
2095.0,0.0047
2094.0,0.0047
2093.0,0.0046
2092.0,0.0045
2091.0,0.0045
2090.0,0.0045
2089.0,0.0045
2088.0,0.0045
2087.0,0.0045
2086.0,0.0045
2085.0,0.0044
2084.0,0.0043
2083.0,0.0043
2082.0,0.0043
2081.0,0.0043
2080.0,0.0042
2079.0,0.0042
2078.0,0.0042
2077.0,0.0042
2076.0,0.0041
2075.0,0.0041
2074.0,0.004
2073.0,0.0039
2072.0,0.0038
2071.0,0.0038
2070.0,0.0037
2069.0,0.0036
2068.0,0.0035
2067.0,0.0034
2066.0,0.0034
2065.0,0.0033
2064.0,0.0033
2063.0,0.0034
2062.0,0.0034
2061.0,0.0033
2060.0,0.0032
2059.0,0.0031
2058.0,0.003
2057.0,0.003
2056.0,0.0029
2055.0,0.0029
2054.0,0.0028
2053.0,0.0027
2052.0,0.0026
2051.0,0.0026
2050.0,0.0025
2049.0,0.0025
2048.0,0.0025
2047.0,0.0025
2046.0,0.0025
2045.0,0.0025
2044.0,0.0024
2043.0,0.0023
2042.0,0.0023
2041.0,0.0023
2040.0,0.0023
2039.0,0.0023
2038.0,0.0023
2037.0,0.0023
2036.0,0.0022
2035.0,0.0022
2034.0,0.0022
2033.0,0.0021
2032.0,0.0021
2031.0,0.0021
2030.0,0.0021
2029.0,0.0021
2028.0,0.002
2027.0,0.002
2026.0,0.0019
2025.0,0.0018
2024.0,0.0018
2023.0,0.0018
2022.0,0.0018
2021.0,0.0017
2020.0,0.0017
2019.0,0.0017
2018.0,0.0017
2017.0,0.0017
2016.0,0.0018
2015.0,0.0018
2014.0,0.0018
2013.0,0.0019
2012.0,0.0019
2011.0,0.002
2010.0,0.002
2009.0,0.0019
2008.0,0.0019
2007.0,0.0019
2006.0,0.0019
2005.0,0.0019
2004.0,0.0019
2003.0,0.0019
2002.0,0.0019
2001.0,0.0019
2000.0,0.002
1999.0,0.002
1998.0,0.0021
1997.0,0.0021
1996.0,0.0022
1995.0,0.0022
1994.0,0.0023
1993.0,0.0023
1992.0,0.0024
1991.0,0.0024
1990.0,0.0024
1989.0,0.0024
1988.0,0.0024
1987.0,0.0025
1986.0,0.0025
1985.0,0.0025
1984.0,0.0025
1983.0,0.0025
1982.0,0.0025
1981.0,0.0025
1980.0,0.0025
1979.0,0.0025
1978.0,0.0026
1977.0,0.0027
1976.0,0.0028
1975.0,0.0029
1974.0,0.003
1973.0,0.0031
1972.0,0.0031
1971.0,0.0032
1970.0,0.0033
1969.0,0.0034
1968.0,0.0034
1967.0,0.0035
1966.0,0.0036
1965.0,0.0037
1964.0,0.0039
1963.0,0.0041
1962.0,0.0042
1961.0,0.0043
1960.0,0.0044
1959.0,0.0045
1958.0,0.0046
1957.0,0.0047
1956.0,0.0048
1955.0,0.0048
1954.0,0.0048
1953.0,0.0047
1952.0,0.0047
1951.0,0.0047
1950.0,0.0046
1949.0,0.0046
1948.0,0.0045
1947.0,0.0043
1946.0,0.0042
1945.0,0.0041
1944.0,0.0039
1943.0,0.0037
1942.0,0.0035
1941.0,0.0033
1940.0,0.003
1939.0,0.0029
1938.0,0.0027
1937.0,0.0024
1936.0,0.0022
1935.0,0.0021
1934.0,0.0019
1933.0,0.0018
1932.0,0.0016
1931.0,0.0015
1930.0,0.0014
1929.0,0.0012
1928.0,0.001
1927.0,0.001
1926.0,0.0009
1925.0,0.0008
1924.0,0.0007
1923.0,0.0006
1922.0,0.0006
1921.0,0.0005
1920.0,0.0003
1919.0,0.0002
1918.0,0.0001
1917.0,-0.0001
1916.0,-0.0002
1915.0,-0.0003
1914.0,-0.0004
1913.0,-0.0005
1912.0,-0.0006
1911.0,-0.0007
1910.0,-0.0007
1909.0,-0.0009
1908.0,-0.001
1907.0,-0.001
1906.0,-0.001
1905.0,-0.0011
1904.0,-0.0012
1903.0,-0.0013
1902.0,-0.0014
1901.0,-0.0014
1900.0,-0.0015
1899.0,-0.0015
1898.0,-0.0016
1897.0,-0.0017
1896.0,-0.0018
1895.0,-0.0019
1894.0,-0.002
1893.0,-0.002
1892.0,-0.0021
1891.0,-0.0022
1890.0,-0.0023
1889.0,-0.0024
1888.0,-0.0026
1887.0,-0.0027
1886.0,-0.0027
1885.0,-0.0027
1884.0,-0.0028
1883.0,-0.0028
1882.0,-0.0029
1881.0,-0.003
1880.0,-0.0032
1879.0,-0.0033
1878.0,-0.0033
1877.0,-0.0034
1876.0,-0.0035
1875.0,-0.0035
1874.0,-0.0035
1873.0,-0.0035
1872.0,-0.0035
1871.0,-0.0035
1870.0,-0.0035
1869.0,-0.0036
1868.0,-0.0037
1867.0,-0.0037
1866.0,-0.0038
1865.0,-0.0038
1864.0,-0.0039
1863.0,-0.0039
1862.0,-0.0038
1861.0,-0.0038
1860.0,-0.0038
1859.0,-0.0039
1858.0,-0.0039
1857.0,-0.0039
1856.0,-0.0039
1855.0,-0.0039
1854.0,-0.0038
1853.0,-0.0038
1852.0,-0.0038
1851.0,-0.0038
1850.0,-0.0037
1849.0,-0.0036
1848.0,-0.0035
1847.0,-0.0033
1846.0,-0.0031
1845.0,-0.0032
1844.0,-0.0033
1843.0,-0.0033
1842.0,-0.0032
1841.0,-0.0031
1840.0,-0.003
1839.0,-0.0029
1838.0,-0.0029
1837.0,-0.0028
1836.0,-0.0028
1835.0,-0.0028
1834.0,-0.0026
1833.0,-0.0025
1832.0,-0.0025
1831.0,-0.0023
1830.0,-0.0023
1829.0,-0.0024
1828.0,-0.0024
1827.0,-0.0023
1826.0,-0.0023
1825.0,-0.0023
1824.0,-0.0024
1823.0,-0.0024
1822.0,-0.0023
1821.0,-0.0023
1820.0,-0.0024
1819.0,-0.0024
1818.0,-0.0025
1817.0,-0.0026
1816.0,-0.0026
1815.0,-0.0026
1814.0,-0.0026
1813.0,-0.0027
1812.0,-0.0028
1811.0,-0.0029
1810.0,-0.003
1809.0,-0.0032
1808.0,-0.0034
1807.0,-0.0035
1806.0,-0.0035
1805.0,-0.0036
1804.0,-0.0037
1803.0,-0.0037
1802.0,-0.0038
1801.0,-0.004
1800.0,-0.0042
1799.0,-0.0044
1798.0,-0.0045
1797.0,-0.0047
1796.0,-0.0048
1795.0,-0.0047
1794.0,-0.0047
1793.0,-0.0049
1792.0,-0.0052
1791.0,-0.0055
1790.0,-0.0055
1789.0,-0.0056
1788.0,-0.0057
1787.0,-0.0056
1786.0,-0.0057
1785.0,-0.0059
1784.0,-0.0061
1783.0,-0.0062
1782.0,-0.0061
1781.0,-0.0062
1780.0,-0.0064
1779.0,-0.0064
1778.0,-0.0063
1777.0,-0.0064
1776.0,-0.0065
1775.0,-0.0063
1774.0,-0.0061
1773.0,-0.0063
1772.0,-0.0065
1771.0,-0.0065
1770.0,-0.0064
1769.0,-0.0064
1768.0,-0.0064
1767.0,-0.0062
1766.0,-0.0058
1765.0,-0.0055
1764.0,-0.0052
1763.0,-0.0046
1762.0,-0.004
1761.0,-0.0036
1760.0,-0.0031
1759.0,-0.0022
1758.0,-0.0011
1757.0,-0.0001
1756.0,0.0011
1755.0,0.0025
1754.0,0.004
1753.0,0.0057
1752.0,0.0079
1751.0,0.0114
1750.0,0.0156
1749.0,0.0202
1748.0,0.0253
1747.0,0.0311
1746.0,0.0375
1745.0,0.0446
1744.0,0.0531
1743.0,0.0625
1742.0,0.0723
1741.0,0.0832
1740.0,0.0964
1739.0,0.11
1738.0,0.1206
1737.0,0.1282
1736.0,0.1367
1735.0,0.153
1734.0,0.1774
1733.0,0.1978
1732.0,0.212
1731.0,0.2265
1730.0,0.244
1729.0,0.2626
1728.0,0.2805
1727.0,0.298
1726.0,0.3166
1725.0,0.3374
1724.0,0.3609
1723.0,0.3851
1722.0,0.4062
1721.0,0.4219
1720.0,0.4353
1719.0,0.4547
1718.0,0.4857
1717.0,0.5141
1716.0,0.5241
1715.0,0.5205
1714.0,0.5085
1713.0,0.4877
1712.0,0.4595
1711.0,0.4274
1710.0,0.3946
1709.0,0.3631
1708.0,0.3327
1707.0,0.3017
1706.0,0.2708
1705.0,0.2451
1704.0,0.227
1703.0,0.2133
1702.0,0.1995
1701.0,0.183
1700.0,0.167
1699.0,0.1559
1698.0,0.1483
1697.0,0.1411
1696.0,0.1335
1695.0,0.1269
1694.0,0.1222
1693.0,0.1188
1692.0,0.1155
1691.0,0.1117
1690.0,0.108
1689.0,0.1052
1688.0,0.1029
1687.0,0.1003
1686.0,0.0974
1685.0,0.0949
1684.0,0.0933
1683.0,0.0915
1682.0,0.0893
1681.0,0.0871
1680.0,0.0849
1679.0,0.0827
1678.0,0.0806
1677.0,0.0786
1676.0,0.0765
1675.0,0.0743
1674.0,0.0724
1673.0,0.0708
1672.0,0.0694
1671.0,0.0676
1670.0,0.0657
1669.0,0.064
1668.0,0.0624
1667.0,0.0608
1666.0,0.0592
1665.0,0.0578
1664.0,0.0562
1663.0,0.0545
1662.0,0.0529
1661.0,0.0517
1660.0,0.0505
1659.0,0.0493
1658.0,0.0482
1657.0,0.0471
1656.0,0.0461
1655.0,0.0448
1654.0,0.0437
1653.0,0.0434
1652.0,0.043
1651.0,0.0424
1650.0,0.042
1649.0,0.0416
1648.0,0.041
1647.0,0.0406
1646.0,0.0401
1645.0,0.0396
1644.0,0.039
1643.0,0.0383
1642.0,0.0377
1641.0,0.0372
1640.0,0.0368
1639.0,0.0362
1638.0,0.0355
1637.0,0.0351
1636.0,0.035
1635.0,0.0346
1634.0,0.034
1633.0,0.0335
1632.0,0.0331
1631.0,0.0326
1630.0,0.0321
1629.0,0.0318
1628.0,0.0315
1627.0,0.0311
1626.0,0.0306
1625.0,0.0304
1624.0,0.0302
1623.0,0.0301
1622.0,0.03
1621.0,0.03
1620.0,0.03
1619.0,0.0299
1618.0,0.0302
1617.0,0.0312
1616.0,0.0323
1615.0,0.0328
1614.0,0.0328
1613.0,0.0326
1612.0,0.0323
1611.0,0.0317
1610.0,0.0309
1609.0,0.0302
1608.0,0.0294
1607.0,0.0285
1606.0,0.0276
1605.0,0.0268
1604.0,0.0261
1603.0,0.0253
1602.0,0.0246
1601.0,0.024
1600.0,0.0235
1599.0,0.0229
1598.0,0.0223
1597.0,0.0219
1596.0,0.0216
1595.0,0.0214
1594.0,0.0212
1593.0,0.0211
1592.0,0.021
1591.0,0.021
1590.0,0.021
1589.0,0.0211
1588.0,0.0213
1587.0,0.0217
1586.0,0.0222
1585.0,0.0231
1584.0,0.0244
1583.0,0.0259
1582.0,0.0277
1581.0,0.0295
1580.0,0.0309
1579.0,0.0316
1578.0,0.0317
1577.0,0.031
1576.0,0.0297
1575.0,0.0283
1574.0,0.0271
1573.0,0.0261
1572.0,0.025
1571.0,0.0238
1570.0,0.0224
1569.0,0.0213
1568.0,0.0205
1567.0,0.0199
1566.0,0.0193
1565.0,0.0188
1564.0,0.0183
1563.0,0.0179
1562.0,0.0174
1561.0,0.0171
1560.0,0.0168
1559.0,0.0167
1558.0,0.0164
1557.0,0.0159
1556.0,0.0156
1555.0,0.0153
1554.0,0.0151
1553.0,0.0149
1552.0,0.0147
1551.0,0.0145
1550.0,0.0142
1549.0,0.0139
1548.0,0.0137
1547.0,0.0135
1546.0,0.0132
1545.0,0.013
1544.0,0.0128
1543.0,0.0125
1542.0,0.0121
1541.0,0.0119
1540.0,0.0119
1539.0,0.0116
1538.0,0.0114
1537.0,0.0116
1536.0,0.0118
1535.0,0.0119
1534.0,0.0122
1533.0,0.0126
1532.0,0.0127
1531.0,0.0128
1530.0,0.0128
1529.0,0.0129
1528.0,0.0129
1527.0,0.0127
1526.0,0.0126
1525.0,0.0125
1524.0,0.0124
1523.0,0.0121
1522.0,0.0117
1521.0,0.0114
1520.0,0.0112
1519.0,0.011
1518.0,0.0108
1517.0,0.0108
1516.0,0.0108
1515.0,0.0109
1514.0,0.0112
1513.0,0.012
1512.0,0.0131
1511.0,0.0146
1510.0,0.0164
1509.0,0.0193
1508.0,0.0259
1507.0,0.0365
1506.0,0.043
1505.0,0.0429
1504.0,0.0402
1503.0,0.0361
1502.0,0.0315
1501.0,0.0269
1500.0,0.0226
1499.0,0.0189
1498.0,0.0157
1497.0,0.0133
1496.0,0.0117
1495.0,0.0107
1494.0,0.0101
1493.0,0.0099
1492.0,0.0099
1491.0,0.0099
1490.0,0.0101
1489.0,0.0108
1488.0,0.0118
1487.0,0.0128
1486.0,0.0139
1485.0,0.0151
1484.0,0.0165
1483.0,0.018
1482.0,0.0197
1481.0,0.0216
1480.0,0.0233
1479.0,0.0246
1478.0,0.0257
1477.0,0.0269
1476.0,0.0279
1475.0,0.0287
1474.0,0.0292
1473.0,0.0299
1472.0,0.0305
1471.0,0.0305
1470.0,0.0303
1469.0,0.0302
1468.0,0.0301
1467.0,0.0302
1466.0,0.0307
1465.0,0.0317
1464.0,0.0329
1463.0,0.0338
1462.0,0.0345
1461.0,0.0352
1460.0,0.0358
1459.0,0.0364
1458.0,0.0373
1457.0,0.0385
1456.0,0.0391
1455.0,0.039
1454.0,0.0388
1453.0,0.0385
1452.0,0.0379
1451.0,0.0371
1450.0,0.0362
1449.0,0.0353
1448.0,0.0344
1447.0,0.0336
1446.0,0.0329
1445.0,0.0323
1444.0,0.0318
1443.0,0.0313
1442.0,0.0307
1441.0,0.0302
1440.0,0.0296
1439.0,0.0288
1438.0,0.0277
1437.0,0.0261
1436.0,0.0243
1435.0,0.0226
1434.0,0.0212
1433.0,0.0197
1432.0,0.0181
1431.0,0.0164
1430.0,0.0148
1429.0,0.0134
1428.0,0.0124
1427.0,0.0116
1426.0,0.0111
1425.0,0.0109
1424.0,0.0111
1423.0,0.0116
1422.0,0.0123
1421.0,0.0136
1420.0,0.0164
1419.0,0.0212
1418.0,0.0274
1417.0,0.0344
1416.0,0.0425
1415.0,0.0523
1414.0,0.0639
1413.0,0.0774
1412.0,0.0919
1411.0,0.105
1410.0,0.1145
1409.0,0.1195
1408.0,0.1197
1407.0,0.1149
1406.0,0.1061
1405.0,0.095
1404.0,0.0843
1403.0,0.0752
1402.0,0.0679
1401.0,0.0615
1400.0,0.0553
1399.0,0.0496
1398.0,0.045
1397.0,0.0415
1396.0,0.0384
1395.0,0.0355
1394.0,0.033
1393.0,0.0313
1392.0,0.0302
1391.0,0.0294
1390.0,0.0286
1389.0,0.0279
1388.0,0.0274
1387.0,0.0272
1386.0,0.0272
1385.0,0.0274
1384.0,0.0277
1383.0,0.0281
1382.0,0.0285
1381.0,0.0291
1380.0,0.0299
1379.0,0.0306
1378.0,0.0314
1377.0,0.0322
1376.0,0.0331
1375.0,0.0341
1374.0,0.035
1373.0,0.0357
1372.0,0.036
1371.0,0.036
1370.0,0.0354
1369.0,0.0344
1368.0,0.033
1367.0,0.0311
1366.0,0.0291
1365.0,0.0269
1364.0,0.0246
1363.0,0.0223
1362.0,0.0204
1361.0,0.0192
1360.0,0.0185
1359.0,0.0181
1358.0,0.018
1357.0,0.0183
1356.0,0.0189
1355.0,0.0199
1354.0,0.0213
1353.0,0.0232
1352.0,0.0257
1351.0,0.0288
1350.0,0.0329
1349.0,0.038
1348.0,0.0443
1347.0,0.0518
1346.0,0.0607
1345.0,0.0711
1344.0,0.0824
1343.0,0.0939
1342.0,0.1051
1341.0,0.1157
1340.0,0.1245
1339.0,0.1293
1338.0,0.1287
1337.0,0.123
1336.0,0.1136
1335.0,0.1016
1334.0,0.088
1333.0,0.0743
1332.0,0.0616
1331.0,0.0507
1330.0,0.042
1329.0,0.0355
1328.0,0.0308
1327.0,0.0278
1326.0,0.026
1325.0,0.0252
1324.0,0.025
1323.0,0.0253
1322.0,0.026
1321.0,0.027
1320.0,0.0281
1319.0,0.0294
1318.0,0.0308
1317.0,0.0323
1316.0,0.0338
1315.0,0.0356
1314.0,0.0376
1313.0,0.0399
1312.0,0.0424
1311.0,0.0449
1310.0,0.0476
1309.0,0.0503
1308.0,0.0531
1307.0,0.0559
1306.0,0.0585
1305.0,0.0612
1304.0,0.064
1303.0,0.067
1302.0,0.0706
1301.0,0.0747
1300.0,0.0794
1299.0,0.0846
1298.0,0.0902
1297.0,0.0961
1296.0,0.1023
1295.0,0.1085
1294.0,0.1146
1293.0,0.1206
1292.0,0.1265
1291.0,0.1322
1290.0,0.1376
1289.0,0.143
1288.0,0.1484
1287.0,0.1535
1286.0,0.1582
1285.0,0.1628
1284.0,0.1674
1283.0,0.1718
1282.0,0.1761
1281.0,0.1805
1280.0,0.1851
1279.0,0.1898
1278.0,0.1948
1277.0,0.2004
1276.0,0.2069
1275.0,0.2142
1274.0,0.2226
1273.0,0.2325
1272.0,0.2442
1271.0,0.2572
1270.0,0.2713
1269.0,0.2864
1268.0,0.3026
1267.0,0.3191
1266.0,0.3357
1265.0,0.3522
1264.0,0.3681
1263.0,0.3827
1262.0,0.3953
1261.0,0.4063
1260.0,0.4156
1259.0,0.4227
1258.0,0.4282
1257.0,0.4334
1256.0,0.4392
1255.0,0.4459
1254.0,0.4536
1253.0,0.4633
1252.0,0.4752
1251.0,0.4884
1250.0,0.5024
1249.0,0.5174
1248.0,0.5328
1247.0,0.5472
1246.0,0.5591
1245.0,0.5683
1244.0,0.5741
1243.0,0.5748
1242.0,0.5698
1241.0,0.5601
1240.0,0.5463
1239.0,0.5283
1238.0,0.5069
1237.0,0.484
1236.0,0.4607
1235.0,0.4374
1234.0,0.4147
1233.0,0.3933
1232.0,0.3736
1231.0,0.355
1230.0,0.3377
1229.0,0.3218
1228.0,0.3073
1227.0,0.2936
1226.0,0.2807
1225.0,0.2686
1224.0,0.2574
1223.0,0.2467
1222.0,0.2364
1221.0,0.2265
1220.0,0.217
1219.0,0.2077
1218.0,0.1987
1217.0,0.19
1216.0,0.1817
1215.0,0.1738
1214.0,0.1663
1213.0,0.1593
1212.0,0.1529
1211.0,0.1469
1210.0,0.1414
1209.0,0.1363
1208.0,0.1315
1207.0,0.1269
1206.0,0.1226
1205.0,0.1184
1204.0,0.1145
1203.0,0.1108
1202.0,0.1072
1201.0,0.1038
1200.0,0.1006
1199.0,0.0974
1198.0,0.0942
1197.0,0.0912
1196.0,0.0883
1195.0,0.0856
1194.0,0.0829
1193.0,0.0805
1192.0,0.0781
1191.0,0.076
1190.0,0.074
1189.0,0.0722
1188.0,0.0707
1187.0,0.0696
1186.0,0.0688
1185.0,0.0683
1184.0,0.0683
1183.0,0.0687
1182.0,0.0694
1181.0,0.0704
1180.0,0.0717
1179.0,0.073
1178.0,0.0743
1177.0,0.0756
1176.0,0.0766
1175.0,0.0771
1174.0,0.0768
1173.0,0.0758
1172.0,0.0739
1171.0,0.0713
1170.0,0.0684
1169.0,0.0653
1168.0,0.0625
1167.0,0.06
1166.0,0.058
1165.0,0.0566
1164.0,0.0557
1163.0,0.0552
1162.0,0.055
1161.0,0.055
1160.0,0.0552
1159.0,0.0554
1158.0,0.0559
1157.0,0.0564
1156.0,0.0573
1155.0,0.0584
1154.0,0.0598
1153.0,0.0616
1152.0,0.0638
1151.0,0.0662
1150.0,0.0688
1149.0,0.0718
1148.0,0.0751
1147.0,0.0788
1146.0,0.0827
1145.0,0.087
1144.0,0.0917
1143.0,0.0967
1142.0,0.102
1141.0,0.1077
1140.0,0.1138
1139.0,0.1201
1138.0,0.1269
1137.0,0.1342
1136.0,0.1423
1135.0,0.151
1134.0,0.1604
1133.0,0.1707
1132.0,0.1818
1131.0,0.1934
1130.0,0.2054
1129.0,0.218
1128.0,0.231
1127.0,0.2443
1126.0,0.2576
1125.0,0.2711
1124.0,0.2846
1123.0,0.2976
1122.0,0.3098
1121.0,0.3208
1120.0,0.3303
1119.0,0.3374
1118.0,0.3417
1117.0,0.3431
1116.0,0.342
1115.0,0.3388
1114.0,0.3346
1113.0,0.3313
1112.0,0.3306
1111.0,0.3332
1110.0,0.3395
1109.0,0.3499
1108.0,0.3639
1107.0,0.38
1106.0,0.3973
1105.0,0.4151
1104.0,0.4328
1103.0,0.4488
1102.0,0.4626
1101.0,0.4742
1100.0,0.4835
1099.0,0.4899
1098.0,0.4929
1097.0,0.493
1096.0,0.4904
1095.0,0.4846
1094.0,0.4758
1093.0,0.4654
1092.0,0.4537
1091.0,0.4409
1090.0,0.4272
1089.0,0.4137
1088.0,0.4008
1087.0,0.3881
1086.0,0.3755
1085.0,0.3632
1084.0,0.3512
1083.0,0.3387
1082.0,0.3256
1081.0,0.3122
1080.0,0.2985
1079.0,0.2845
1078.0,0.2703
1077.0,0.2565
1076.0,0.2433
1075.0,0.2308
1074.0,0.219
1073.0,0.2084
1072.0,0.1988
1071.0,0.1901
1070.0,0.1821
1069.0,0.1747
1068.0,0.168
1067.0,0.1617
1066.0,0.1561
1065.0,0.1513
1064.0,0.1471
1063.0,0.1433
1062.0,0.1396
1061.0,0.1362
1060.0,0.1331
1059.0,0.1303
1058.0,0.128
1057.0,0.1263
1056.0,0.1252
1055.0,0.1245
1054.0,0.124
1053.0,0.1239
1052.0,0.1241
1051.0,0.1246
1050.0,0.1252
1049.0,0.126
1048.0,0.1267
1047.0,0.1273
1046.0,0.1275
1045.0,0.1276
1044.0,0.1276
1043.0,0.1271
1042.0,0.1262
1041.0,0.1251
1040.0,0.1236
1039.0,0.1217
1038.0,0.1197
1037.0,0.1175
1036.0,0.1155
1035.0,0.1135
1034.0,0.1116
1033.0,0.1097
1032.0,0.108
1031.0,0.1066
1030.0,0.1057
1029.0,0.1061
1028.0,0.1087
1027.0,0.1143
1026.0,0.1236
1025.0,0.1371
1024.0,0.1546
1023.0,0.1759
1022.0,0.2002
1021.0,0.2266
1020.0,0.2524
1019.0,0.2738
1018.0,0.2863
1017.0,0.2868
1016.0,0.2752
1015.0,0.2544
1014.0,0.2295
1013.0,0.2051
1012.0,0.1839
1011.0,0.1668
1010.0,0.1534
1009.0,0.1429
1008.0,0.1345
1007.0,0.1278
1006.0,0.1224
1005.0,0.1181
1004.0,0.1146
1003.0,0.1117
1002.0,0.1092
1001.0,0.1069
1000.0,0.1049
999.0,0.103
998.0,0.1014
997.0,0.0999
996.0,0.0986
995.0,0.0975
994.0,0.0966
993.0,0.0959
992.0,0.0953
991.0,0.0949
990.0,0.0946
989.0,0.0945
988.0,0.0946
987.0,0.095
986.0,0.0956
985.0,0.0966
984.0,0.0978
983.0,0.0993
982.0,0.1009
981.0,0.1028
980.0,0.1048
979.0,0.107
978.0,0.1092
977.0,0.1113
976.0,0.1132
975.0,0.1148
974.0,0.1158
973.0,0.1165
972.0,0.1166
971.0,0.1161
970.0,0.1151
969.0,0.1136
968.0,0.1117
967.0,0.1094
966.0,0.1069
965.0,0.1044
964.0,0.102
963.0,0.0995
962.0,0.097
961.0,0.0946
960.0,0.0923
959.0,0.0902
958.0,0.0881
957.0,0.0862
956.0,0.0844
955.0,0.0827
954.0,0.0812
953.0,0.0799
952.0,0.0787
951.0,0.0776
950.0,0.0766
949.0,0.0756
948.0,0.0748
947.0,0.0741
946.0,0.0733
945.0,0.0726
944.0,0.0719
943.0,0.0712
942.0,0.0705
941.0,0.0699
940.0,0.0693
939.0,0.0688
938.0,0.0682
937.0,0.0677
936.0,0.0672
935.0,0.0666
934.0,0.0661
933.0,0.0656
932.0,0.0652
931.0,0.0648
930.0,0.0643
929.0,0.0638
928.0,0.0632
927.0,0.0626
926.0,0.0621
925.0,0.0617
924.0,0.0613
923.0,0.0609
922.0,0.0604
921.0,0.06
920.0,0.0595
919.0,0.0591
918.0,0.0586
917.0,0.0582
916.0,0.058
915.0,0.0579
914.0,0.0579
913.0,0.0582
912.0,0.0586
911.0,0.0592
910.0,0.0599
909.0,0.0607
908.0,0.0617
907.0,0.0627
906.0,0.0637
905.0,0.0649
904.0,0.0662
903.0,0.0674
902.0,0.0684
901.0,0.0694
900.0,0.0703
899.0,0.0709
898.0,0.0712
897.0,0.0711
896.0,0.0709
895.0,0.0704
894.0,0.0699
893.0,0.0693
892.0,0.0688
891.0,0.0685
890.0,0.0686
889.0,0.0691
888.0,0.0701
887.0,0.0718
886.0,0.0742
885.0,0.0776
884.0,0.0823
883.0,0.0882
882.0,0.0953
881.0,0.1037
880.0,0.113
879.0,0.123
878.0,0.1337
877.0,0.1451
876.0,0.157
875.0,0.1686
874.0,0.1778
873.0,0.1823
872.0,0.1804
871.0,0.1723
870.0,0.1601
869.0,0.147
868.0,0.1351
867.0,0.1253
866.0,0.1177
865.0,0.1122
864.0,0.1084
863.0,0.1056
862.0,0.1036
861.0,0.1022
860.0,0.1013
859.0,0.1007
858.0,0.1003
857.0,0.1002
856.0,0.1003
855.0,0.1007
854.0,0.1013
853.0,0.1023
852.0,0.1036
851.0,0.105
850.0,0.1066
849.0,0.108
848.0,0.109
847.0,0.1092
846.0,0.1084
845.0,0.1071
844.0,0.1055
843.0,0.1036
842.0,0.1015
841.0,0.0994
840.0,0.0975
839.0,0.0955
838.0,0.0934
837.0,0.0913
836.0,0.0892
835.0,0.0872
834.0,0.0851
833.0,0.0832
832.0,0.0815
831.0,0.0799
830.0,0.0784
829.0,0.0769
828.0,0.0755
827.0,0.0743
826.0,0.073
825.0,0.0719
824.0,0.071
823.0,0.0702
822.0,0.0696
821.0,0.0692
820.0,0.0689
819.0,0.0685
818.0,0.0681
817.0,0.0677
816.0,0.0673
815.0,0.067
814.0,0.0666
813.0,0.0663
812.0,0.066
811.0,0.0657
810.0,0.0652
809.0,0.0648
808.0,0.0644
807.0,0.064
806.0,0.0635
805.0,0.0628
804.0,0.062
803.0,0.061
802.0,0.0601
801.0,0.0594
800.0,0.0592
799.0,0.0598
798.0,0.0618
797.0,0.0651
796.0,0.0691
795.0,0.0729
794.0,0.0754
793.0,0.0761
792.0,0.0751
791.0,0.0726
790.0,0.0694
789.0,0.0662
788.0,0.0634
787.0,0.0609
786.0,0.0587
785.0,0.0567
784.0,0.0551
783.0,0.0535
782.0,0.0519
781.0,0.0505
780.0,0.0493
779.0,0.0482
778.0,0.0472
777.0,0.0463
776.0,0.0454
775.0,0.0443
774.0,0.0431
773.0,0.0419
772.0,0.0407
771.0,0.0395
770.0,0.0384
769.0,0.0372
768.0,0.036
767.0,0.0348
766.0,0.0336
765.0,0.0324
764.0,0.0311
763.0,0.0298
762.0,0.0286
761.0,0.0276
760.0,0.0268
759.0,0.0261
758.0,0.0255
757.0,0.0251
756.0,0.0247
755.0,0.0243
754.0,0.0238
753.0,0.0234
752.0,0.0231
751.0,0.023
750.0,0.0231
749.0,0.0236
748.0,0.0241
747.0,0.0247
746.0,0.0256
745.0,0.0273
744.0,0.0302
743.0,0.0343
742.0,0.0402
741.0,0.0486
740.0,0.0601
739.0,0.075
738.0,0.0929
737.0,0.1136
736.0,0.1365
735.0,0.1606
734.0,0.1856
733.0,0.2117
732.0,0.2394
731.0,0.2689
730.0,0.3004
729.0,0.3342
728.0,0.3697
727.0,0.404
726.0,0.4329
725.0,0.4523
724.0,0.4596
723.0,0.455
722.0,0.4418
721.0,0.4245
720.0,0.406
719.0,0.3865
718.0,0.366
717.0,0.3454
716.0,0.3254
715.0,0.3066
714.0,0.2898
713.0,0.2755
712.0,0.2631
711.0,0.2519
710.0,0.2415
709.0,0.2316
708.0,0.2218
707.0,0.2118
706.0,0.2021
705.0,0.1935
704.0,0.1864
703.0,0.1802
702.0,0.1745
701.0,0.1688
700.0,0.1625
699.0,0.1552
698.0,0.1479
697.0,0.1416
696.0,0.1369
695.0,0.1331
694.0,0.1295
693.0,0.1261
692.0,0.1231
691.0,0.1202
690.0,0.1172
689.0,0.1143
688.0,0.1118
687.0,0.1098
686.0,0.1089
685.0,0.1095
684.0,0.1113
683.0,0.1129
682.0,0.1132
681.0,0.1121
680.0,0.1099
679.0,0.107
678.0,0.1036
677.0,0.1008
676.0,0.0986
675.0,0.0967
674.0,0.0946
673.0,0.0924
672.0,0.0905
671.0,0.0888
670.0,0.0871
669.0,0.0859
668.0,0.0858
667.0,0.0862
666.0,0.0866
665.0,0.0865
664.0,0.0858
663.0,0.0843
662.0,0.0823
661.0,0.0806
660.0,0.0797
659.0,0.0794
658.0,0.0791
657.0,0.0785
656.0,0.0776
655.0,0.0767
654.0,0.076
653.0,0.0758
652.0,0.076
651.0,0.076
650.0,0.0756
649.0,0.075
648.0,0.0746
647.0,0.0743
646.0,0.0738
645.0,0.073
644.0,0.072
643.0,0.071
642.0,0.0705
641.0,0.0708
640.0,0.0717
639.0,0.0724
638.0,0.0719
637.0,0.0707
636.0,0.0703
635.0,0.0714
634.0,0.0739
633.0,0.0763
632.0,0.0776
631.0,0.0774
630.0,0.0762
629.0,0.0746
628.0,0.0729
627.0,0.071
626.0,0.0689
625.0,0.0674
624.0,0.0669
623.0,0.0671
622.0,0.067
621.0,0.0661
620.0,0.065
619.0,0.0642
618.0,0.0643
617.0,0.0654
616.0,0.0669
615.0,0.068
614.0,0.0681
613.0,0.0675
612.0,0.0665
611.0,0.0654
610.0,0.0642
609.0,0.0633
608.0,0.0633
607.0,0.0642
606.0,0.0651
605.0,0.0659
604.0,0.0669
603.0,0.0682
602.0,0.0685
601.0,0.067
600.0,0.0645
