nm,Intensity
528.65,1845.8
528.734,1846.4
528.819,1845.8
528.903,1846.7
528.987,1846.3
529.071,1847.4
529.155,1846.55
529.239,1845.85
529.324,1846.4
529.408,1846.45
529.492,1845.95
529.576,1844.85
529.66,1845.75
529.745,1845.45
529.829,1846.65
529.913,1845.4
529.997,1844.9
530.081,1846.85
530.165,1846.5
530.25,1846.2
530.334,1846.3
530.418,1847.9
530.502,1847.65
530.586,1847.05
530.67,1846.65
530.754,1847.0
530.839,1847.3
530.923,1846.35
531.007,1848.2
531.091,1847.0
531.175,1847.95
531.259,1847.05
531.344,1847.95
531.428,1849.0
531.512,1850.25
531.596,1852.75
531.68,1863.85
531.764,1918.45
531.848,2082.15
531.933,2416.15
532.017,2855.25
532.101,2955.7
532.185,2636.1
532.269,2154.65
532.353,1917.5
532.437,1853.2
532.521,1848.8
532.606,1848.7
532.69,1847.7
532.774,1847.35
532.858,1848.6
532.942,1846.8
533.026,1847.35
533.11,1848.1
533.194,1848.35
533.279,1850.8
533.363,1854.25
533.447,1863.35
533.531,1899.5
533.615,1991.9
533.699,2172.35
533.783,2406.65
533.867,2597.65
533.951,2758.15
534.036,2844.1
534.12,2868.4
534.204,2851.2
534.288,2819.1
534.372,2768.9
534.456,2706.05
534.54,2695.3
534.624,2684.15
534.708,2639.1
534.792,2625.5
534.877,2597.85
534.961,2602.6
535.045,2561.05
535.129,2523.35
535.213,2543.45
535.297,2524.95
535.381,2498.35
535.465,2450.0
535.549,2437.65
535.633,2437.75
535.717,2413.6
535.801,2367.5
535.886,2345.0
535.97,2337.05
536.054,2337.7
536.138,2352.1
536.222,2315.8
536.306,2310.9
536.39,2320.15
536.474,2307.75
536.558,2313.8
536.642,2319.45
536.726,2313.8
536.81,2297.75
536.894,2294.05
536.978,2295.35
537.062,2313.5
537.146,2302.75
537.231,2305.7
537.315,2310.45
537.399,2308.85
537.483,2318.05
537.567,2323.65
537.651,2301.9
537.735,2295.65
537.819,2300.8
537.903,2316.2
537.987,2311.3
538.071,2322.85
538.155,2334.55
538.239,2323.5
538.323,2310.95
538.407,2309.5
538.491,2311.05
538.575,2323.0
538.659,2326.5
538.743,2327.5
538.827,2324.3
538.911,2324.7
538.995,2330.35
539.079,2344.85
539.163,2330.35
539.247,2338.4
539.331,2348.75
539.415,2364.95
539.499,2345.25
539.583,2347.75
539.667,2358.7
539.751,2357.85
539.835,2371.8
539.919,2379.6
540.003,2377.55
540.087,2362.7
540.171,2365.65
540.255,2347.6
540.339,2353.5
540.423,2340.5
540.507,2338.05
540.591,2352.35
540.675,2353.3
540.759,2358.45
540.843,2348.3
540.927,2351.85
541.011,2350.4
541.095,2356.55
541.179,2344.3
541.263,2334.9
541.347,2340.8
541.431,2347.9
541.515,2348.65
541.599,2351.2
541.683,2352.5
541.767,2339.55
541.851,2355.55
541.935,2350.1
542.019,2354.75
542.103,2347.45
542.187,2341.85
542.271,2347.85
542.355,2360.65
542.439,2355.9
542.523,2368.75
542.607,2358.2
542.691,2353.25
542.775,2363.2
542.859,2356.25
542.943,2362.75
543.027,2362.75
543.111,2375.1
543.195,2383.0
543.279,2372.85
543.363,2363.4
543.446,2368.45
543.53,2364.4
543.614,2367.85
543.698,2383.5
543.782,2390.75
543.866,2399.95
543.95,2425.7
544.034,2417.45
544.118,2419.45
544.202,2413.25
544.286,2401.95
544.37,2404.9
544.454,2412.65
544.538,2406.5
544.622,2385.0
544.706,2396.15
544.789,2400.8
544.873,2416.8
544.957,2402.8
545.041,2412.3
545.125,2389.4
545.209,2390.45
545.293,2402.05
545.377,2392.6
545.461,2398.45
545.545,2408.05
545.629,2428.2
545.713,2431.75
545.796,2417.1
545.88,2422.55
545.964,2436.0
546.048,2450.95
546.132,2475.3
546.216,2500.45
546.3,2530.6
546.384,2581.9
546.468,2585.6
546.552,2580.65
546.635,2559.05
546.719,2509.1
546.803,2490.5
546.887,2450.65
546.971,2459.15
547.055,2436.95
547.139,2429.1
547.223,2435.45
547.306,2437.25
547.39,2449.1
547.474,2434.6
547.558,2413.3
547.642,2434.95
547.726,2438.0
547.81,2447.0
547.894,2449.7
547.977,2451.75
548.061,2448.55
548.145,2464.85
548.229,2468.85
548.313,2458.45
548.397,2447.05
548.481,2465.45
548.564,2470.0
548.648,2458.7
548.732,2460.85
548.816,2469.25
548.9,2474.15
548.984,2471.8
549.068,2466.15
549.151,2468.6
549.235,2470.95
549.319,2467.65
549.403,2479.95
549.487,2479.25
549.571,2472.5
549.655,2481.55
549.738,2487.65
549.822,2487.1
549.906,2509.75
549.99,2519.65
550.074,2499.0
550.158,2536.95
550.241,2544.8
550.325,2549.25
550.409,2558.3
550.493,2585.3
550.577,2609.2
550.66,2631.5
550.744,2623.85
550.828,2564.55
550.912,2526.25
550.996,2497.6
551.08,2482.5
551.163,2503.0
551.247,2504.25
551.331,2514.7
551.415,2506.15
551.499,2504.9
551.582,2511.85
551.666,2495.05
551.75,2514.25
551.834,2534.65
551.918,2547.5
552.001,2547.4
552.085,2520.0
552.169,2511.15
552.253,2500.05
552.337,2500.65
552.42,2499.0
552.504,2520.35
552.588,2524.05
552.672,2531.4
552.755,2552.75
552.839,2567.2
552.923,2568.35
553.007,2546.05
553.091,2530.5
553.174,2524.9
553.258,2513.5
553.342,2526.8
553.426,2529.15
553.509,2525.4
553.593,2511.45
553.677,2513.55
553.761,2505.35
553.844,2502.15
553.928,2524.85
554.012,2536.15
554.096,2533.8
554.179,2540.85
554.263,2539.45
554.347,2526.7
554.431,2535.25
554.514,2537.55
554.598,2550.2
554.682,2549.65
554.766,2553.65
554.849,2538.15
554.933,2551.25
555.017,2555.6
555.101,2558.4
555.184,2553.25
555.268,2555.25
555.352,2579.6
555.436,2589.2
555.519,2590.1
555.603,2624.3
555.687,2626.15
555.771,2596.8
555.854,2590.65
555.938,2592.4
556.022,2604.85
556.105,2611.7
556.189,2615.45
556.273,2619.9
556.357,2620.25
556.44,2614.3
556.524,2624.4
556.608,2621.2
556.691,2619.4
556.775,2644.15
556.859,2622.75
556.943,2638.55
557.026,2648.9
557.11,2661.75
557.194,2684.65
557.277,2713.55
557.361,2766.5
557.445,2785.4
557.528,2787.15
557.612,2772.1
557.696,2757.9
557.779,2716.05
557.863,2680.95
557.947,2666.55
558.031,2674.4
558.114,2667.9
558.198,2675.8
558.282,2665.25
558.365,2676.6
558.449,2688.55
558.533,2682.5
558.616,2673.3
558.7,2657.95
558.784,2645.95
558.867,2649.05
558.951,2640.0
559.035,2635.75
559.118,2635.6
559.202,2642.7
559.286,2624.8
559.369,2617.5
559.453,2624.25
559.537,2626.6
559.62,2625.95
559.704,2624.95
559.788,2610.5
559.871,2604.25
559.955,2622.45
560.038,2644.0
560.122,2615.9
560.206,2623.35
560.289,2632.5
560.373,2630.7
560.457,2645.1
560.54,2645.9
560.624,2658.25
560.708,2655.35
560.791,2638.5
560.875,2647.65
560.958,2657.4
561.042,2654.1
561.126,2683.3
561.209,2654.65
561.293,2665.1
561.377,2666.9
561.46,2696.0
561.544,2685.45
561.627,2701.5
561.711,2723.8
561.795,2722.75
561.878,2765.2
561.962,2856.35
562.045,3027.45
562.129,3281.75
562.213,3528.4
562.296,3601.05
562.38,3487.25
562.463,3209.85
562.547,2946.75
562.631,2824.55
562.714,2783.7
562.798,2754.0
562.881,2723.5
562.965,2722.65
563.049,2730.75
563.132,2741.1
563.216,2745.8
563.299,2738.05
563.383,2707.85
563.467,2728.05
563.55,2722.55
563.634,2750.95
563.717,2714.7
563.801,2697.85
563.884,2703.85
563.968,2715.25
564.052,2715.8
564.135,2715.95
564.219,2734.25
564.302,2734.4
564.386,2739.15
564.469,2748.8
564.553,2758.9
564.636,2765.9
564.72,2771.15
564.804,2774.35
564.887,2767.05
564.971,2824.8
565.054,2847.4
565.138,2851.25
565.221,2853.1
565.305,2880.1
565.388,2895.75
565.472,2920.65
565.556,2911.05
565.639,2908.8
565.723,2925.5
565.806,2959.65
565.89,2938.5
565.973,2904.95
566.057,2921.35
566.14,2894.9
566.224,2918.1
566.307,2920.3
566.391,2918.15
566.474,2923.65
566.558,2888.35
566.641,2863.5
566.725,2824.2
566.808,2821.5
566.892,2806.65
566.975,2805.3
567.059,2830.75
567.142,2810.6
567.226,2829.7
567.309,2839.7
567.393,2868.2
567.476,2896.8
567.56,2893.8
567.643,2885.5
567.727,2889.5
567.81,2887.0
567.894,2867.15
567.977,2860.15
568.061,2841.15
568.144,2852.7
568.228,2870.6
568.311,2872.9
568.395,2856.6
568.478,2839.85
568.562,2841.5
568.645,2831.65
568.729,2846.15
568.812,2872.9
568.896,2879.6
568.979,2877.65
569.063,2882.35
569.146,2901.0
569.23,2903.25
569.313,2910.9
569.396,2897.6
569.48,2884.3
569.563,2909.3
569.647,2915.05
569.73,2921.05
569.814,2934.85
569.897,2925.7
569.981,2925.55
570.064,2955.75
570.148,2988.8
570.231,2976.05
570.314,3011.1
570.398,3035.2
570.481,3042.35
570.565,3064.55
570.648,3050.8
570.732,3080.1
570.815,3135.45
570.898,3168.7
570.982,3208.6
571.065,3238.75
571.149,3256.1
571.232,3258.75
571.316,3275.95
571.399,3281.55
571.482,3270.35
571.566,3235.1
571.649,3206.1
571.733,3192.45
571.816,3142.4
571.9,3137.0
571.983,3118.85
572.066,3108.75
572.15,3095.75
572.233,3095.75
572.317,3077.25
572.4,3062.35
572.483,3054.8
572.567,3037.25
572.65,3040.95
572.734,3064.65
572.817,3044.65
572.9,3054.9
572.984,3024.2
573.067,3012.6
573.15,3025.3
573.234,3046.1
573.317,3047.65
573.401,3031.7
573.484,3042.35
573.567,3024.55
573.651,3054.8
573.734,3056.55
573.818,3044.85
573.901,3068.5
573.984,3074.15
574.068,3061.75
574.151,3073.95
574.234,3108.05
574.318,3094.5
574.401,3072.2
574.484,3032.2
574.568,3038.55
574.651,3027.95
574.734,3058.25
574.818,3054.9
574.901,3084.4
574.985,3128.3
575.068,3123.15
575.151,3099.25
575.235,3131.45
575.318,3152.0
575.401,3135.45
575.485,3126.4
575.568,3103.0
575.651,3118.1
575.735,3113.35
575.818,3093.35
575.901,3098.45
575.985,3106.95
576.068,3124.1
576.151,3134.45
576.235,3147.25
576.318,3171.1
576.401,3179.05
576.484,3184.45
576.568,3163.75
576.651,3163.95
576.734,3154.5
576.818,3163.25
576.901,3161.75
576.984,3132.2
577.068,3172.65
577.151,3147.0
577.234,3122.45
577.318,3127.35
577.401,3111.95
577.484,3134.95
577.567,3160.8
577.651,3154.1
577.734,3103.9
577.817,3134.9
577.901,3155.05
577.984,3154.0
578.067,3152.5
578.15,3157.95
578.234,3160.25
578.317,3139.1
578.4,3146.4
578.484,3147.05
578.567,3136.2
578.65,3110.7
578.733,3131.7
578.817,3167.65
578.9,3184.65
578.983,3204.15
579.066,3190.55
579.15,3151.0
579.233,3172.2
579.316,3221.1
579.399,3199.35
579.483,3180.2
579.566,3156.15
579.649,3148.4
579.732,3180.7
579.816,3186.85
579.899,3215.0
579.982,3232.9
580.065,3234.85
580.149,3216.85
580.232,3240.25
580.315,3198.95
580.398,3229.8
580.482,3255.5
580.565,3258.65
580.648,3268.65
580.731,3270.55
580.815,3288.55
580.898,3258.2
580.981,3258.4
581.064,3279.1
581.147,3284.9
581.231,3334.8
581.314,3339.2
581.397,3347.95
581.48,3375.1
581.563,3402.05
581.647,3457.8
581.73,3542.2
581.813,3675.55
581.896,3872.85
581.979,4167.05
582.063,4330.6
582.146,4410.0
582.229,4289.1
582.312,4046.3
582.395,3718.95
582.479,3504.15
582.562,3385.6
582.645,3342.8
582.728,3311.0
582.811,3300.1
582.895,3297.65
582.978,3296.2
583.061,3285.35
583.144,3290.5
583.227,3245.6
583.31,3258.7
583.394,3287.8
583.477,3287.55
583.56,3290.65
583.643,3280.05
583.726,3275.3
583.809,3284.05
583.893,3295.9
583.976,3299.85
584.059,3265.1
584.142,3291.85
584.225,3291.0
584.308,3331.95
584.391,3322.05
584.475,3304.45
584.558,3277.25
584.641,3269.55
584.724,3313.1
584.807,3305.15
584.89,3303.25
584.973,3309.2
585.057,3299.95
585.14,3362.05
585.223,3414.2
585.306,3414.6
585.389,3463.55
585.472,3565.85
585.555,3658.65
585.638,3731.8
585.722,3796.2
585.805,3849.65
585.888,3874.0
585.971,3962.25
586.054,3917.35
586.137,3844.25
586.22,3777.25
586.303,3725.8
586.386,3642.6
586.47,3600.85
586.553,3527.55
586.636,3473.6
586.719,3440.9
586.802,3383.55
586.885,3346.5
586.968,3330.85
587.051,3333.8
587.134,3335.4
587.217,3352.8
587.3,3362.05
587.384,3343.25
587.467,3335.2
587.55,3343.3
587.633,3319.55
587.716,3310.15
587.799,3301.8
587.882,3330.6
587.965,3366.65
588.048,3406.8
588.131,3372.35
588.214,3326.3
588.297,3300.4
588.38,3304.3
588.463,3328.65
588.546,3334.25
588.63,3336.15
588.713,3350.2
588.796,3337.9
588.879,3353.75
588.962,3346.5
589.045,3320.0
589.128,3292.85
589.211,3287.8
589.294,3305.45
589.377,3332.8
589.46,3343.45
589.543,3303.1
589.626,3305.0
589.709,3325.15
589.792,3351.5
589.875,3360.8
589.958,3318.75
590.041,3314.4
590.124,3308.35
590.207,3306.6
590.29,3305.75
590.373,3321.25
590.456,3341.65
590.539,3352.2
590.622,3375.95
590.705,3356.8
590.788,3328.75
590.871,3295.15
590.954,3289.9
591.037,3314.95
591.12,3342.6
591.203,3368.9
591.286,3349.65
591.369,3351.05
591.452,3337.75
591.535,3358.1
591.618,3354.2
591.701,3343.15
591.784,3363.85
591.867,3353.3
591.95,3369.3
592.033,3352.95
592.116,3348.3
592.199,3398.35
592.282,3386.65
592.365,3395.35
592.448,3354.75
592.531,3362.55
592.614,3376.95
592.697,3354.8
592.78,3317.1
592.863,3349.95
592.946,3372.3
593.029,3389.2
593.112,3392.35
593.195,3378.6
593.278,3334.55
593.361,3367.65
593.443,3383.15
593.526,3390.05
593.609,3364.1
593.692,3362.9
593.775,3362.95
593.858,3333.8
593.941,3361.35
594.024,3361.75
594.107,3365.95
594.19,3384.8
594.273,3375.65
594.356,3374.85
594.439,3325.6
594.522,3338.75
594.604,3391.35
594.687,3392.55
594.77,3373.0
594.853,3381.05
594.936,3389.4
595.019,3406.0
595.102,3375.6
595.185,3386.9
595.268,3389.45
595.351,3377.0
595.434,3382.55
595.516,3385.85
595.599,3409.35
595.682,3406.85
595.765,3392.2
595.848,3388.45
595.931,3383.95
596.014,3398.3
596.097,3362.05
596.18,3372.15
596.262,3410.15
596.345,3364.35
596.428,3392.25
596.511,3450.6
596.594,3467.5
596.677,3421.25
596.76,3368.65
596.843,3384.1
596.925,3394.0
597.008,3425.25
597.091,3416.6
597.174,3387.4
597.257,3402.0
597.34,3388.0
597.423,3417.6
597.505,3418.85
597.588,3392.95
597.671,3416.35
597.754,3403.0
597.837,3423.8
597.92,3384.2
598.002,3368.5
598.085,3401.65
598.168,3427.8
598.251,3394.75
598.334,3390.5
598.417,3417.4
598.499,3430.75
598.582,3404.15
598.665,3399.65
598.748,3401.6
598.831,3399.2
598.914,3409.05
598.996,3407.95
599.079,3442.45
599.162,3409.3
599.245,3421.9
599.328,3410.55
599.41,3407.85
599.493,3425.7
599.576,3462.1
599.659,3449.95
599.742,3428.0
599.824,3393.65
599.907,3420.75
599.99,3451.8
600.073,3423.0
600.156,3433.3
600.238,3433.85
600.321,3429.6
600.404,3417.65
600.487,3422.1
600.57,3434.35
600.652,3421.7
600.735,3434.25
600.818,3455.5
600.901,3433.75
600.983,3420.95
601.066,3402.1
601.149,3408.25
601.232,3445.75
601.314,3455.8
601.397,3460.7
601.48,3471.05
601.563,3475.3
601.645,3419.4
601.728,3422.6
601.811,3432.85
601.894,3446.45
601.976,3430.35
602.059,3426.5
602.142,3442.9
602.225,3443.55
602.307,3413.75
602.39,3398.95
602.473,3404.3
602.556,3471.55
602.638,3450.35
602.721,3461.55
602.804,3466.35
602.887,3463.95
602.969,3464.0
603.052,3443.45
603.135,3459.25
603.217,3467.55
603.3,3515.6
603.383,3497.3
603.466,3435.15
603.548,3401.15
603.631,3433.2
603.714,3420.6
603.796,3455.3
603.879,3477.05
603.962,3480.15
604.045,3477.25
604.127,3474.6
604.21,3453.6
604.293,3456.8
604.375,3439.6
604.458,3434.65
604.541,3448.4
604.623,3456.85
604.706,3453.8
604.789,3477.55
604.871,3460.35
604.954,3474.95
605.037,3496.25
605.119,3486.5
605.202,3444.75
605.285,3429.6
605.367,3440.55
605.45,3475.9
605.533,3462.65
605.615,3460.65
605.698,3480.5
605.781,3462.2
605.863,3431.3
605.946,3422.1
606.029,3500.6
606.111,3463.75
606.194,3469.4
606.277,3460.25
606.359,3502.35
606.442,3478.35
606.524,3475.7
606.607,3508.3
606.69,3514.25
606.772,3491.7
606.855,3493.4
606.938,3477.15
607.02,3472.25
607.103,3460.1
607.185,3464.15
607.268,3521.65
607.351,3510.75
607.433,3506.55
607.516,3529.1
607.599,3498.65
607.681,3482.6
607.764,3457.1
607.846,3478.2
607.929,3475.0
608.012,3508.2
608.094,3530.95
608.177,3522.65
608.259,3493.4
608.342,3489.65
608.425,3476.3
608.507,3490.0
608.59,3475.55
608.672,3484.8
608.755,3484.0
608.837,3499.2
608.92,3497.15
609.003,3483.7
609.085,3490.4
609.168,3477.7
609.25,3508.25
609.333,3511.15
609.415,3490.3
609.498,3495.5
609.581,3500.2
609.663,3474.85
609.746,3516.5
609.828,3519.05
609.911,3525.85
609.993,3520.65
610.076,3550.25
610.158,3494.95
610.241,3464.3
610.324,3478.3
610.406,3518.8
610.489,3524.4
610.571,3517.0
610.654,3564.25
610.736,3542.25
610.819,3500.05
610.901,3499.1
610.984,3512.1
611.066,3497.0
611.149,3541.75
611.231,3559.2
611.314,3532.15
611.396,3531.45
611.479,3507.45
611.561,3518.6
611.644,3530.9
611.727,3514.1
611.809,3497.2
611.892,3512.6
611.974,3529.75
612.057,3502.9
612.139,3532.95
612.222,3561.25
612.304,3547.45
612.386,3552.15
612.469,3555.05
612.551,3498.65
612.634,3451.1
612.716,3508.85
612.799,3536.05
612.881,3524.4
612.964,3523.15
613.046,3503.35
613.129,3498.55
613.211,3521.4
613.294,3541.35
613.376,3538.6
613.459,3536.95
613.541,3553.9
613.624,3506.7
613.706,3495.1
613.789,3555.05
613.871,3541.55
613.953,3568.6
614.036,3553.3
614.118,3507.85
614.201,3535.9
614.283,3553.5
614.366,3567.9
614.448,3537.95
614.531,3537.0
614.613,3555.25
614.695,3558.55
614.778,3554.1
614.86,3588.0
614.943,3596.3
615.025,3560.0
615.108,3557.9
615.19,3566.45
615.272,3563.15
615.355,3527.75
615.437,3531.55
615.52,3573.45
615.602,3540.0
615.684,3539.25
615.767,3552.75
615.849,3595.65
615.932,3595.85
616.014,3603.8
616.097,3561.3
616.179,3556.85
616.261,3564.85
616.344,3561.75
616.426,3559.2
616.508,3537.7
616.591,3588.35
616.673,3580.65
616.756,3571.3
616.838,3559.2
616.92,3554.85
617.003,3583.65
617.085,3576.95
617.168,3558.8
617.25,3580.75
617.332,3579.45
617.415,3570.0
617.497,3620.15
617.579,3582.2
617.662,3594.4
617.744,3614.65
617.826,3602.0
617.909,3582.55
617.991,3602.0
618.073,3613.15
618.156,3668.05
618.238,3649.3
618.32,3612.6
618.403,3606.35
618.485,3620.95
618.567,3659.3
618.65,3643.15
618.732,3585.3
618.814,3571.25
618.897,3592.35
618.979,3599.2
619.061,3599.8
619.144,3644.45
619.226,3653.65
619.308,3654.05
619.391,3667.3
619.473,3615.25
619.555,3594.3
619.638,3584.6
619.72,3615.65
619.802,3667.7
619.885,3654.2
619.967,3630.4
620.049,3631.15
620.131,3623.55
620.214,3643.5
620.296,3651.85
620.378,3650.6
620.461,3634.65
620.543,3624.55
620.625,3630.6
620.707,3629.85
620.79,3664.15
620.872,3671.6
620.954,3684.65
621.037,3631.95
621.119,3622.9
621.201,3680.4
621.283,3671.0
621.366,3655.95
621.448,3633.55
621.53,3627.15
621.612,3634.1
621.695,3644.55
621.777,3656.6
621.859,3673.45
621.941,3671.25
622.024,3640.15
622.106,3596.75
622.188,3620.5
622.27,3618.3
622.353,3672.55
622.435,3717.35
622.517,3690.15
622.599,3641.15
622.682,3625.9
622.764,3682.65
622.846,3732.1
622.928,3681.85
623.01,3670.95
623.093,3655.2
623.175,3703.95
623.257,3678.1
623.339,3619.0
623.422,3637.0
623.504,3644.75
623.586,3719.55
623.668,3693.15
623.75,3692.6
623.833,3742.85
623.915,3696.35
623.997,3696.5
624.079,3691.2
624.161,3706.05
624.244,3729.45
624.326,3752.85
624.408,3721.6
624.49,3681.3
624.572,3657.4
624.654,3659.0
624.737,3632.15
624.819,3682.8
624.901,3712.0
624.983,3794.2
625.065,3781.7
625.147,3736.6
625.23,3686.2
625.312,3676.0
625.394,3738.2
625.476,3751.9
625.558,3678.35
625.64,3653.85
625.723,3684.1
625.805,3729.05
625.887,3745.75
625.969,3740.25
626.051,3694.6
626.133,3726.0
626.215,3763.0
626.298,3727.7
626.38,3693.8
626.462,3699.9
626.544,3688.6
626.626,3738.6
626.708,3770.85
626.79,3745.7
626.872,3729.7
626.955,3699.4
627.037,3728.65
627.119,3758.05
627.201,3713.4
627.283,3729.3
627.365,3741.35
627.447,3748.05
627.529,3790.6
627.611,3763.0
627.693,3753.35
627.776,3775.85
627.858,3760.85
627.94,3752.05
628.022,3768.85
628.104,3792.15
628.186,3823.2
628.268,3828.45
628.35,3789.9
628.432,3744.25
628.514,3797.75
628.596,3866.9
628.678,3850.7
628.761,3808.6
628.843,3799.75
628.925,3802.6
629.007,3828.95
629.089,3795.7
629.171,3786.8
629.253,3865.25
629.335,3889.4
629.417,3888.75
629.499,3901.1
629.581,3870.5
629.663,3859.1
629.745,3861.55
629.827,3842.2
629.909,3797.0
629.991,3772.15
630.073,3805.1
630.155,3778.65
630.237,3852.95
630.319,3928.5
630.401,3850.5
630.483,3868.15
630.565,3892.35
630.647,3888.0
630.73,3906.05
630.812,3887.0
630.894,3860.8
630.976,3859.8
631.058,3932.9
631.14,3998.8
631.222,4003.4
631.304,4022.25
631.386,4046.15
631.468,4082.7
631.55,4074.55
631.632,4091.85
631.714,4139.95
631.796,4144.3
631.877,4104.3
631.959,4079.3
632.041,4090.9
632.123,4020.3
632.205,4032.45
632.287,4048.8
632.369,4073.2
632.451,3996.5
632.533,3994.05
632.615,4035.95
632.697,4019.15
632.779,3978.3
632.861,4032.15
632.943,4026.45
633.025,4042.75
633.107,4010.85
633.189,4022.75
633.271,3996.9
633.353,4012.2
633.435,4035.25
633.517,4004.35
633.599,3988.4
633.681,3992.65
633.763,3980.5
633.844,3997.9
633.926,3967.95
634.008,3926.55
634.09,3982.1
634.172,3994.55
634.254,3998.5
634.336,3983.1
634.418,3955.35
634.5,3938.1
634.582,3945.85
634.664,3920.0
634.746,3939.15
634.827,3984.4
634.909,3999.9
634.991,3974.2
635.073,3944.0
635.155,3941.05
635.237,3917.35
635.319,3886.6
635.401,3934.75
635.483,4033.2
635.564,4041.5
635.646,4026.0
635.728,4004.2
635.81,3976.8
635.892,4040.5
635.974,4066.7
636.056,4048.8
636.138,4095.8
636.219,4189.35
636.301,4218.5
636.383,4206.15
636.465,4222.65
636.547,4175.65
636.629,4186.6
636.711,4159.55
636.792,4178.0
636.874,4131.75
636.956,4077.5
637.038,4075.05
637.12,4068.75
637.202,4045.65
637.283,4028.95
637.365,4016.6
637.447,4029.3
637.529,3992.3
637.611,3926.2
637.693,3939.15
637.774,3989.35
637.856,4007.85
637.938,4027.95
638.02,4029.8
638.102,4010.1
638.184,3981.2
638.265,3969.7
638.347,4014.25
638.429,3999.45
638.511,3960.15
638.593,3980.6
638.674,3942.35
638.756,3969.05
638.838,3956.1
638.92,3933.75
639.002,3961.85
639.083,3916.4
639.165,3958.3
639.247,3996.85
639.329,4016.3
639.41,4001.5
639.492,3960.95
639.574,3979.5
639.656,3962.4
639.737,3913.15
639.819,3917.75
639.901,3959.15
639.983,3975.7
640.065,3975.3
640.146,3990.95
640.228,3997.4
640.31,3987.35
640.392,3962.25
640.473,3918.05
640.555,3875.1
640.637,3953.8
640.719,3973.05
640.8,3957.85
640.882,3921.5
640.964,3953.15
641.045,3941.7
641.127,3920.5
641.209,3894.3
641.291,3882.6
641.372,3923.55
641.454,3997.05
641.536,3957.7
641.618,3956.05
641.699,3971.3
641.781,3968.65
641.863,4003.4
641.944,4054.9
642.026,4004.9
642.108,3980.1
642.189,3946.85
642.271,4004.15
642.353,4006.6
642.435,3960.4
642.516,3973.75
642.598,3942.45
642.68,3919.15
642.761,3947.2
642.843,3976.2
642.925,4015.55
643.006,3972.6
643.088,3924.65
643.17,3886.7
643.251,3873.85
643.333,3927.4
643.415,3963.25
643.496,3966.5
643.578,3986.95
643.66,3958.5
643.741,3988.2
643.823,4008.45
643.905,4011.9
643.986,4010.15
644.068,3988.25
644.149,3981.35
644.231,3936.65
644.313,3990.2
644.394,4001.4
644.476,3945.7
644.558,3908.5
644.639,3926.55
644.721,3928.45
644.803,3959.35
644.884,3928.65
644.966,3913.25
645.047,3936.5
645.129,3954.0
645.211,3938.25
645.292,3947.25
645.374,4006.25
645.455,4051.45
645.537,4003.2
645.619,3941.2
645.7,3976.1
645.782,4000.95
645.863,3899.3
645.945,3923.2
646.027,3939.65
646.108,3905.2
646.19,3958.45
646.271,3988.7
646.353,3993.4
646.435,3986.2
646.516,3980.6
646.598,3941.45
646.679,3916.25
646.761,3946.3
646.842,3985.1
646.924,3939.65
647.005,3912.25
647.087,3909.05
647.169,3914.65
647.25,3891.55
647.332,3936.85
647.413,4005.65
647.495,4007.05
647.576,3960.25
647.658,3978.6
647.739,3974.1
647.821,3908.7
647.902,3923.55
647.984,3968.35
648.066,3928.8
648.147,3880.05
648.229,3959.6
648.31,3989.3
648.392,4010.05
648.473,3880.6
648.555,3825.35
648.636,3860.2
648.718,3899.8
648.799,3912.3
648.881,3960.4
648.962,3936.0
649.044,3924.05
649.125,3896.85
649.207,3919.65
649.288,3984.15
649.37,3978.6
649.451,3909.85
649.533,3837.5
649.614,3841.45
649.696,3911.7
649.777,3945.3
649.859,3911.2
649.94,3887.5
650.022,3926.8
650.103,3965.15
650.184,3948.8
650.266,3942.8
650.347,3948.15
650.429,3915.55
650.51,3872.05
650.592,3814.85
650.673,3872.75
650.755,3913.15
650.836,3870.6
650.918,3896.85
650.999,3921.5
651.08,3939.3
651.162,3939.0
651.243,3925.65
651.325,3874.55
651.406,3864.25
651.488,3874.4
651.569,3854.85
651.651,3870.2
651.732,3845.15
651.813,3865.75
651.895,3908.05
651.976,3869.0
652.058,3817.4
652.139,3825.2
652.22,3851.25
652.302,3858.85
652.383,3893.3
652.465,3889.35
652.546,3827.3
652.627,3858.65
652.709,3847.8
652.79,3831.0
652.872,3811.95
652.953,3726.8
653.034,3770.85
653.116,3834.3
653.197,3812.05
653.278,3788.05
653.36,3807.3
653.441,3796.35
653.523,3833.3
653.604,3865.0
653.685,3837.65
653.767,3794.9
653.848,3748.5
653.929,3797.2
654.011,3875.95
654.092,3848.85
654.173,3770.4
654.255,3722.75
654.336,3696.05
654.418,3693.25
654.499,3723.35
654.58,3746.1
654.662,3777.15
654.743,3729.9
654.824,3756.35
654.906,3805.6
654.987,3775.9
655.068,3757.55
655.149,3723.4
655.231,3724.9
655.312,3717.4
655.393,3691.1
655.475,3701.3
655.556,3705.05
655.637,3711.8
655.719,3731.95
655.8,3761.1
655.881,3741.1
655.963,3710.15
656.044,3676.35
656.125,3606.75
656.206,3642.95
656.288,3681.2
656.369,3687.05
656.45,3671.0
656.532,3659.55
656.613,3611.1
656.694,3599.25
656.775,3608.85
656.857,3646.8
656.938,3737.9
657.019,3773.35
657.1,3656.95
657.182,3606.7
657.263,3645.95
657.344,3690.8
657.425,3644.05
657.507,3622.0
657.588,3559.5
657.669,3613.3
657.75,3647.5
657.832,3645.6
657.913,3652.45
657.994,3633.65
658.075,3607.6
658.157,3617.45
658.238,3603.75
658.319,3580.8
658.4,3537.85
658.482,3545.85
658.563,3615.05
658.644,3568.2
658.725,3568.5
658.806,3551.65
658.888,3605.5
658.969,3659.65
659.05,3609.0
659.131,3566.6
659.212,3568.5
659.294,3541.05
659.375,3504.2
659.456,3512.25
659.537,3490.7
659.618,3533.05
659.7,3471.8
659.781,3506.7
659.862,3519.7
659.943,3485.45
660.024,3474.1
660.105,3556.9
660.187,3576.65
660.268,3552.45
660.349,3536.55
660.43,3477.15
660.511,3471.15
660.592,3514.5
660.674,3490.45
660.755,3465.65
660.836,3468.25
660.917,3508.1
660.998,3501.2
661.079,3462.15
