cm-1,A
4000.0,0.009
3999.0,0.0089
3998.0,0.0089
3997.0,0.0089
3996.0,0.0088
3995.0,0.0088
3994.0,0.0088
3993.0,0.0089
3992.0,0.0089
3991.0,0.0089
3990.0,0.0089
3989.0,0.0088
3988.0,0.0087
3987.0,0.0087
3986.0,0.0086
3985.0,0.0086
3984.0,0.0086
3983.0,0.0086
3982.0,0.0086
3981.0,0.0086
3980.0,0.0086
3979.0,0.0086
3978.0,0.0086
3977.0,0.0086
3976.0,0.0086
3975.0,0.0085
3974.0,0.0084
3973.0,0.0085
3972.0,0.0085
3971.0,0.0086
3970.0,0.0087
3969.0,0.0089
3968.0,0.009
3967.0,0.009
3966.0,0.009
3965.0,0.0089
3964.0,0.0089
3963.0,0.0088
3962.0,0.0088
3961.0,0.0088
3960.0,0.0088
3959.0,0.0089
3958.0,0.0089
3957.0,0.0088
3956.0,0.0088
3955.0,0.0088
3954.0,0.0087
3953.0,0.0087
3952.0,0.0087
3951.0,0.0087
3950.0,0.0087
3949.0,0.0087
3948.0,0.0087
3947.0,0.0086
3946.0,0.0087
3945.0,0.0087
3944.0,0.0088
3943.0,0.0088
3942.0,0.0088
3941.0,0.0088
3940.0,0.0088
3939.0,0.0088
3938.0,0.0088
3937.0,0.0088
3936.0,0.0088
3935.0,0.0088
3934.0,0.0088
3933.0,0.0088
3932.0,0.0089
3931.0,0.0089
3930.0,0.0089
3929.0,0.0088
3928.0,0.0087
3927.0,0.0087
3926.0,0.0087
3925.0,0.0087
3924.0,0.0087
3923.0,0.0088
3922.0,0.0088
3921.0,0.0088
3920.0,0.0088
3919.0,0.0088
3918.0,0.0088
3917.0,0.0088
3916.0,0.0088
3915.0,0.0088
3914.0,0.009
3913.0,0.0091
3912.0,0.0091
3911.0,0.009
3910.0,0.0089
3909.0,0.0088
3908.0,0.0087
3907.0,0.0086
3906.0,0.0086
3905.0,0.0086
3904.0,0.0085
3903.0,0.0086
3902.0,0.0086
3901.0,0.0088
3900.0,0.0088
3899.0,0.0088
3898.0,0.0089
3897.0,0.0089
3896.0,0.009
3895.0,0.009
3894.0,0.009
3893.0,0.009
3892.0,0.009
3891.0,0.0089
3890.0,0.0087
3889.0,0.0087
3888.0,0.0087
3887.0,0.0087
3886.0,0.0087
3885.0,0.0087
3884.0,0.0088
3883.0,0.009
3882.0,0.009
3881.0,0.0091
3880.0,0.009
3879.0,0.0089
3878.0,0.009
3877.0,0.009
3876.0,0.0089
3875.0,0.0088
3874.0,0.0086
3873.0,0.0086
3872.0,0.0088
3871.0,0.0088
3870.0,0.0088
3869.0,0.0087
3868.0,0.0088
3867.0,0.009
3866.0,0.009
3865.0,0.0089
3864.0,0.0088
3863.0,0.0087
3862.0,0.0087
3861.0,0.0087
3860.0,0.0088
3859.0,0.0089
3858.0,0.0089
3857.0,0.0089
3856.0,0.009
3855.0,0.0092
3854.0,0.0094
3853.0,0.0094
3852.0,0.0092
3851.0,0.0093
3850.0,0.0094
3849.0,0.0093
3848.0,0.0092
3847.0,0.0091
3846.0,0.009
3845.0,0.0089
3844.0,0.0088
3843.0,0.0087
3842.0,0.0087
3841.0,0.0087
3840.0,0.0087
3839.0,0.0088
3838.0,0.0088
3837.0,0.0089
3836.0,0.009
3835.0,0.0092
3834.0,0.0093
3833.0,0.0092
3832.0,0.0091
3831.0,0.009
3830.0,0.0089
3829.0,0.0089
3828.0,0.0089
3827.0,0.0089
3826.0,0.0088
3825.0,0.0088
3824.0,0.0089
3823.0,0.009
3822.0,0.009
3821.0,0.0088
3820.0,0.0086
3819.0,0.0087
3818.0,0.0089
3817.0,0.009
3816.0,0.009
3815.0,0.009
3814.0,0.0091
3813.0,0.0093
3812.0,0.0093
3811.0,0.0092
3810.0,0.0091
3809.0,0.0092
3808.0,0.0092
3807.0,0.0091
3806.0,0.009
3805.0,0.0091
3804.0,0.0092
3803.0,0.0094
3802.0,0.0095
3801.0,0.0093
3800.0,0.0092
3799.0,0.0092
3798.0,0.0092
3797.0,0.0091
3796.0,0.009
3795.0,0.0089
3794.0,0.009
3793.0,0.0091
3792.0,0.0092
3791.0,0.0092
3790.0,0.0092
3789.0,0.0092
3788.0,0.0093
3787.0,0.0093
3786.0,0.0094
3785.0,0.0093
3784.0,0.0093
3783.0,0.0093
3782.0,0.0093
3781.0,0.0093
3780.0,0.0093
3779.0,0.0093
3778.0,0.0093
3777.0,0.0094
3776.0,0.0095
3775.0,0.0095
3774.0,0.0095
3773.0,0.0094
3772.0,0.0094
3771.0,0.0094
3770.0,0.0093
3769.0,0.0092
3768.0,0.0093
3767.0,0.0094
3766.0,0.0094
3765.0,0.0094
3764.0,0.0093
3763.0,0.0093
3762.0,0.0093
3761.0,0.0092
3760.0,0.0091
3759.0,0.0091
3758.0,0.0091
3757.0,0.0091
3756.0,0.0091
3755.0,0.0091
3754.0,0.0091
3753.0,0.009
3752.0,0.0092
3751.0,0.0094
3750.0,0.0095
3749.0,0.0095
3748.0,0.0095
3747.0,0.0097
3746.0,0.0099
3745.0,0.0099
3744.0,0.0096
3743.0,0.0095
3742.0,0.0095
3741.0,0.0095
3740.0,0.0093
3739.0,0.0092
3738.0,0.0091
3737.0,0.009
3736.0,0.009
3735.0,0.009
3734.0,0.009
3733.0,0.009
3732.0,0.009
3731.0,0.009
3730.0,0.0091
3729.0,0.0091
3728.0,0.0092
3727.0,0.0091
3726.0,0.009
3725.0,0.009
3724.0,0.009
3723.0,0.009
3722.0,0.0091
3721.0,0.0092
3720.0,0.0093
3719.0,0.0093
3718.0,0.0094
3717.0,0.0094
3716.0,0.0094
3715.0,0.0094
3714.0,0.0095
3713.0,0.0097
3712.0,0.0099
3711.0,0.0099
3710.0,0.0097
3709.0,0.0095
3708.0,0.0094
3707.0,0.0094
3706.0,0.0094
3705.0,0.0094
3704.0,0.0094
3703.0,0.0093
3702.0,0.0092
3701.0,0.0092
3700.0,0.0092
3699.0,0.0094
3698.0,0.0095
3697.0,0.0096
3696.0,0.0095
3695.0,0.0095
3694.0,0.0094
3693.0,0.0093
3692.0,0.0093
3691.0,0.0094
3690.0,0.0095
3689.0,0.0095
3688.0,0.0094
3687.0,0.0094
3686.0,0.0094
3685.0,0.0095
3684.0,0.0094
3683.0,0.0094
3682.0,0.0094
3681.0,0.0093
3680.0,0.0092
3679.0,0.0091
3678.0,0.0091
3677.0,0.0092
3676.0,0.0092
3675.0,0.009
3674.0,0.0089
3673.0,0.0091
3672.0,0.0094
3671.0,0.0096
3670.0,0.0098
3669.0,0.0097
3668.0,0.0097
3667.0,0.0097
3666.0,0.0098
3665.0,0.0099
3664.0,0.0099
3663.0,0.0099
3662.0,0.0098
3661.0,0.0097
3660.0,0.0096
3659.0,0.0096
3658.0,0.0097
3657.0,0.0097
3656.0,0.0096
3655.0,0.0095
3654.0,0.0094
3653.0,0.0093
3652.0,0.0092
3651.0,0.0092
3650.0,0.0094
3649.0,0.0096
3648.0,0.0096
3647.0,0.0096
3646.0,0.0096
3645.0,0.0097
3644.0,0.0098
3643.0,0.0098
3642.0,0.0098
3641.0,0.0098
3640.0,0.0097
3639.0,0.0097
3638.0,0.0097
3637.0,0.0096
3636.0,0.0096
3635.0,0.0096
3634.0,0.0095
3633.0,0.0095
3632.0,0.0095
3631.0,0.0096
3630.0,0.0098
3629.0,0.0099
3628.0,0.0099
3627.0,0.0099
3626.0,0.01
3625.0,0.0099
3624.0,0.0098
3623.0,0.0097
3622.0,0.0096
3621.0,0.0096
3620.0,0.0097
3619.0,0.0096
3618.0,0.0096
3617.0,0.0096
3616.0,0.0097
3615.0,0.0098
3614.0,0.0098
3613.0,0.0099
3612.0,0.01
3611.0,0.01
3610.0,0.01
3609.0,0.01
3608.0,0.0099
3607.0,0.0099
3606.0,0.0099
3605.0,0.0099
3604.0,0.0099
3603.0,0.01
3602.0,0.01
3601.0,0.01
3600.0,0.0099
3599.0,0.0099
3598.0,0.0099
3597.0,0.0099
3596.0,0.01
3595.0,0.0099
3594.0,0.0099
3593.0,0.0098
3592.0,0.0097
3591.0,0.0097
3590.0,0.0098
3589.0,0.0099
3588.0,0.0099
3587.0,0.0099
3586.0,0.0099
3585.0,0.0101
3584.0,0.0102
3583.0,0.0104
3582.0,0.0104
3581.0,0.0105
3580.0,0.0105
3579.0,0.0106
3578.0,0.0106
3577.0,0.0106
3576.0,0.0106
3575.0,0.0106
3574.0,0.0106
3573.0,0.0106
3572.0,0.0106
3571.0,0.0104
3570.0,0.0102
3569.0,0.0101
3568.0,0.0101
3567.0,0.0103
3566.0,0.0104
3565.0,0.0105
3564.0,0.0105
3563.0,0.0105
3562.0,0.0105
3561.0,0.0106
3560.0,0.0106
3559.0,0.0107
3558.0,0.0108
3557.0,0.0108
3556.0,0.0107
3555.0,0.0107
3554.0,0.0107
3553.0,0.0108
3552.0,0.0108
3551.0,0.0108
3550.0,0.0108
3549.0,0.0107
3548.0,0.0107
3547.0,0.0107
3546.0,0.0107
3545.0,0.0107
3544.0,0.0107
3543.0,0.0107
3542.0,0.0108
3541.0,0.0108
3540.0,0.0108
3539.0,0.0108
3538.0,0.0108
3537.0,0.0108
3536.0,0.0109
3535.0,0.0109
3534.0,0.0109
3533.0,0.0108
3532.0,0.0108
3531.0,0.0107
3530.0,0.0106
3529.0,0.0106
3528.0,0.0106
3527.0,0.0106
3526.0,0.0107
3525.0,0.0108
3524.0,0.0108
3523.0,0.0108
3522.0,0.0108
3521.0,0.0108
3520.0,0.0109
3519.0,0.0109
3518.0,0.011
3517.0,0.011
3516.0,0.011
3515.0,0.011
3514.0,0.0109
3513.0,0.0108
3512.0,0.0108
3511.0,0.0108
3510.0,0.0108
3509.0,0.0109
3508.0,0.011
3507.0,0.0111
3506.0,0.0111
3505.0,0.0111
3504.0,0.0111
3503.0,0.0111
3502.0,0.0111
3501.0,0.0111
3500.0,0.011
3499.0,0.011
3498.0,0.011
3497.0,0.011
3496.0,0.011
3495.0,0.0109
3494.0,0.0109
3493.0,0.0109
3492.0,0.0109
3491.0,0.0109
3490.0,0.0109
3489.0,0.0109
3488.0,0.0109
3487.0,0.011
3486.0,0.0111
3485.0,0.0111
3484.0,0.0111
3483.0,0.0111
3482.0,0.011
3481.0,0.0111
3480.0,0.011
3479.0,0.011
3478.0,0.0109
3477.0,0.0109
3476.0,0.0109
3475.0,0.0109
3474.0,0.0109
3473.0,0.011
3472.0,0.011
3471.0,0.0111
3470.0,0.0112
3469.0,0.0112
3468.0,0.0113
3467.0,0.0112
3466.0,0.0112
3465.0,0.0112
3464.0,0.0111
3463.0,0.011
3462.0,0.0108
3461.0,0.0108
3460.0,0.0108
3459.0,0.0109
3458.0,0.011
3457.0,0.0111
3456.0,0.0112
3455.0,0.0112
3454.0,0.0113
3453.0,0.0113
3452.0,0.0113
3451.0,0.0112
3450.0,0.0111
3449.0,0.011
3448.0,0.011
3447.0,0.0109
3446.0,0.0109
3445.0,0.0108
3444.0,0.0108
3443.0,0.0109
3442.0,0.011
3441.0,0.0111
3440.0,0.0111
3439.0,0.0111
3438.0,0.011
3437.0,0.0109
3436.0,0.0108
3435.0,0.0108
3434.0,0.0109
3433.0,0.011
3432.0,0.0111
3431.0,0.0111
3430.0,0.0112
3429.0,0.0112
3428.0,0.0112
3427.0,0.0112
3426.0,0.0112
3425.0,0.0113
3424.0,0.0113
3423.0,0.0114
3422.0,0.0114
3421.0,0.0113
3420.0,0.0111
3419.0,0.011
3418.0,0.0109
3417.0,0.0109
3416.0,0.0109
3415.0,0.0109
3414.0,0.0109
3413.0,0.011
3412.0,0.011
3411.0,0.0112
3410.0,0.0113
3409.0,0.0113
3408.0,0.0113
3407.0,0.0112
3406.0,0.0111
3405.0,0.0109
3404.0,0.0109
3403.0,0.0109
3402.0,0.0109
3401.0,0.011
3400.0,0.011
3399.0,0.0111
3398.0,0.0112
3397.0,0.0112
3396.0,0.0111
3395.0,0.011
3394.0,0.0109
3393.0,0.0109
3392.0,0.0109
3391.0,0.011
3390.0,0.011
3389.0,0.011
3388.0,0.0109
3387.0,0.0109
3386.0,0.0109
3385.0,0.0109
3384.0,0.011
3383.0,0.011
3382.0,0.011
3381.0,0.011
3380.0,0.0109
3379.0,0.0109
3378.0,0.0109
3377.0,0.0109
3376.0,0.011
3375.0,0.011
3374.0,0.0111
3373.0,0.0111
3372.0,0.0111
3371.0,0.011
3370.0,0.0109
3369.0,0.0109
3368.0,0.0109
3367.0,0.0109
3366.0,0.011
3365.0,0.011
3364.0,0.0109
3363.0,0.0109
3362.0,0.0109
3361.0,0.011
3360.0,0.011
3359.0,0.0111
3358.0,0.011
3357.0,0.011
3356.0,0.011
3355.0,0.011
3354.0,0.011
3353.0,0.0109
3352.0,0.0109
3351.0,0.0109
3350.0,0.0109
3349.0,0.011
3348.0,0.011
3347.0,0.011
3346.0,0.0109
3345.0,0.0109
3344.0,0.0108
3343.0,0.0108
3342.0,0.0108
3341.0,0.0109
3340.0,0.0109
3339.0,0.0109
3338.0,0.0109
3337.0,0.0109
3336.0,0.0109
3335.0,0.0109
3334.0,0.0108
3333.0,0.0108
3332.0,0.0107
3331.0,0.0107
3330.0,0.0107
3329.0,0.0107
3328.0,0.0106
3327.0,0.0106
3326.0,0.0106
3325.0,0.0106
3324.0,0.0107
3323.0,0.0106
3322.0,0.0106
3321.0,0.0106
3320.0,0.0106
3319.0,0.0105
3318.0,0.0105
3317.0,0.0105
3316.0,0.0104
3315.0,0.0104
3314.0,0.0105
3313.0,0.0105
3312.0,0.0105
3311.0,0.0104
3310.0,0.0104
3309.0,0.0103
3308.0,0.0104
3307.0,0.0104
3306.0,0.0105
3305.0,0.0106
3304.0,0.0106
3303.0,0.0105
3302.0,0.0104
3301.0,0.0103
3300.0,0.0103
3299.0,0.0103
3298.0,0.0104
3297.0,0.0104
3296.0,0.0104
3295.0,0.0103
3294.0,0.0103
3293.0,0.0103
3292.0,0.0104
3291.0,0.0104
3290.0,0.0105
3289.0,0.0105
3288.0,0.0104
3287.0,0.0103
3286.0,0.0103
3285.0,0.0103
3284.0,0.0103
3283.0,0.0103
3282.0,0.0103
3281.0,0.0103
3280.0,0.0104
3279.0,0.0104
3278.0,0.0103
3277.0,0.0103
3276.0,0.0102
3275.0,0.0102
3274.0,0.0101
3273.0,0.0101
3272.0,0.0101
3271.0,0.0102
3270.0,0.0103
3269.0,0.0104
3268.0,0.0104
3267.0,0.0103
3266.0,0.0101
3265.0,0.01
3264.0,0.0098
3263.0,0.0097
3262.0,0.0097
3261.0,0.0098
3260.0,0.0099
3259.0,0.01
3258.0,0.0101
3257.0,0.01
3256.0,0.01
3255.0,0.0099
3254.0,0.0099
3253.0,0.01
3252.0,0.01
3251.0,0.01
3250.0,0.01
3249.0,0.0099
3248.0,0.0098
3247.0,0.0097
3246.0,0.0097
3245.0,0.0097
3244.0,0.0098
3243.0,0.0099
3242.0,0.0099
3241.0,0.01
3240.0,0.0099
3239.0,0.0099
3238.0,0.0098
3237.0,0.0098
3236.0,0.0098
3235.0,0.0097
3234.0,0.0097
3233.0,0.0097
3232.0,0.0097
3231.0,0.0097
3230.0,0.0097
3229.0,0.0097
3228.0,0.0097
3227.0,0.0097
3226.0,0.0098
3225.0,0.0098
3224.0,0.0098
3223.0,0.0098
3222.0,0.0098
3221.0,0.0098
3220.0,0.0098
3219.0,0.0098
3218.0,0.0098
3217.0,0.0099
3216.0,0.0099
3215.0,0.0099
3214.0,0.0099
3213.0,0.0099
3212.0,0.01
3211.0,0.01
3210.0,0.01
3209.0,0.01
3208.0,0.0099
3207.0,0.0099
3206.0,0.0099
3205.0,0.0099
3204.0,0.0099
3203.0,0.0098
3202.0,0.0097
3201.0,0.0097
3200.0,0.0097
3199.0,0.0097
3198.0,0.0097
3197.0,0.0097
3196.0,0.0097
3195.0,0.0097
3194.0,0.0097
3193.0,0.0097
3192.0,0.0097
3191.0,0.0097
3190.0,0.0097
3189.0,0.0097
3188.0,0.0096
3187.0,0.0096
3186.0,0.0096
3185.0,0.0097
3184.0,0.0097
3183.0,0.0097
3182.0,0.0097
3181.0,0.0098
3180.0,0.0099
3179.0,0.0098
3178.0,0.0098
3177.0,0.0097
3176.0,0.0096
3175.0,0.0095
3174.0,0.0094
3173.0,0.0093
3172.0,0.0093
3171.0,0.0092
3170.0,0.0092
3169.0,0.0092
3168.0,0.0092
3167.0,0.0092
3166.0,0.0092
3165.0,0.0093
3164.0,0.0093
3163.0,0.0092
3162.0,0.0092
3161.0,0.0091
3160.0,0.0091
3159.0,0.0091
3158.0,0.0092
3157.0,0.0091
3156.0,0.0091
3155.0,0.0091
3154.0,0.0091
3153.0,0.0092
3152.0,0.0092
3151.0,0.0093
3150.0,0.0093
3149.0,0.0092
3148.0,0.0091
3147.0,0.0091
3146.0,0.009
3145.0,0.0089
3144.0,0.0089
3143.0,0.0088
3142.0,0.0088
3141.0,0.0088
3140.0,0.0088
3139.0,0.0088
3138.0,0.0088
3137.0,0.0088
3136.0,0.0088
3135.0,0.0088
3134.0,0.0088
3133.0,0.0087
3132.0,0.0087
3131.0,0.0086
3130.0,0.0085
3129.0,0.0084
3128.0,0.0084
3127.0,0.0084
3126.0,0.0084
3125.0,0.0084
3124.0,0.0084
3123.0,0.0083
3122.0,0.0083
3121.0,0.0082
3120.0,0.0083
3119.0,0.0083
3118.0,0.0083
3117.0,0.0083
3116.0,0.0083
3115.0,0.0082
3114.0,0.0082
3113.0,0.0081
3112.0,0.0081
3111.0,0.0081
3110.0,0.0081
3109.0,0.0081
3108.0,0.0081
3107.0,0.0081
3106.0,0.008
3105.0,0.008
3104.0,0.0079
3103.0,0.0079
3102.0,0.0078
3101.0,0.0077
3100.0,0.0075
3099.0,0.0074
3098.0,0.0074
3097.0,0.0075
3096.0,0.0076
3095.0,0.0076
3094.0,0.0075
3093.0,0.0075
3092.0,0.0075
3091.0,0.0075
3090.0,0.0075
3089.0,0.0075
3088.0,0.0075
3087.0,0.0075
3086.0,0.0074
3085.0,0.0073
3084.0,0.0072
3083.0,0.0071
3082.0,0.0071
3081.0,0.0071
3080.0,0.007
3079.0,0.007
3078.0,0.0071
3077.0,0.0071
3076.0,0.0071
3075.0,0.0071
3074.0,0.007
3073.0,0.007
3072.0,0.007
3071.0,0.0069
3070.0,0.0069
3069.0,0.0069
3068.0,0.0069
3067.0,0.0069
3066.0,0.0069
3065.0,0.0068
3064.0,0.0068
3063.0,0.0068
3062.0,0.0068
3061.0,0.0067
3060.0,0.0067
3059.0,0.0066
3058.0,0.0065
3057.0,0.0065
3056.0,0.0064
3055.0,0.0063
3054.0,0.0062
3053.0,0.0061
3052.0,0.006
3051.0,0.006
3050.0,0.006
3049.0,0.0059
3048.0,0.0059
3047.0,0.0057
3046.0,0.0056
3045.0,0.0055
3044.0,0.0055
3043.0,0.0056
3042.0,0.0057
3041.0,0.0058
3040.0,0.0058
3039.0,0.0058
3038.0,0.0057
3037.0,0.0056
3036.0,0.0056
3035.0,0.0055
3034.0,0.0054
3033.0,0.0054
3032.0,0.0053
3031.0,0.0053
3030.0,0.0053
3029.0,0.0052
3028.0,0.0052
3027.0,0.0053
3026.0,0.0053
3025.0,0.0053
3024.0,0.0052
3023.0,0.0052
3022.0,0.0051
3021.0,0.005
3020.0,0.0049
3019.0,0.0048
3018.0,0.0048
3017.0,0.0048
3016.0,0.0047
3015.0,0.0047
3014.0,0.0045
3013.0,0.0044
3012.0,0.0043
3011.0,0.0042
3010.0,0.0042
3009.0,0.0041
3008.0,0.0041
3007.0,0.004
3006.0,0.004
3005.0,0.004
3004.0,0.0041
3003.0,0.0041
3002.0,0.0041
3001.0,0.0041
3000.0,0.0041
2999.0,0.0042
2998.0,0.0042
2997.0,0.0042
2996.0,0.0043
2995.0,0.0044
2994.0,0.0046
2993.0,0.0049
2992.0,0.0051
2991.0,0.0054
2990.0,0.0057
2989.0,0.0061
2988.0,0.0065
2987.0,0.0069
2986.0,0.0073
2985.0,0.0079
2984.0,0.0085
2983.0,0.0093
2982.0,0.0103
2981.0,0.0114
2980.0,0.0127
2979.0,0.0142
2978.0,0.0159
2977.0,0.0179
2976.0,0.0202
2975.0,0.0229
2974.0,0.026
2973.0,0.0295
2972.0,0.0335
2971.0,0.0378
2970.0,0.0426
2969.0,0.0479
2968.0,0.0535
2967.0,0.0594
2966.0,0.0654
2965.0,0.0713
2964.0,0.0768
2963.0,0.0815
2962.0,0.0851
2961.0,0.0876
2960.0,0.0891
2959.0,0.0904
2958.0,0.0919
2957.0,0.0944
2956.0,0.0982
2955.0,0.1034
2954.0,0.1099
2953.0,0.1168
2952.0,0.1232
2951.0,0.1277
2950.0,0.1295
2949.0,0.128
2948.0,0.1233
2947.0,0.1163
2946.0,0.1079
2945.0,0.0991
2944.0,0.0908
2943.0,0.0835
2942.0,0.0777
2941.0,0.0734
2940.0,0.0706
2939.0,0.0692
2938.0,0.069
2937.0,0.07
2936.0,0.072
2935.0,0.0751
2934.0,0.0791
2933.0,0.0841
2932.0,0.09
2931.0,0.0966
2930.0,0.1038
2929.0,0.1113
2928.0,0.1189
2927.0,0.1265
2926.0,0.1339
2925.0,0.1412
2924.0,0.1486
2923.0,0.1563
2922.0,0.1643
2921.0,0.1722
2920.0,0.1793
2919.0,0.1846
2918.0,0.1873
2917.0,0.1869
2916.0,0.1836
2915.0,0.178
2914.0,0.1712
2913.0,0.164
2912.0,0.1574
2911.0,0.1516
2910.0,0.1467
2909.0,0.1424
2908.0,0.1385
2907.0,0.1347
2906.0,0.1309
2905.0,0.1271
2904.0,0.1232
2903.0,0.1193
2902.0,0.1155
2901.0,0.1118
2900.0,0.1083
2899.0,0.1049
2898.0,0.1016
2897.0,0.0986
2896.0,0.0958
2895.0,0.0933
2894.0,0.0912
2893.0,0.0896
2892.0,0.0883
2891.0,0.0873
2890.0,0.0867
2889.0,0.0863
2888.0,0.0861
2887.0,0.0862
2886.0,0.0864
2885.0,0.0868
2884.0,0.0873
2883.0,0.0881
2882.0,0.0891
2881.0,0.0902
2880.0,0.0911
2879.0,0.0917
2878.0,0.0918
2877.0,0.0915
2876.0,0.0908
2875.0,0.0902
2874.0,0.0899
2873.0,0.0901
2872.0,0.0908
2871.0,0.092
2870.0,0.0935
2869.0,0.095
2868.0,0.0961
2867.0,0.0963
2866.0,0.0951
2865.0,0.0924
2864.0,0.0883
2863.0,0.0834
2862.0,0.0784
2861.0,0.0738
2860.0,0.0701
2859.0,0.0675
2858.0,0.0658
2857.0,0.0651
2856.0,0.0653
2855.0,0.0664
2854.0,0.0684
2853.0,0.0709
2852.0,0.0739
2851.0,0.0767
2850.0,0.0789
2849.0,0.0801
2848.0,0.0805
2847.0,0.0809
2846.0,0.0817
2845.0,0.0834
2844.0,0.086
2843.0,0.0892
2842.0,0.0925
2841.0,0.0955
2840.0,0.0976
2839.0,0.0984
2838.0,0.0977
2837.0,0.0953
2836.0,0.0914
2835.0,0.0865
2834.0,0.0809
2833.0,0.0751
2832.0,0.0697
2831.0,0.0649
2830.0,0.0607
2829.0,0.0572
2828.0,0.0543
2827.0,0.052
2826.0,0.0501
2825.0,0.0484
2824.0,0.0469
2823.0,0.0455
2822.0,0.0442
2821.0,0.0431
2820.0,0.0421
2819.0,0.0413
2818.0,0.0406
2817.0,0.04
2816.0,0.0394
2815.0,0.0387
2814.0,0.0381
2813.0,0.0375
2812.0,0.037
2811.0,0.0365
2810.0,0.0361
2809.0,0.0356
2808.0,0.0351
2807.0,0.0346
2806.0,0.034
2805.0,0.0335
2804.0,0.033
2803.0,0.0325
2802.0,0.032
2801.0,0.0316
2800.0,0.0312
2799.0,0.0309
2798.0,0.0306
2797.0,0.0304
2796.0,0.0302
2795.0,0.0301
2794.0,0.0298
2793.0,0.0295
2792.0,0.0292
2791.0,0.0288
2790.0,0.0284
2789.0,0.028
2788.0,0.0277
2787.0,0.0274
2786.0,0.0272
2785.0,0.027
2784.0,0.0268
2783.0,0.0266
2782.0,0.0263
2781.0,0.026
2780.0,0.0257
2779.0,0.0255
2778.0,0.0252
2777.0,0.0251
2776.0,0.025
2775.0,0.0249
2774.0,0.0247
2773.0,0.0245
2772.0,0.0243
2771.0,0.0241
2770.0,0.0241
2769.0,0.024
2768.0,0.024
2767.0,0.0239
2766.0,0.0238
2765.0,0.0237
2764.0,0.0236
2763.0,0.0235
2762.0,0.0235
2761.0,0.0233
2760.0,0.0232
2759.0,0.023
2758.0,0.023
2757.0,0.0229
2756.0,0.0229
2755.0,0.0228
2754.0,0.0227
2753.0,0.0226
2752.0,0.0225
2751.0,0.0224
2750.0,0.0223
2749.0,0.0222
2748.0,0.0221
2747.0,0.022
2746.0,0.022
2745.0,0.0221
2744.0,0.0222
2743.0,0.0223
2742.0,0.0223
2741.0,0.0223
2740.0,0.0224
2739.0,0.0224
2738.0,0.0224
2737.0,0.0225
2736.0,0.0225
2735.0,0.0225
2734.0,0.0226
2733.0,0.0226
2732.0,0.0227
2731.0,0.0227
2730.0,0.0229
2729.0,0.023
2728.0,0.0233
2727.0,0.0236
2726.0,0.0238
2725.0,0.024
2724.0,0.0241
2723.0,0.024
2722.0,0.024
2721.0,0.0239
2720.0,0.0238
2719.0,0.0236
2718.0,0.0233
2717.0,0.023
2716.0,0.0228
2715.0,0.0226
2714.0,0.0225
2713.0,0.0223
2712.0,0.0221
2711.0,0.022
2710.0,0.0218
2709.0,0.0217
2708.0,0.0215
2707.0,0.0214
2706.0,0.0212
2705.0,0.0211
2704.0,0.021
2703.0,0.0209
2702.0,0.0209
2701.0,0.0208
2700.0,0.0207
2699.0,0.0206
2698.0,0.0206
2697.0,0.0206
2696.0,0.0206
2695.0,0.0206
2694.0,0.0205
2693.0,0.0204
2692.0,0.0203
2691.0,0.0203
2690.0,0.0202
2689.0,0.0202
2688.0,0.0202
2687.0,0.0202
2686.0,0.0202
2685.0,0.0203
2684.0,0.0203
2683.0,0.0203
2682.0,0.0203
2681.0,0.0202
2680.0,0.0201
2679.0,0.0201
2678.0,0.0201
2677.0,0.0201
2676.0,0.02
2675.0,0.02
2674.0,0.0199
2673.0,0.0199
2672.0,0.0198
2671.0,0.0198
2670.0,0.0198
2669.0,0.0197
2668.0,0.0197
2667.0,0.0198
2666.0,0.0198
2665.0,0.0199
2664.0,0.0199
2663.0,0.0198
2662.0,0.0198
2661.0,0.0198
2660.0,0.0198
2659.0,0.0198
2658.0,0.0198
2657.0,0.0197
2656.0,0.0196
2655.0,0.0195
2654.0,0.0194
2653.0,0.0194
2652.0,0.0193
2651.0,0.0191
2650.0,0.0191
2649.0,0.019
2648.0,0.019
2647.0,0.0189
2646.0,0.0189
2645.0,0.019
2644.0,0.019
2643.0,0.019
2642.0,0.0189
2641.0,0.0188
2640.0,0.0188
2639.0,0.0187
2638.0,0.0187
2637.0,0.0187
2636.0,0.0186
2635.0,0.0185
2634.0,0.0185
2633.0,0.0184
2632.0,0.0184
2631.0,0.0185
2630.0,0.0185
2629.0,0.0185
2628.0,0.0185
2627.0,0.0186
2626.0,0.0186
2625.0,0.0186
2624.0,0.0186
2623.0,0.0186
2622.0,0.0186
2621.0,0.0186
2620.0,0.0185
2619.0,0.0186
2618.0,0.0186
2617.0,0.0186
2616.0,0.0186
2615.0,0.0186
2614.0,0.0186
2613.0,0.0185
2612.0,0.0185
2611.0,0.0184
2610.0,0.0184
2609.0,0.0183
2608.0,0.0182
2607.0,0.0181
2606.0,0.0181
2605.0,0.0181
2604.0,0.018
2603.0,0.0179
2602.0,0.0178
2601.0,0.0177
2600.0,0.0177
2599.0,0.0177
2598.0,0.0177
2597.0,0.0177
2596.0,0.0177
2595.0,0.0178
2594.0,0.0178
2593.0,0.0178
2592.0,0.0179
2591.0,0.018
2590.0,0.018
2589.0,0.018
2588.0,0.0181
2587.0,0.0181
2586.0,0.0182
2585.0,0.0183
2584.0,0.0185
2583.0,0.0185
2582.0,0.0185
2581.0,0.0185
2580.0,0.0184
2579.0,0.0184
2578.0,0.0183
2577.0,0.0182
2576.0,0.018
2575.0,0.0179
2574.0,0.0178
2573.0,0.0178
2572.0,0.0177
2571.0,0.0176
2570.0,0.0176
2569.0,0.0175
2568.0,0.0175
2567.0,0.0174
2566.0,0.0173
2565.0,0.0172
2564.0,0.0171
2563.0,0.017
2562.0,0.017
2561.0,0.017
2560.0,0.017
2559.0,0.017
2558.0,0.017
2557.0,0.0171
2556.0,0.0171
2555.0,0.0172
2554.0,0.0172
2553.0,0.0172
2552.0,0.0171
2551.0,0.0169
2550.0,0.0168
2549.0,0.0167
2548.0,0.0167
2547.0,0.0166
2546.0,0.0166
2545.0,0.0166
2544.0,0.0166
2543.0,0.0166
2542.0,0.0165
2541.0,0.0165
2540.0,0.0165
2539.0,0.0165
2538.0,0.0165
2537.0,0.0165
2536.0,0.0164
2535.0,0.0164
2534.0,0.0164
2533.0,0.0165
2532.0,0.0165
2531.0,0.0165
2530.0,0.0164
2529.0,0.0164
2528.0,0.0163
2527.0,0.0163
2526.0,0.0163
2525.0,0.0163
2524.0,0.0162
2523.0,0.0162
2522.0,0.0161
2521.0,0.0161
2520.0,0.016
2519.0,0.016
2518.0,0.016
2517.0,0.016
2516.0,0.0159
2515.0,0.0159
2514.0,0.0158
2513.0,0.0159
2512.0,0.0159
2511.0,0.016
2510.0,0.016
2509.0,0.0159
2508.0,0.0159
2507.0,0.0159
2506.0,0.0158
2505.0,0.0157
2504.0,0.0157
2503.0,0.0157
2502.0,0.0156
2501.0,0.0156
2500.0,0.0157
2499.0,0.0157
2498.0,0.0157
2497.0,0.0158
2496.0,0.0158
2495.0,0.0158
2494.0,0.0158
2493.0,0.0157
2492.0,0.0157
2491.0,0.0157
2490.0,0.0157
2489.0,0.0156
2488.0,0.0156
2487.0,0.0156
2486.0,0.0157
2485.0,0.0157
2484.0,0.0156
2483.0,0.0156
2482.0,0.0156
2481.0,0.0157
2480.0,0.0157
2479.0,0.0157
2478.0,0.0157
2477.0,0.0157
2476.0,0.0156
2475.0,0.0156
2474.0,0.0156
2473.0,0.0155
2472.0,0.0155
2471.0,0.0155
2470.0,0.0155
2469.0,0.0155
2468.0,0.0155
2467.0,0.0154
2466.0,0.0154
2465.0,0.0154
2464.0,0.0154
2463.0,0.0154
2462.0,0.0154
2461.0,0.0155
2460.0,0.0155
2459.0,0.0155
2458.0,0.0154
2457.0,0.0154
2456.0,0.0154
2455.0,0.0154
2454.0,0.0154
2453.0,0.0154
2452.0,0.0153
2451.0,0.0153
2450.0,0.0154
2449.0,0.0154
2448.0,0.0154
2447.0,0.0154
2446.0,0.0153
2445.0,0.0153
2444.0,0.0152
2443.0,0.0152
2442.0,0.0152
2441.0,0.0152
2440.0,0.0152
2439.0,0.0153
2438.0,0.0153
2437.0,0.0153
2436.0,0.0153
2435.0,0.0153
2434.0,0.0154
2433.0,0.0154
2432.0,0.0155
2431.0,0.0155
2430.0,0.0155
2429.0,0.0155
2428.0,0.0155
2427.0,0.0155
2426.0,0.0156
2425.0,0.0156
2424.0,0.0156
2423.0,0.0156
2422.0,0.0155
2421.0,0.0155
2420.0,0.0155
2419.0,0.0154
2418.0,0.0154
2417.0,0.0154
2416.0,0.0153
2415.0,0.0153
2414.0,0.0153
2413.0,0.0152
2412.0,0.0152
2411.0,0.0153
2410.0,0.0153
2409.0,0.0154
2408.0,0.0154
2407.0,0.0153
2406.0,0.0153
2405.0,0.0153
2404.0,0.0153
2403.0,0.0153
2402.0,0.0153
2401.0,0.0153
2400.0,0.0152
2399.0,0.0152
2398.0,0.0151
2397.0,0.0151
2396.0,0.0151
2395.0,0.0151
2394.0,0.0151
2393.0,0.0152
2392.0,0.0152
2391.0,0.0152
2390.0,0.0151
2389.0,0.015
2388.0,0.015
2387.0,0.0149
2386.0,0.0149
2385.0,0.0148
2384.0,0.0148
2383.0,0.0148
2382.0,0.0148
2381.0,0.0146
2380.0,0.0145
2379.0,0.0144
2378.0,0.0142
2377.0,0.0142
2376.0,0.0142
2375.0,0.0144
2374.0,0.0148
2373.0,0.0152
2372.0,0.0152
2371.0,0.0148
2370.0,0.0142
2369.0,0.0136
2368.0,0.0129
2367.0,0.0121
2366.0,0.0118
2365.0,0.0121
2364.0,0.0124
2363.0,0.0124
2362.0,0.013
2361.0,0.0147
2360.0,0.0171
2359.0,0.0186
2358.0,0.0184
2357.0,0.0171
2356.0,0.0158
2355.0,0.0148
2354.0,0.0142
2353.0,0.0136
2352.0,0.0132
2351.0,0.013
2350.0,0.0133
2349.0,0.0137
2348.0,0.0139
2347.0,0.0139
2346.0,0.0139
2345.0,0.0139
2344.0,0.014
2343.0,0.014
2342.0,0.0138
2341.0,0.0135
2340.0,0.013
2339.0,0.0127
2338.0,0.0127
2337.0,0.0129
2336.0,0.0132
2335.0,0.0134
2334.0,0.0135
2333.0,0.0135
2332.0,0.0134
2331.0,0.0136
2330.0,0.0139
2329.0,0.0143
2328.0,0.0145
2327.0,0.0145
2326.0,0.0146
2325.0,0.0147
2324.0,0.0148
2323.0,0.0148
2322.0,0.0146
2321.0,0.0144
2320.0,0.0143
2319.0,0.0142
2318.0,0.0142
2317.0,0.0141
2316.0,0.014
2315.0,0.0138
2314.0,0.0136
2313.0,0.0134
2312.0,0.0133
2311.0,0.0133
2310.0,0.0134
2309.0,0.0135
2308.0,0.0136
2307.0,0.0137
2306.0,0.0138
2305.0,0.0139
2304.0,0.0139
2303.0,0.014
2302.0,0.014
2301.0,0.014
2300.0,0.014
2299.0,0.0139
2298.0,0.0139
2297.0,0.0139
2296.0,0.0139
2295.0,0.014
2294.0,0.0142
2293.0,0.0143
2292.0,0.0144
2291.0,0.0144
2290.0,0.0145
2289.0,0.0145
2288.0,0.0144
2287.0,0.0144
2286.0,0.0144
2285.0,0.0145
2284.0,0.0145
2283.0,0.0145
2282.0,0.0145
2281.0,0.0144
2280.0,0.0144
2279.0,0.0144
2278.0,0.0144
2277.0,0.0144
2276.0,0.0144
2275.0,0.0144
2274.0,0.0144
2273.0,0.0144
2272.0,0.0144
2271.0,0.0144
2270.0,0.0143
2269.0,0.0143
2268.0,0.0143
2267.0,0.0143
2266.0,0.0144
2265.0,0.0145
2264.0,0.0145
2263.0,0.0145
2262.0,0.0145
2261.0,0.0145
2260.0,0.0144
2259.0,0.0144
2258.0,0.0144
2257.0,0.0144
2256.0,0.0144
2255.0,0.0144
2254.0,0.0144
2253.0,0.0144
2252.0,0.0145
2251.0,0.0145
2250.0,0.0145
2249.0,0.0145
2248.0,0.0144
2247.0,0.0144
2246.0,0.0144
2245.0,0.0144
2244.0,0.0144
2243.0,0.0144
2242.0,0.0144
2241.0,0.0144
2240.0,0.0145
2239.0,0.0145
2238.0,0.0144
2237.0,0.0144
2236.0,0.0144
2235.0,0.0144
2234.0,0.0144
2233.0,0.0144
2232.0,0.0145
2231.0,0.0145
2230.0,0.0145
2229.0,0.0144
2228.0,0.0144
2227.0,0.0144
2226.0,0.0144
2225.0,0.0145
2224.0,0.0145
2223.0,0.0144
2222.0,0.0144
2221.0,0.0143
2220.0,0.0143
2219.0,0.0143
2218.0,0.0143
2217.0,0.0142
2216.0,0.0142
2215.0,0.0142
2214.0,0.0142
2213.0,0.0143
2212.0,0.0143
2211.0,0.0143
2210.0,0.0143
2209.0,0.0143
2208.0,0.0143
2207.0,0.0143
2206.0,0.0143
2205.0,0.0144
2204.0,0.0144
2203.0,0.0145
2202.0,0.0145
2201.0,0.0145
2200.0,0.0145
2199.0,0.0145
2198.0,0.0145
2197.0,0.0145
2196.0,0.0144
2195.0,0.0144
2194.0,0.0143
2193.0,0.0143
2192.0,0.0143
2191.0,0.0144
2190.0,0.0144
2189.0,0.0144
2188.0,0.0144
2187.0,0.0144
2186.0,0.0144
2185.0,0.0144
2184.0,0.0144
2183.0,0.0144
2182.0,0.0144
2181.0,0.0144
2180.0,0.0144
2179.0,0.0144
2178.0,0.0144
2177.0,0.0143
2176.0,0.0143
2175.0,0.0143
2174.0,0.0143
2173.0,0.0144
2172.0,0.0144
2171.0,0.0144
2170.0,0.0144
2169.0,0.0144
2168.0,0.0144
2167.0,0.0143
2166.0,0.0143
2165.0,0.0143
2164.0,0.0144
2163.0,0.0144
2162.0,0.0143
2161.0,0.0143
2160.0,0.0143
2159.0,0.0143
2158.0,0.0143
2157.0,0.0144
2156.0,0.0144
2155.0,0.0144
2154.0,0.0144
2153.0,0.0143
2152.0,0.0143
2151.0,0.0143
2150.0,0.0142
2149.0,0.0142
2148.0,0.0142
2147.0,0.0142
2146.0,0.0142
2145.0,0.0142
2144.0,0.0141
2143.0,0.0141
2142.0,0.0141
2141.0,0.0141
2140.0,0.0142
2139.0,0.0142
2138.0,0.0142
2137.0,0.0142
2136.0,0.0142
2135.0,0.0142
2134.0,0.0143
2133.0,0.0143
2132.0,0.0143
2131.0,0.0143
2130.0,0.0144
2129.0,0.0144
2128.0,0.0144
2127.0,0.0144
2126.0,0.0144
2125.0,0.0143
2124.0,0.0143
2123.0,0.0142
2122.0,0.0141
2121.0,0.0141
2120.0,0.0142
2119.0,0.0142
2118.0,0.0142
2117.0,0.0142
2116.0,0.0141
2115.0,0.0141
2114.0,0.014
2113.0,0.0139
2112.0,0.0139
2111.0,0.0139
2110.0,0.0139
2109.0,0.014
2108.0,0.014
2107.0,0.014
2106.0,0.014
2105.0,0.0141
2104.0,0.0141
2103.0,0.0141
2102.0,0.0142
2101.0,0.0142
2100.0,0.0141
2099.0,0.0141
2098.0,0.014
2097.0,0.014
2096.0,0.014
2095.0,0.014
2094.0,0.014
2093.0,0.0139
2092.0,0.014
2091.0,0.014
2090.0,0.014
2089.0,0.014
2088.0,0.014
2087.0,0.014
2086.0,0.014
2085.0,0.014
2084.0,0.014
2083.0,0.014
2082.0,0.014
2081.0,0.014
2080.0,0.014
2079.0,0.014
2078.0,0.014
2077.0,0.014
2076.0,0.014
2075.0,0.014
2074.0,0.014
2073.0,0.014
2072.0,0.014
2071.0,0.014
2070.0,0.014
2069.0,0.014
2068.0,0.014
2067.0,0.014
2066.0,0.014
2065.0,0.0141
2064.0,0.014
2063.0,0.014
2062.0,0.014
2061.0,0.0141
2060.0,0.0141
2059.0,0.014
2058.0,0.014
2057.0,0.014
2056.0,0.014
2055.0,0.014
2054.0,0.014
2053.0,0.014
2052.0,0.014
2051.0,0.014
2050.0,0.0139
2049.0,0.0138
2048.0,0.0138
2047.0,0.0139
2046.0,0.014
2045.0,0.014
2044.0,0.014
2043.0,0.014
2042.0,0.014
2041.0,0.014
2040.0,0.014
2039.0,0.014
2038.0,0.014
2037.0,0.014
2036.0,0.0139
2035.0,0.0139
2034.0,0.0139
2033.0,0.014
2032.0,0.014
2031.0,0.014
2030.0,0.014
2029.0,0.0139
2028.0,0.014
2027.0,0.014
2026.0,0.0141
2025.0,0.0141
2024.0,0.0141
2023.0,0.0141
2022.0,0.0141
2021.0,0.0141
2020.0,0.014
2019.0,0.014
2018.0,0.0141
2017.0,0.0141
2016.0,0.0141
2015.0,0.014
2014.0,0.014
2013.0,0.0139
2012.0,0.0139
2011.0,0.0139
2010.0,0.014
2009.0,0.014
2008.0,0.014
2007.0,0.014
2006.0,0.014
2005.0,0.014
2004.0,0.014
2003.0,0.014
2002.0,0.014
2001.0,0.014
2000.0,0.014
1999.0,0.014
1998.0,0.0139
1997.0,0.0139
1996.0,0.0138
1995.0,0.0138
1994.0,0.0138
1993.0,0.0139
1992.0,0.0139
1991.0,0.0139
1990.0,0.0139
1989.0,0.014
1988.0,0.014
1987.0,0.014
1986.0,0.014
1985.0,0.0139
1984.0,0.0139
1983.0,0.0139
1982.0,0.0139
1981.0,0.0139
1980.0,0.0139
1979.0,0.0138
1978.0,0.0138
1977.0,0.0138
1976.0,0.0139
1975.0,0.0139
1974.0,0.0139
1973.0,0.014
1972.0,0.014
1971.0,0.014
1970.0,0.014
1969.0,0.014
1968.0,0.014
1967.0,0.014
1966.0,0.014
1965.0,0.014
1964.0,0.014
1963.0,0.014
1962.0,0.0139
1961.0,0.0139
1960.0,0.0139
1959.0,0.0139
1958.0,0.0139
1957.0,0.0139
1956.0,0.0139
1955.0,0.0139
1954.0,0.0139
1953.0,0.0139
1952.0,0.0139
1951.0,0.0139
1950.0,0.0139
1949.0,0.0138
1948.0,0.0138
1947.0,0.0139
1946.0,0.0139
1945.0,0.014
1944.0,0.014
1943.0,0.014
1942.0,0.014
1941.0,0.014
1940.0,0.014
1939.0,0.014
1938.0,0.0139
1937.0,0.0139
1936.0,0.014
1935.0,0.014
1934.0,0.014
1933.0,0.014
1932.0,0.014
1931.0,0.014
1930.0,0.014
1929.0,0.0139
1928.0,0.0139
1927.0,0.0139
1926.0,0.0138
1925.0,0.0138
1924.0,0.0139
1923.0,0.0139
1922.0,0.014
1921.0,0.014
1920.0,0.0141
1919.0,0.0141
1918.0,0.0141
1917.0,0.014
1916.0,0.014
1915.0,0.014
1914.0,0.014
1913.0,0.014
1912.0,0.014
1911.0,0.014
1910.0,0.014
1909.0,0.014
1908.0,0.014
1907.0,0.014
1906.0,0.0139
1905.0,0.0139
1904.0,0.0139
1903.0,0.0139
1902.0,0.0139
1901.0,0.014
1900.0,0.014
1899.0,0.0141
1898.0,0.0141
1897.0,0.0142
1896.0,0.0142
1895.0,0.0142
1894.0,0.0142
1893.0,0.0141
1892.0,0.014
1891.0,0.014
1890.0,0.014
1889.0,0.014
1888.0,0.014
1887.0,0.014
1886.0,0.014
1885.0,0.014
1884.0,0.014
1883.0,0.014
1882.0,0.014
1881.0,0.014
1880.0,0.014
1879.0,0.014
1878.0,0.014
1877.0,0.014
1876.0,0.014
1875.0,0.0139
1874.0,0.014
1873.0,0.014
1872.0,0.0141
1871.0,0.0141
1870.0,0.0141
1869.0,0.014
1868.0,0.014
1867.0,0.0139
1866.0,0.0139
1865.0,0.0139
1864.0,0.0139
1863.0,0.0138
1862.0,0.0139
1861.0,0.0139
1860.0,0.0139
1859.0,0.014
1858.0,0.014
1857.0,0.014
1856.0,0.014
1855.0,0.014
1854.0,0.014
1853.0,0.0139
1852.0,0.0139
1851.0,0.0139
1850.0,0.0139
1849.0,0.0139
1848.0,0.0139
1847.0,0.014
1846.0,0.0141
1845.0,0.0142
1844.0,0.0142
1843.0,0.0141
1842.0,0.0141
1841.0,0.0141
1840.0,0.0141
1839.0,0.014
1838.0,0.014
1837.0,0.0141
1836.0,0.0141
1835.0,0.0141
1834.0,0.0141
1833.0,0.0141
1832.0,0.0141
1831.0,0.0141
1830.0,0.0141
1829.0,0.014
1828.0,0.014
1827.0,0.014
1826.0,0.014
1825.0,0.014
1824.0,0.014
1823.0,0.014
1822.0,0.014
1821.0,0.0139
1820.0,0.0139
1819.0,0.0139
1818.0,0.0138
1817.0,0.0139
1816.0,0.0139
1815.0,0.0139
1814.0,0.0139
1813.0,0.0139
1812.0,0.0139
1811.0,0.0139
1810.0,0.0139
1809.0,0.0139
1808.0,0.0139
1807.0,0.0139
1806.0,0.0139
1805.0,0.014
1804.0,0.014
1803.0,0.014
1802.0,0.0141
1801.0,0.0141
1800.0,0.014
1799.0,0.014
1798.0,0.0139
1797.0,0.0139
1796.0,0.014
1795.0,0.014
1794.0,0.014
1793.0,0.0141
1792.0,0.0141
1791.0,0.0141
1790.0,0.014
1789.0,0.014
1788.0,0.014
1787.0,0.014
1786.0,0.0141
1785.0,0.0141
1784.0,0.0141
1783.0,0.0141
1782.0,0.014
1781.0,0.014
1780.0,0.014
1779.0,0.014
1778.0,0.014
1777.0,0.014
1776.0,0.014
1775.0,0.014
1774.0,0.014
1773.0,0.014
1772.0,0.0141
1771.0,0.0141
1770.0,0.0141
1769.0,0.0142
1768.0,0.0142
1767.0,0.0142
1766.0,0.0142
1765.0,0.0142
1764.0,0.0142
1763.0,0.0142
1762.0,0.0142
1761.0,0.0142
1760.0,0.0143
1759.0,0.0144
1758.0,0.0145
1757.0,0.0146
1756.0,0.0147
1755.0,0.0147
1754.0,0.0147
1753.0,0.0147
1752.0,0.0148
1751.0,0.015
1750.0,0.0152
1749.0,0.0153
1748.0,0.0154
1747.0,0.0155
1746.0,0.0155
1745.0,0.0155
1744.0,0.0156
1743.0,0.0156
1742.0,0.0156
1741.0,0.0155
1740.0,0.0155
1739.0,0.0155
1738.0,0.0155
1737.0,0.0156
1736.0,0.0156
1735.0,0.0156
1734.0,0.0156
1733.0,0.0155
1732.0,0.0154
1731.0,0.0154
1730.0,0.0154
1729.0,0.0154
1728.0,0.0153
1727.0,0.0153
1726.0,0.0153
1725.0,0.0153
1724.0,0.0153
1723.0,0.0153
1722.0,0.0153
1721.0,0.0153
1720.0,0.0153
1719.0,0.0153
1718.0,0.0152
1717.0,0.0152
1716.0,0.0151
1715.0,0.0151
1714.0,0.0151
1713.0,0.0151
1712.0,0.0151
1711.0,0.0151
1710.0,0.0151
1709.0,0.0152
1708.0,0.0152
1707.0,0.0152
1706.0,0.0152
1705.0,0.0151
1704.0,0.0151
1703.0,0.0152
1702.0,0.0153
1701.0,0.0154
1700.0,0.0155
1699.0,0.0154
1698.0,0.0156
1697.0,0.0157
1696.0,0.0156
1695.0,0.0154
1694.0,0.0153
1693.0,0.0153
1692.0,0.0154
1691.0,0.0154
1690.0,0.0154
1689.0,0.0154
1688.0,0.0154
1687.0,0.0154
1686.0,0.0152
1685.0,0.0152
1684.0,0.0153
1683.0,0.0153
1682.0,0.0154
1681.0,0.0155
1680.0,0.0155
1679.0,0.0155
1678.0,0.0155
1677.0,0.0156
1676.0,0.0157
1675.0,0.0157
1674.0,0.0156
1673.0,0.0156
1672.0,0.0156
1671.0,0.0157
1670.0,0.0158
1669.0,0.0159
1668.0,0.0159
1667.0,0.0159
1666.0,0.0159
1665.0,0.0159
1664.0,0.0158
1663.0,0.0159
1662.0,0.0159
1661.0,0.016
1660.0,0.0161
1659.0,0.0161
1658.0,0.0161
1657.0,0.0161
1656.0,0.0161
1655.0,0.016
1654.0,0.0161
1653.0,0.0163
1652.0,0.0162
1651.0,0.0162
1650.0,0.0163
1649.0,0.0162
1648.0,0.0163
1647.0,0.0164
1646.0,0.0166
1645.0,0.0167
1644.0,0.0167
1643.0,0.0168
1642.0,0.0168
1641.0,0.0168
1640.0,0.0167
1639.0,0.0166
1638.0,0.0166
1637.0,0.0167
1636.0,0.0169
1635.0,0.0169
1634.0,0.0167
1633.0,0.0167
1632.0,0.0166
1631.0,0.0166
1630.0,0.0165
1629.0,0.0165
1628.0,0.0165
1627.0,0.0164
1626.0,0.0164
1625.0,0.0164
1624.0,0.0165
1623.0,0.0165
1622.0,0.0165
1621.0,0.0165
1620.0,0.0164
1619.0,0.0164
1618.0,0.0162
1617.0,0.0161
1616.0,0.016
1615.0,0.0159
1614.0,0.016
1613.0,0.016
1612.0,0.016
1611.0,0.0159
1610.0,0.0159
1609.0,0.016
1608.0,0.0161
1607.0,0.0162
1606.0,0.0163
1605.0,0.0163
1604.0,0.0163
1603.0,0.0163
1602.0,0.0163
1601.0,0.0162
1600.0,0.0161
1599.0,0.016
1598.0,0.0158
1597.0,0.0157
1596.0,0.0156
1595.0,0.0156
1594.0,0.0156
1593.0,0.0156
1592.0,0.0156
1591.0,0.0155
1590.0,0.0155
1589.0,0.0155
1588.0,0.0155
1587.0,0.0155
1586.0,0.0155
1585.0,0.0156
1584.0,0.0157
1583.0,0.0157
1582.0,0.0157
1581.0,0.0157
1580.0,0.0157
1579.0,0.0157
1578.0,0.0156
1577.0,0.0156
1576.0,0.0157
1575.0,0.0156
1574.0,0.0156
1573.0,0.0156
1572.0,0.0155
1571.0,0.0155
1570.0,0.0155
1569.0,0.0155
1568.0,0.0155
1567.0,0.0154
1566.0,0.0154
1565.0,0.0154
1564.0,0.0154
1563.0,0.0155
1562.0,0.0155
1561.0,0.0154
1560.0,0.0154
1559.0,0.0157
1558.0,0.0156
1557.0,0.0156
1556.0,0.0157
1555.0,0.0158
1554.0,0.0158
1553.0,0.0158
1552.0,0.0157
1551.0,0.0158
1550.0,0.0158
1549.0,0.0158
1548.0,0.0159
1547.0,0.0159
1546.0,0.0158
1545.0,0.0158
1544.0,0.0158
1543.0,0.0158
1542.0,0.0158
1541.0,0.0161
1540.0,0.0163
1539.0,0.016
1538.0,0.0157
1537.0,0.0157
1536.0,0.0157
1535.0,0.0156
1534.0,0.0154
1533.0,0.0154
1532.0,0.0154
1531.0,0.0153
1530.0,0.0152
1529.0,0.0151
1528.0,0.0151
1527.0,0.0151
1526.0,0.015
1525.0,0.015
1524.0,0.0151
1523.0,0.0151
1522.0,0.0151
1521.0,0.0151
1520.0,0.0151
1519.0,0.0151
1518.0,0.015
1517.0,0.0151
1516.0,0.0151
1515.0,0.0151
1514.0,0.0151
1513.0,0.0151
1512.0,0.015
1511.0,0.0149
1510.0,0.0147
1509.0,0.0146
1508.0,0.0147
1507.0,0.0149
1506.0,0.0149
1505.0,0.0148
1504.0,0.0149
1503.0,0.0149
1502.0,0.0149
1501.0,0.015
1500.0,0.0152
1499.0,0.0153
1498.0,0.0155
1497.0,0.0158
1496.0,0.0162
1495.0,0.0164
1494.0,0.0164
1493.0,0.0165
1492.0,0.0164
1491.0,0.0162
1490.0,0.016
1489.0,0.0161
1488.0,0.0162
1487.0,0.0162
1486.0,0.0163
1485.0,0.0164
1484.0,0.0167
1483.0,0.0169
1482.0,0.0173
1481.0,0.0179
1480.0,0.0185
1479.0,0.0191
1478.0,0.0199
1477.0,0.0214
1476.0,0.0235
1475.0,0.0261
1474.0,0.0296
1473.0,0.0344
1472.0,0.0391
1471.0,0.0427
1470.0,0.046
1469.0,0.0499
1468.0,0.0542
1467.0,0.0593
1466.0,0.0658
1465.0,0.0738
1464.0,0.0808
1463.0,0.0851
1462.0,0.0874
1461.0,0.0886
1460.0,0.0891
1459.0,0.0894
1458.0,0.0904
1457.0,0.0922
1456.0,0.0932
1455.0,0.0932
1454.0,0.093
1453.0,0.0924
1452.0,0.0913
1451.0,0.0897
1450.0,0.0872
1449.0,0.0835
1448.0,0.0783
1447.0,0.0727
1446.0,0.0676
1445.0,0.0632
1444.0,0.0592
1443.0,0.0557
1442.0,0.053
1441.0,0.051
1440.0,0.0497
1439.0,0.049
1438.0,0.0491
1437.0,0.0496
1436.0,0.0495
1435.0,0.0482
1434.0,0.046
1433.0,0.0432
1432.0,0.0401
1431.0,0.0372
1430.0,0.0348
1429.0,0.0331
1428.0,0.0318
1427.0,0.0309
1426.0,0.0302
1425.0,0.0295
1424.0,0.0288
1423.0,0.0283
1422.0,0.0281
1421.0,0.0277
1420.0,0.0273
1419.0,0.027
1418.0,0.0268
1417.0,0.0265
1416.0,0.0261
1415.0,0.0259
1414.0,0.0256
1413.0,0.0253
1412.0,0.025
1411.0,0.0248
1410.0,0.0246
1409.0,0.0243
1408.0,0.0241
1407.0,0.0239
1406.0,0.0237
1405.0,0.0235
1404.0,0.0232
1403.0,0.0231
1402.0,0.023
1401.0,0.0228
1400.0,0.0225
1399.0,0.0224
1398.0,0.0225
1397.0,0.0224
1396.0,0.0222
1395.0,0.0221
1394.0,0.022
1393.0,0.0218
1392.0,0.0217
1391.0,0.0218
1390.0,0.022
1389.0,0.0224
1388.0,0.0232
1387.0,0.0247
1386.0,0.0271
1385.0,0.0302
1384.0,0.0348
1383.0,0.0415
1382.0,0.0508
1381.0,0.0628
1380.0,0.0782
1379.0,0.0963
1378.0,0.1145
1377.0,0.1287
1376.0,0.1356
1375.0,0.1326
1374.0,0.1209
1373.0,0.1058
1372.0,0.0917
1371.0,0.0796
1370.0,0.0692
1369.0,0.0607
1368.0,0.0546
1367.0,0.0507
1366.0,0.0484
1365.0,0.0473
1364.0,0.0472
1363.0,0.048
1362.0,0.0494
1361.0,0.051
1360.0,0.0521
1359.0,0.0525
1358.0,0.0518
1357.0,0.0502
1356.0,0.0479
1355.0,0.0452
1354.0,0.0426
1353.0,0.0404
1352.0,0.0385
1351.0,0.037
1350.0,0.0356
1349.0,0.0345
1348.0,0.0335
1347.0,0.0328
1346.0,0.032
1345.0,0.0314
1344.0,0.0309
1343.0,0.0304
1342.0,0.03
1341.0,0.0296
1340.0,0.0293
1339.0,0.0291
1338.0,0.0289
1337.0,0.0287
1336.0,0.0287
1335.0,0.0287
1334.0,0.0288
1333.0,0.029
1332.0,0.0292
1331.0,0.0294
1330.0,0.0294
1329.0,0.0293
1328.0,0.0291
1327.0,0.0287
1326.0,0.0283
1325.0,0.0278
1324.0,0.0273
1323.0,0.0269
1322.0,0.0266
1321.0,0.0264
1320.0,0.0262
1319.0,0.026
1318.0,0.0259
1317.0,0.0257
1316.0,0.0256
1315.0,0.0255
1314.0,0.0253
1313.0,0.0252
1312.0,0.0252
1311.0,0.0252
1310.0,0.0253
1309.0,0.0256
1308.0,0.0262
1307.0,0.027
1306.0,0.0278
1305.0,0.0283
1304.0,0.0284
1303.0,0.0282
1302.0,0.0278
1301.0,0.0276
1300.0,0.0275
1299.0,0.0274
1298.0,0.0275
1297.0,0.0275
1296.0,0.0274
1295.0,0.0272
1294.0,0.0269
1293.0,0.0266
1292.0,0.0263
1291.0,0.0259
1290.0,0.0257
1289.0,0.0254
1288.0,0.0252
1287.0,0.025
1286.0,0.0248
1285.0,0.0246
1284.0,0.0244
1283.0,0.0243
1282.0,0.0242
1281.0,0.0241
1280.0,0.024
1279.0,0.0239
1278.0,0.0239
1277.0,0.0238
1276.0,0.0237
1275.0,0.0236
1274.0,0.0236
1273.0,0.0235
1272.0,0.0235
1271.0,0.0236
1270.0,0.0236
1269.0,0.0237
1268.0,0.0238
1267.0,0.0239
1266.0,0.024
1265.0,0.0241
1264.0,0.0243
1263.0,0.0245
1262.0,0.0247
1261.0,0.0249
1260.0,0.0252
1259.0,0.0256
1258.0,0.0261
1257.0,0.0266
1256.0,0.0268
1255.0,0.0267
1254.0,0.0264
1253.0,0.0259
1252.0,0.0254
1251.0,0.0249
1250.0,0.0245
1249.0,0.0243
1248.0,0.0241
1247.0,0.024
1246.0,0.024
1245.0,0.0239
1244.0,0.0237
1243.0,0.0236
1242.0,0.0235
1241.0,0.0234
1240.0,0.0234
1239.0,0.0233
1238.0,0.0233
1237.0,0.0233
1236.0,0.0232
1235.0,0.0232
1234.0,0.0232
1233.0,0.0233
1232.0,0.0233
1231.0,0.0233
1230.0,0.0233
1229.0,0.0233
1228.0,0.0233
1227.0,0.0234
1226.0,0.0235
1225.0,0.0237
1224.0,0.0239
1223.0,0.0242
1222.0,0.0245
1221.0,0.0247
1220.0,0.0248
1219.0,0.0249
1218.0,0.0249
1217.0,0.0249
1216.0,0.0248
1215.0,0.0247
1214.0,0.0246
1213.0,0.0246
1212.0,0.0245
1211.0,0.0244
1210.0,0.0244
1209.0,0.0243
1208.0,0.0243
1207.0,0.0243
1206.0,0.0245
1205.0,0.0246
1204.0,0.0246
1203.0,0.0247
1202.0,0.0247
1201.0,0.0248
1200.0,0.0249
1199.0,0.025
1198.0,0.0251
1197.0,0.0252
1196.0,0.0252
1195.0,0.0253
1194.0,0.0253
1193.0,0.0254
1192.0,0.0254
1191.0,0.0255
1190.0,0.0255
1189.0,0.0256
1188.0,0.0256
1187.0,0.0257
1186.0,0.0258
1185.0,0.0259
1184.0,0.026
1183.0,0.0261
1182.0,0.0262
1181.0,0.0263
1180.0,0.0265
1179.0,0.0267
1178.0,0.027
1177.0,0.0275
1176.0,0.0282
1175.0,0.0291
1174.0,0.0303
1173.0,0.0319
1172.0,0.0339
1171.0,0.0362
1170.0,0.0385
1169.0,0.0405
1168.0,0.0417
1167.0,0.0421
1166.0,0.0419
1165.0,0.0411
1164.0,0.0402
1163.0,0.0392
1162.0,0.0382
1161.0,0.0374
1160.0,0.0368
1159.0,0.0364
1158.0,0.0361
1157.0,0.0359
1156.0,0.0358
1155.0,0.0357
1154.0,0.0356
1153.0,0.0354
1152.0,0.0352
1151.0,0.0348
1150.0,0.0343
1149.0,0.0337
1148.0,0.0331
1147.0,0.0324
1146.0,0.0318
1145.0,0.0312
1144.0,0.0307
1143.0,0.0301
1142.0,0.0296
1141.0,0.0291
1140.0,0.0287
1139.0,0.0284
1138.0,0.028
1137.0,0.0277
1136.0,0.0274
1135.0,0.0272
1134.0,0.0271
1133.0,0.027
1132.0,0.027
1131.0,0.0268
1130.0,0.0266
1129.0,0.0265
1128.0,0.0264
1127.0,0.0263
1126.0,0.0262
1125.0,0.0262
1124.0,0.0262
1123.0,0.0262
1122.0,0.0262
1121.0,0.0263
1120.0,0.0263
1119.0,0.0263
1118.0,0.0264
1117.0,0.0264
1116.0,0.0265
1115.0,0.0265
1114.0,0.0265
1113.0,0.0266
1112.0,0.0268
1111.0,0.0269
1110.0,0.0271
1109.0,0.0274
1108.0,0.0277
1107.0,0.0282
1106.0,0.0287
1105.0,0.0292
1104.0,0.0296
1103.0,0.0299
1102.0,0.0299
1101.0,0.0298
1100.0,0.0296
1099.0,0.0292
1098.0,0.0287
1097.0,0.0283
1096.0,0.0279
1095.0,0.0276
1094.0,0.0274
1093.0,0.0272
1092.0,0.027
1091.0,0.0269
1090.0,0.0267
1089.0,0.0266
1088.0,0.0264
1087.0,0.0263
1086.0,0.0262
1085.0,0.0261
1084.0,0.026
1083.0,0.0259
1082.0,0.0258
1081.0,0.0257
1080.0,0.0256
1079.0,0.0254
1078.0,0.0253
1077.0,0.0252
1076.0,0.025
1075.0,0.0248
1074.0,0.0247
1073.0,0.0246
1072.0,0.0245
1071.0,0.0244
1070.0,0.0243
1069.0,0.0241
1068.0,0.024
1067.0,0.0238
1066.0,0.0236
1065.0,0.0234
1064.0,0.0232
1063.0,0.0231
1062.0,0.023
1061.0,0.0231
1060.0,0.0231
1059.0,0.0232
1058.0,0.0232
1057.0,0.0231
1056.0,0.023
1055.0,0.0229
1054.0,0.0228
1053.0,0.0229
1052.0,0.0229
1051.0,0.0231
1050.0,0.0232
1049.0,0.0233
1048.0,0.0234
1047.0,0.0236
1046.0,0.0239
1045.0,0.0241
1044.0,0.0241
1043.0,0.024
1042.0,0.0238
1041.0,0.0235
1040.0,0.0233
1039.0,0.0231
1038.0,0.0231
1037.0,0.0231
1036.0,0.0231
1035.0,0.0231
1034.0,0.0232
1033.0,0.0232
1032.0,0.0233
1031.0,0.0235
1030.0,0.0236
1029.0,0.0237
1028.0,0.0238
1027.0,0.0238
1026.0,0.0239
1025.0,0.0239
1024.0,0.0239
1023.0,0.024
1022.0,0.0241
1021.0,0.0242
1020.0,0.0242
1019.0,0.0242
1018.0,0.0242
1017.0,0.0241
1016.0,0.024
1015.0,0.0239
1014.0,0.0239
1013.0,0.0239
1012.0,0.0239
1011.0,0.024
1010.0,0.0241
1009.0,0.0242
1008.0,0.0245
1007.0,0.025
1006.0,0.0256
1005.0,0.0264
1004.0,0.0275
1003.0,0.029
1002.0,0.0311
1001.0,0.0339
1000.0,0.0369
999.0,0.0395
998.0,0.041
997.0,0.0409
996.0,0.0394
995.0,0.0371
994.0,0.0346
993.0,0.0324
992.0,0.0306
991.0,0.0293
990.0,0.0284
989.0,0.0277
988.0,0.0272
987.0,0.0269
986.0,0.0267
985.0,0.0267
984.0,0.0268
983.0,0.0272
982.0,0.0278
981.0,0.0287
980.0,0.0302
979.0,0.0322
978.0,0.0348
977.0,0.0377
976.0,0.041
975.0,0.0442
974.0,0.0467
973.0,0.0479
972.0,0.0474
971.0,0.0453
970.0,0.0422
969.0,0.039
968.0,0.0362
967.0,0.0341
966.0,0.0326
965.0,0.0315
964.0,0.0306
963.0,0.0298
962.0,0.0292
961.0,0.0286
960.0,0.0282
959.0,0.0279
958.0,0.0276
957.0,0.0273
956.0,0.0271
955.0,0.0269
954.0,0.0268
953.0,0.0268
952.0,0.0266
951.0,0.0265
950.0,0.0263
949.0,0.0262
948.0,0.0261
947.0,0.0262
946.0,0.0263
945.0,0.0265
944.0,0.0266
943.0,0.0268
942.0,0.027
941.0,0.0272
940.0,0.0272
939.0,0.0271
938.0,0.0268
937.0,0.0264
936.0,0.026
935.0,0.0257
934.0,0.0254
933.0,0.0252
932.0,0.025
931.0,0.0248
930.0,0.0247
929.0,0.0246
928.0,0.0247
927.0,0.0247
926.0,0.0247
925.0,0.0246
924.0,0.0246
923.0,0.0245
922.0,0.0245
921.0,0.0245
920.0,0.0244
919.0,0.0244
918.0,0.0244
917.0,0.0245
916.0,0.0246
915.0,0.0247
914.0,0.0248
913.0,0.0248
912.0,0.0248
911.0,0.0249
910.0,0.025
909.0,0.0251
908.0,0.0253
907.0,0.0255
906.0,0.0259
905.0,0.0267
904.0,0.0277
903.0,0.0291
902.0,0.0306
901.0,0.032
900.0,0.0332
899.0,0.0337
898.0,0.0335
897.0,0.0327
896.0,0.0315
895.0,0.0302
894.0,0.0291
893.0,0.0282
892.0,0.0275
891.0,0.027
890.0,0.0267
889.0,0.0265
888.0,0.0265
887.0,0.0266
886.0,0.0268
885.0,0.0271
884.0,0.0274
883.0,0.0276
882.0,0.0277
881.0,0.0278
880.0,0.0281
879.0,0.0284
878.0,0.0287
877.0,0.0291
876.0,0.0295
875.0,0.0298
874.0,0.0299
873.0,0.0298
872.0,0.0295
871.0,0.029
870.0,0.0283
869.0,0.0277
868.0,0.0271
867.0,0.0268
866.0,0.0267
865.0,0.0267
864.0,0.0268
863.0,0.0268
862.0,0.0268
861.0,0.0268
860.0,0.0267
859.0,0.0267
858.0,0.0266
857.0,0.0267
856.0,0.0268
855.0,0.0269
854.0,0.0269
853.0,0.0268
852.0,0.0268
851.0,0.027
850.0,0.0273
849.0,0.0276
848.0,0.0281
847.0,0.0288
846.0,0.0301
845.0,0.0322
844.0,0.0352
843.0,0.0388
842.0,0.0419
841.0,0.0432
840.0,0.0421
839.0,0.0393
838.0,0.0362
837.0,0.0337
836.0,0.032
835.0,0.0309
834.0,0.0302
833.0,0.0297
832.0,0.0293
831.0,0.0291
830.0,0.0289
829.0,0.0288
828.0,0.0286
827.0,0.0284
826.0,0.0282
825.0,0.0281
824.0,0.028
823.0,0.0279
822.0,0.0279
821.0,0.0279
820.0,0.0279
819.0,0.028
818.0,0.0282
817.0,0.0286
816.0,0.0292
815.0,0.03
814.0,0.031
813.0,0.0323
812.0,0.0337
811.0,0.0351
810.0,0.0362
809.0,0.0368
808.0,0.0367
807.0,0.0361
806.0,0.0352
805.0,0.0342
804.0,0.0332
803.0,0.0323
802.0,0.0315
801.0,0.031
800.0,0.0307
799.0,0.0304
798.0,0.0301
797.0,0.0299
796.0,0.0296
795.0,0.0292
794.0,0.0289
793.0,0.0286
792.0,0.0283
791.0,0.0281
790.0,0.0279
789.0,0.0278
788.0,0.0278
787.0,0.0278
786.0,0.0277
785.0,0.0274
784.0,0.0272
783.0,0.027
782.0,0.027
781.0,0.0271
780.0,0.0271
779.0,0.0271
778.0,0.0271
777.0,0.0272
776.0,0.0272
775.0,0.0273
774.0,0.0274
773.0,0.0274
772.0,0.0274
771.0,0.0275
770.0,0.0277
769.0,0.028
768.0,0.0283
767.0,0.0285
766.0,0.0286
765.0,0.0287
764.0,0.0288
763.0,0.029
762.0,0.0291
761.0,0.0292
760.0,0.0292
759.0,0.0291
758.0,0.0292
757.0,0.0294
756.0,0.0296
755.0,0.0296
754.0,0.0295
753.0,0.0294
752.0,0.0294
751.0,0.0293
750.0,0.0293
749.0,0.0293
748.0,0.0293
747.0,0.0293
746.0,0.0296
745.0,0.0299
744.0,0.0302
743.0,0.0303
742.0,0.0302
741.0,0.03
740.0,0.0299
739.0,0.0301
738.0,0.0303
737.0,0.0305
736.0,0.0308
735.0,0.0312
734.0,0.032
733.0,0.0334
732.0,0.035
731.0,0.0364
730.0,0.0371
729.0,0.0368
728.0,0.0361
727.0,0.0353
726.0,0.035
725.0,0.0352
724.0,0.0358
723.0,0.0367
722.0,0.0379
721.0,0.0393
720.0,0.0403
719.0,0.0404
718.0,0.0395
717.0,0.0382
716.0,0.037
715.0,0.0361
714.0,0.0355
713.0,0.035
712.0,0.0344
711.0,0.0339
710.0,0.0336
709.0,0.0336
708.0,0.0338
707.0,0.034
706.0,0.0344
705.0,0.035
704.0,0.036
703.0,0.0372
702.0,0.0383
701.0,0.0393
700.0,0.0401
699.0,0.0404
698.0,0.0401
697.0,0.0391
696.0,0.0378
695.0,0.0369
694.0,0.0368
693.0,0.0372
692.0,0.0374
691.0,0.0369
690.0,0.0361
689.0,0.0356
688.0,0.0357
687.0,0.0358
686.0,0.0354
685.0,0.0341
684.0,0.0328
683.0,0.032
682.0,0.0319
681.0,0.0321
680.0,0.0318
679.0,0.0313
678.0,0.0313
677.0,0.0321
676.0,0.0336
675.0,0.0352
674.0,0.0361
673.0,0.0365
672.0,0.0367
671.0,0.0375
670.0,0.0393
669.0,0.0407
668.0,0.0396
667.0,0.038
666.0,0.0369
665.0,0.0359
664.0,0.0355
663.0,0.0359
662.0,0.0362
661.0,0.0361
660.0,0.0357
659.0,0.0353
658.0,0.0352
657.0,0.0353
656.0,0.0353
655.0,0.035
654.0,0.0346
653.0,0.0345
652.0,0.0348
651.0,0.0353
650.0,0.0355
649.0,0.0354
648.0,0.035
647.0,0.0346
646.0,0.0342
645.0,0.0339
644.0,0.0337
643.0,0.0336
642.0,0.0339
641.0,0.0343
640.0,0.0347
639.0,0.035
638.0,0.0353
637.0,0.0358
636.0,0.0363
635.0,0.0368
634.0,0.0371
633.0,0.0371
632.0,0.0367
631.0,0.0361
630.0,0.0358
629.0,0.0357
628.0,0.0357
627.0,0.0357
626.0,0.0357
625.0,0.0361
624.0,0.0365
623.0,0.0365
622.0,0.0359
621.0,0.0351
620.0,0.0345
619.0,0.0345
618.0,0.0351
617.0,0.0358
616.0,0.0361
615.0,0.0359
614.0,0.0354
613.0,0.035
612.0,0.0348
611.0,0.0348
610.0,0.0353
609.0,0.0366
608.0,0.0387
607.0,0.0408
606.0,0.0415
605.0,0.0405
604.0,0.0389
603.0,0.0379
602.0,0.0378
601.0,0.038
600.0,0.0379
