cm-1,A
4000.0,0.0075
3999.0,0.0075
3998.0,0.0075
3997.0,0.0075
3996.0,0.0075
3995.0,0.0075
3994.0,0.0074
3993.0,0.0074
3992.0,0.0074
3991.0,0.0075
3990.0,0.0075
3989.0,0.0076
3988.0,0.0076
3987.0,0.0075
3986.0,0.0075
3985.0,0.0074
3984.0,0.0074
3983.0,0.0074
3982.0,0.0074
3981.0,0.0073
3980.0,0.0074
3979.0,0.0074
3978.0,0.0075
3977.0,0.0075
3976.0,0.0074
3975.0,0.0074
3974.0,0.0073
3973.0,0.0074
3972.0,0.0075
3971.0,0.0076
3970.0,0.0077
3969.0,0.0076
3968.0,0.0076
3967.0,0.0076
3966.0,0.0076
3965.0,0.0076
3964.0,0.0076
3963.0,0.0075
3962.0,0.0074
3961.0,0.0074
3960.0,0.0074
3959.0,0.0076
3958.0,0.0077
3957.0,0.0078
3956.0,0.0078
3955.0,0.0077
3954.0,0.0076
3953.0,0.0076
3952.0,0.0076
3951.0,0.0075
3950.0,0.0075
3949.0,0.0075
3948.0,0.0075
3947.0,0.0076
3946.0,0.0076
3945.0,0.0077
3944.0,0.0077
3943.0,0.0077
3942.0,0.0077
3941.0,0.0077
3940.0,0.0078
3939.0,0.0078
3938.0,0.0078
3937.0,0.0077
3936.0,0.0077
3935.0,0.0076
3934.0,0.0075
3933.0,0.0075
3932.0,0.0075
3931.0,0.0075
3930.0,0.0075
3929.0,0.0076
3928.0,0.0075
3927.0,0.0075
3926.0,0.0074
3925.0,0.0074
3924.0,0.0073
3923.0,0.0073
3922.0,0.0073
3921.0,0.0073
3920.0,0.0074
3919.0,0.0075
3918.0,0.0076
3917.0,0.0077
3916.0,0.0078
3915.0,0.0079
3914.0,0.008
3913.0,0.008
3912.0,0.008
3911.0,0.0078
3910.0,0.0077
3909.0,0.0076
3908.0,0.0076
3907.0,0.0076
3906.0,0.0077
3905.0,0.0077
3904.0,0.0077
3903.0,0.0077
3902.0,0.0076
3901.0,0.0076
3900.0,0.0076
3899.0,0.0077
3898.0,0.0077
3897.0,0.0077
3896.0,0.0077
3895.0,0.0076
3894.0,0.0075
3893.0,0.0075
3892.0,0.0076
3891.0,0.0077
3890.0,0.0078
3889.0,0.0079
3888.0,0.0079
3887.0,0.008
3886.0,0.008
3885.0,0.0079
3884.0,0.0078
3883.0,0.0078
3882.0,0.0078
3881.0,0.0078
3880.0,0.0077
3879.0,0.0077
3878.0,0.0077
3877.0,0.0078
3876.0,0.0078
3875.0,0.0079
3874.0,0.0078
3873.0,0.0078
3872.0,0.0078
3871.0,0.0078
3870.0,0.0077
3869.0,0.0076
3868.0,0.0076
3867.0,0.0076
3866.0,0.0077
3865.0,0.0077
3864.0,0.0078
3863.0,0.0079
3862.0,0.008
3861.0,0.008
3860.0,0.008
3859.0,0.008
3858.0,0.0079
3857.0,0.0078
3856.0,0.0079
3855.0,0.008
3854.0,0.008
3853.0,0.0079
3852.0,0.0079
3851.0,0.0081
3850.0,0.0082
3849.0,0.0082
3848.0,0.0081
3847.0,0.008
3846.0,0.0079
3845.0,0.0079
3844.0,0.0078
3843.0,0.0077
3842.0,0.0077
3841.0,0.0076
3840.0,0.0077
3839.0,0.0079
3838.0,0.008
3837.0,0.0081
3836.0,0.0081
3835.0,0.0082
3834.0,0.0084
3833.0,0.0085
3832.0,0.0086
3831.0,0.0087
3830.0,0.0086
3829.0,0.0086
3828.0,0.0085
3827.0,0.0084
3826.0,0.0082
3825.0,0.0081
3824.0,0.008
3823.0,0.008
3822.0,0.0081
3821.0,0.0082
3820.0,0.0082
3819.0,0.0082
3818.0,0.0083
3817.0,0.0083
3816.0,0.0083
3815.0,0.0083
3814.0,0.0084
3813.0,0.0084
3812.0,0.0084
3811.0,0.0083
3810.0,0.0082
3809.0,0.0082
3808.0,0.0083
3807.0,0.0084
3806.0,0.0084
3805.0,0.0083
3804.0,0.0083
3803.0,0.0084
3802.0,0.0085
3801.0,0.0084
3800.0,0.0083
3799.0,0.0083
3798.0,0.0083
3797.0,0.0082
3796.0,0.0082
3795.0,0.0082
3794.0,0.0082
3793.0,0.0082
3792.0,0.0083
3791.0,0.0083
3790.0,0.0084
3789.0,0.0084
3788.0,0.0083
3787.0,0.0083
3786.0,0.0082
3785.0,0.0082
3784.0,0.0083
3783.0,0.0083
3782.0,0.0084
3781.0,0.0084
3780.0,0.0084
3779.0,0.0083
3778.0,0.0083
3777.0,0.0083
3776.0,0.0083
3775.0,0.0082
3774.0,0.0082
3773.0,0.0082
3772.0,0.0082
3771.0,0.0082
3770.0,0.0083
3769.0,0.0084
3768.0,0.0085
3767.0,0.0085
3766.0,0.0086
3765.0,0.0085
3764.0,0.0085
3763.0,0.0085
3762.0,0.0086
3761.0,0.0085
3760.0,0.0085
3759.0,0.0084
3758.0,0.0083
3757.0,0.0083
3756.0,0.0083
3755.0,0.0083
3754.0,0.0082
3753.0,0.0081
3752.0,0.0081
3751.0,0.0082
3750.0,0.0082
3749.0,0.0084
3748.0,0.0086
3747.0,0.0088
3746.0,0.0091
3745.0,0.0093
3744.0,0.0092
3743.0,0.009
3742.0,0.0089
3741.0,0.0088
3740.0,0.0086
3739.0,0.0084
3738.0,0.0084
3737.0,0.0085
3736.0,0.0085
3735.0,0.0084
3734.0,0.0083
3733.0,0.0082
3732.0,0.0083
3731.0,0.0085
3730.0,0.0086
3729.0,0.0087
3728.0,0.0087
3727.0,0.0087
3726.0,0.0086
3725.0,0.0085
3724.0,0.0085
3723.0,0.0085
3722.0,0.0085
3721.0,0.0086
3720.0,0.0088
3719.0,0.0088
3718.0,0.0088
3717.0,0.0088
3716.0,0.0087
3715.0,0.0086
3714.0,0.0085
3713.0,0.0086
3712.0,0.0087
3711.0,0.0088
3710.0,0.0089
3709.0,0.0089
3708.0,0.0089
3707.0,0.0089
3706.0,0.0087
3705.0,0.0086
3704.0,0.0084
3703.0,0.0083
3702.0,0.0083
3701.0,0.0084
3700.0,0.0084
3699.0,0.0085
3698.0,0.0086
3697.0,0.0087
3696.0,0.0088
3695.0,0.0089
3694.0,0.0089
3693.0,0.0089
3692.0,0.0088
3691.0,0.0087
3690.0,0.0087
3689.0,0.0087
3688.0,0.0088
3687.0,0.0089
3686.0,0.009
3685.0,0.009
3684.0,0.0089
3683.0,0.0088
3682.0,0.0087
3681.0,0.0087
3680.0,0.0087
3679.0,0.0086
3678.0,0.0086
3677.0,0.0086
3676.0,0.0086
3675.0,0.0087
3674.0,0.0088
3673.0,0.0088
3672.0,0.0088
3671.0,0.0088
3670.0,0.0087
3669.0,0.0087
3668.0,0.0088
3667.0,0.0089
3666.0,0.009
3665.0,0.0089
3664.0,0.0088
3663.0,0.0088
3662.0,0.0088
3661.0,0.0087
3660.0,0.0087
3659.0,0.0086
3658.0,0.0087
3657.0,0.0087
3656.0,0.0088
3655.0,0.0087
3654.0,0.0086
3653.0,0.0085
3652.0,0.0085
3651.0,0.0088
3650.0,0.0092
3649.0,0.0093
3648.0,0.0092
3647.0,0.009
3646.0,0.009
3645.0,0.009
3644.0,0.0091
3643.0,0.0091
3642.0,0.0092
3641.0,0.0092
3640.0,0.0093
3639.0,0.0093
3638.0,0.0093
3637.0,0.0094
3636.0,0.0095
3635.0,0.0094
3634.0,0.0093
3633.0,0.0091
3632.0,0.009
3631.0,0.0089
3630.0,0.009
3629.0,0.0092
3628.0,0.0092
3627.0,0.0093
3626.0,0.0094
3625.0,0.0094
3624.0,0.0093
3623.0,0.0093
3622.0,0.0092
3621.0,0.0092
3620.0,0.0092
3619.0,0.0091
3618.0,0.0091
3617.0,0.0091
3616.0,0.0092
3615.0,0.0093
3614.0,0.0094
3613.0,0.0094
3612.0,0.0095
3611.0,0.0095
3610.0,0.0096
3609.0,0.0095
3608.0,0.0095
3607.0,0.0094
3606.0,0.0093
3605.0,0.0094
3604.0,0.0095
3603.0,0.0096
3602.0,0.0096
3601.0,0.0095
3600.0,0.0095
3599.0,0.0094
3598.0,0.0095
3597.0,0.0096
3596.0,0.0097
3595.0,0.0098
3594.0,0.0098
3593.0,0.0098
3592.0,0.0098
3591.0,0.0097
3590.0,0.0097
3589.0,0.0096
3588.0,0.0097
3587.0,0.0098
3586.0,0.0098
3585.0,0.0099
3584.0,0.01
3583.0,0.01
3582.0,0.01
3581.0,0.0101
3580.0,0.0101
3579.0,0.0101
3578.0,0.0102
3577.0,0.0103
3576.0,0.0104
3575.0,0.0105
3574.0,0.0106
3573.0,0.0105
3572.0,0.0104
3571.0,0.0102
3570.0,0.01
3569.0,0.0099
3568.0,0.0099
3567.0,0.01
3566.0,0.01
3565.0,0.0101
3564.0,0.0103
3563.0,0.0104
3562.0,0.0105
3561.0,0.0105
3560.0,0.0106
3559.0,0.0107
3558.0,0.0107
3557.0,0.0107
3556.0,0.0107
3555.0,0.0106
3554.0,0.0106
3553.0,0.0106
3552.0,0.0106
3551.0,0.0106
3550.0,0.0107
3549.0,0.0108
3548.0,0.0109
3547.0,0.0108
3546.0,0.0106
3545.0,0.0105
3544.0,0.0105
3543.0,0.0106
3542.0,0.0108
3541.0,0.0109
3540.0,0.0111
3539.0,0.0111
3538.0,0.0112
3537.0,0.0113
3536.0,0.0113
3535.0,0.0113
3534.0,0.0112
3533.0,0.011
3532.0,0.0109
3531.0,0.0108
3530.0,0.0109
3529.0,0.0111
3528.0,0.0113
3527.0,0.0115
3526.0,0.0116
3525.0,0.0115
3524.0,0.0114
3523.0,0.0113
3522.0,0.0114
3521.0,0.0114
3520.0,0.0115
3519.0,0.0116
3518.0,0.0117
3517.0,0.0118
3516.0,0.0118
3515.0,0.0118
3514.0,0.0117
3513.0,0.0117
3512.0,0.0116
3511.0,0.0117
3510.0,0.0117
3509.0,0.0117
3508.0,0.0117
3507.0,0.0117
3506.0,0.0117
3505.0,0.0118
3504.0,0.0118
3503.0,0.0119
3502.0,0.0119
3501.0,0.0119
3500.0,0.012
3499.0,0.012
3498.0,0.012
3497.0,0.0121
3496.0,0.0121
3495.0,0.0121
3494.0,0.0121
3493.0,0.0122
3492.0,0.0122
3491.0,0.0123
3490.0,0.0124
3489.0,0.0123
3488.0,0.0122
3487.0,0.0121
3486.0,0.0121
3485.0,0.0122
3484.0,0.0123
3483.0,0.0124
3482.0,0.0125
3481.0,0.0125
3480.0,0.0126
3479.0,0.0126
3478.0,0.0127
3477.0,0.0128
3476.0,0.0129
3475.0,0.0129
3474.0,0.0128
3473.0,0.0128
3472.0,0.0129
3471.0,0.013
3470.0,0.013
3469.0,0.0131
3468.0,0.013
3467.0,0.013
3466.0,0.013
3465.0,0.013
3464.0,0.013
3463.0,0.0131
3462.0,0.0131
3461.0,0.0131
3460.0,0.0132
3459.0,0.0133
3458.0,0.0134
3457.0,0.0136
3456.0,0.0136
3455.0,0.0136
3454.0,0.0135
3453.0,0.0134
3452.0,0.0134
3451.0,0.0134
3450.0,0.0134
3449.0,0.0134
3448.0,0.0134
3447.0,0.0135
3446.0,0.0136
3445.0,0.0136
3444.0,0.0136
3443.0,0.0137
3442.0,0.0138
3441.0,0.0139
3440.0,0.014
3439.0,0.014
3438.0,0.0139
3437.0,0.0139
3436.0,0.0139
3435.0,0.0139
3434.0,0.0139
3433.0,0.0139
3432.0,0.014
3431.0,0.0141
3430.0,0.0142
3429.0,0.0143
3428.0,0.0143
3427.0,0.0143
3426.0,0.0143
3425.0,0.0143
3424.0,0.0144
3423.0,0.0145
3422.0,0.0145
3421.0,0.0146
3420.0,0.0146
3419.0,0.0146
3418.0,0.0146
3417.0,0.0146
3416.0,0.0146
3415.0,0.0147
3414.0,0.0148
3413.0,0.0148
3412.0,0.0148
3411.0,0.0148
3410.0,0.0148
3409.0,0.0148
3408.0,0.0148
3407.0,0.0148
3406.0,0.0148
3405.0,0.0149
3404.0,0.0149
3403.0,0.0149
3402.0,0.0149
3401.0,0.0149
3400.0,0.0149
3399.0,0.015
3398.0,0.015
3397.0,0.0151
3396.0,0.0151
3395.0,0.0151
3394.0,0.0151
3393.0,0.0152
3392.0,0.0152
3391.0,0.0152
3390.0,0.0151
3389.0,0.0151
3388.0,0.015
3387.0,0.015
3386.0,0.015
3385.0,0.015
3384.0,0.0149
3383.0,0.015
3382.0,0.015
3381.0,0.0151
3380.0,0.0152
3379.0,0.0152
3378.0,0.0151
3377.0,0.015
3376.0,0.0149
3375.0,0.015
3374.0,0.015
3373.0,0.015
3372.0,0.0149
3371.0,0.0148
3370.0,0.0148
3369.0,0.0147
3368.0,0.0148
3367.0,0.0148
3366.0,0.015
3365.0,0.0151
3364.0,0.0152
3363.0,0.0151
3362.0,0.0151
3361.0,0.015
3360.0,0.015
3359.0,0.015
3358.0,0.0151
3357.0,0.0151
3356.0,0.015
3355.0,0.0148
3354.0,0.0146
3353.0,0.0145
3352.0,0.0145
3351.0,0.0146
3350.0,0.0147
3349.0,0.0147
3348.0,0.0148
3347.0,0.0149
3346.0,0.0149
3345.0,0.0149
3344.0,0.0149
3343.0,0.0149
3342.0,0.0149
3341.0,0.0148
3340.0,0.0148
3339.0,0.0147
3338.0,0.0147
3337.0,0.0148
3336.0,0.0148
3335.0,0.0149
3334.0,0.0148
3333.0,0.0147
3332.0,0.0148
3331.0,0.0149
3330.0,0.015
3329.0,0.0151
3328.0,0.0151
3327.0,0.0151
3326.0,0.0151
3325.0,0.0152
3324.0,0.0152
3323.0,0.0151
3322.0,0.015
3321.0,0.0149
3320.0,0.0149
3319.0,0.0149
3318.0,0.015
3317.0,0.015
3316.0,0.0149
3315.0,0.0149
3314.0,0.0148
3313.0,0.0147
3312.0,0.0148
3311.0,0.0148
3310.0,0.0149
3309.0,0.015
3308.0,0.015
3307.0,0.015
3306.0,0.0149
3305.0,0.0148
3304.0,0.0148
3303.0,0.0147
3302.0,0.0147
3301.0,0.0146
3300.0,0.0145
3299.0,0.0144
3298.0,0.0144
3297.0,0.0144
3296.0,0.0144
3295.0,0.0145
3294.0,0.0145
3293.0,0.0146
3292.0,0.0146
3291.0,0.0147
3290.0,0.0148
3289.0,0.0148
3288.0,0.0147
3287.0,0.0147
3286.0,0.0147
3285.0,0.0147
3284.0,0.0147
3283.0,0.0148
3282.0,0.0148
3281.0,0.0148
3280.0,0.0148
3279.0,0.0147
3278.0,0.0146
3277.0,0.0147
3276.0,0.0147
3275.0,0.0148
3274.0,0.0148
3273.0,0.0148
3272.0,0.0147
3271.0,0.0147
3270.0,0.0148
3269.0,0.0149
3268.0,0.015
3267.0,0.015
3266.0,0.015
3265.0,0.015
3264.0,0.0149
3263.0,0.0148
3262.0,0.0147
3261.0,0.0147
3260.0,0.0147
3259.0,0.0148
3258.0,0.0148
3257.0,0.0148
3256.0,0.0148
3255.0,0.0148
3254.0,0.0148
3253.0,0.0148
3252.0,0.0147
3251.0,0.0147
3250.0,0.0146
3249.0,0.0146
3248.0,0.0146
3247.0,0.0147
3246.0,0.0148
3245.0,0.0148
3244.0,0.0149
3243.0,0.0149
3242.0,0.0149
3241.0,0.0148
3240.0,0.0147
3239.0,0.0146
3238.0,0.0146
3237.0,0.0147
3236.0,0.0148
3235.0,0.0148
3234.0,0.0148
3233.0,0.0148
3232.0,0.0149
3231.0,0.0149
3230.0,0.0149
3229.0,0.0149
3228.0,0.0149
3227.0,0.0148
3226.0,0.0148
3225.0,0.0147
3224.0,0.0147
3223.0,0.0146
3222.0,0.0145
3221.0,0.0144
3220.0,0.0144
3219.0,0.0145
3218.0,0.0146
3217.0,0.0147
3216.0,0.0147
3215.0,0.0147
3214.0,0.0146
3213.0,0.0145
3212.0,0.0144
3211.0,0.0144
3210.0,0.0145
3209.0,0.0146
3208.0,0.0146
3207.0,0.0145
3206.0,0.0144
3205.0,0.0144
3204.0,0.0144
3203.0,0.0144
3202.0,0.0145
3201.0,0.0145
3200.0,0.0145
3199.0,0.0145
3198.0,0.0146
3197.0,0.0147
3196.0,0.0147
3195.0,0.0147
3194.0,0.0146
3193.0,0.0144
3192.0,0.0142
3191.0,0.0142
3190.0,0.0142
3189.0,0.0143
3188.0,0.0143
3187.0,0.0143
3186.0,0.0142
3185.0,0.0142
3184.0,0.0141
3183.0,0.0142
3182.0,0.0143
3181.0,0.0144
3180.0,0.0144
3179.0,0.0143
3178.0,0.0142
3177.0,0.0141
3176.0,0.0141
3175.0,0.0142
3174.0,0.0143
3173.0,0.0144
3172.0,0.0145
3171.0,0.0144
3170.0,0.0143
3169.0,0.0141
3168.0,0.014
3167.0,0.014
3166.0,0.0141
3165.0,0.0142
3164.0,0.0142
3163.0,0.0142
3162.0,0.0141
3161.0,0.014
3160.0,0.0139
3159.0,0.0139
3158.0,0.0139
3157.0,0.0139
3156.0,0.0139
3155.0,0.0138
3154.0,0.0138
3153.0,0.0139
3152.0,0.014
3151.0,0.0141
3150.0,0.0141
3149.0,0.0141
3148.0,0.0141
3147.0,0.0142
3146.0,0.0142
3145.0,0.0142
3144.0,0.0142
3143.0,0.0141
3142.0,0.0141
3141.0,0.014
3140.0,0.014
3139.0,0.0139
3138.0,0.0139
3137.0,0.0139
3136.0,0.0139
3135.0,0.0138
3134.0,0.0138
3133.0,0.0138
3132.0,0.0137
3131.0,0.0137
3130.0,0.0137
3129.0,0.0137
3128.0,0.0138
3127.0,0.0138
3126.0,0.0138
3125.0,0.0137
3124.0,0.0136
3123.0,0.0136
3122.0,0.0136
3121.0,0.0136
3120.0,0.0136
3119.0,0.0136
3118.0,0.0136
3117.0,0.0135
3116.0,0.0134
3115.0,0.0133
3114.0,0.0132
3113.0,0.0133
3112.0,0.0134
3111.0,0.0135
3110.0,0.0137
3109.0,0.0138
3108.0,0.0138
3107.0,0.0137
3106.0,0.0137
3105.0,0.0137
3104.0,0.0137
3103.0,0.0138
3102.0,0.0138
3101.0,0.0138
3100.0,0.0137
3099.0,0.0136
3098.0,0.0136
3097.0,0.0137
3096.0,0.0137
3095.0,0.0137
3094.0,0.0137
3093.0,0.0137
3092.0,0.0137
3091.0,0.0137
3090.0,0.0138
3089.0,0.0139
3088.0,0.014
3087.0,0.0142
3086.0,0.0144
3085.0,0.0146
3084.0,0.0147
3083.0,0.0148
3082.0,0.0147
3081.0,0.0147
3080.0,0.0146
3079.0,0.0146
3078.0,0.0145
3077.0,0.0145
3076.0,0.0144
3075.0,0.0143
3074.0,0.0142
3073.0,0.0141
3072.0,0.0141
3071.0,0.0141
3070.0,0.0141
3069.0,0.0142
3068.0,0.0144
3067.0,0.0146
3066.0,0.0147
3065.0,0.0148
3064.0,0.015
3063.0,0.0152
3062.0,0.0155
3061.0,0.0157
3060.0,0.0158
3059.0,0.0158
3058.0,0.0158
3057.0,0.0158
3056.0,0.0157
3055.0,0.0156
3054.0,0.0154
3053.0,0.0152
3052.0,0.0151
3051.0,0.015
3050.0,0.0148
3049.0,0.0147
3048.0,0.0145
3047.0,0.0144
3046.0,0.0143
3045.0,0.0142
3044.0,0.0142
3043.0,0.0142
3042.0,0.0142
3041.0,0.0141
3040.0,0.0141
3039.0,0.0141
3038.0,0.0141
3037.0,0.0143
3036.0,0.0145
3035.0,0.0148
3034.0,0.0152
3033.0,0.0156
3032.0,0.0161
3031.0,0.0166
3030.0,0.0171
3029.0,0.0177
3028.0,0.0182
3027.0,0.0187
3026.0,0.0191
3025.0,0.0193
3024.0,0.0194
3023.0,0.0193
3022.0,0.019
3021.0,0.0186
3020.0,0.0181
3019.0,0.0175
3018.0,0.017
3017.0,0.0166
3016.0,0.0162
3015.0,0.016
3014.0,0.0158
3013.0,0.0157
3012.0,0.0156
3011.0,0.0155
3010.0,0.0154
3009.0,0.0153
3008.0,0.0153
3007.0,0.0152
3006.0,0.0152
3005.0,0.0153
3004.0,0.0154
3003.0,0.0154
3002.0,0.0154
3001.0,0.0154
3000.0,0.0154
2999.0,0.0154
2998.0,0.0152
2997.0,0.0151
2996.0,0.0149
2995.0,0.0149
2994.0,0.0148
2993.0,0.0148
2992.0,0.0147
2991.0,0.0146
2990.0,0.0144
2989.0,0.0143
2988.0,0.0142
2987.0,0.0141
2986.0,0.0141
2985.0,0.0141
2984.0,0.014
2983.0,0.0139
2982.0,0.0139
2981.0,0.0139
2980.0,0.014
2979.0,0.0141
2978.0,0.0141
2977.0,0.0141
2976.0,0.0141
2975.0,0.014
2974.0,0.014
2973.0,0.014
2972.0,0.014
2971.0,0.014
2970.0,0.014
2969.0,0.014
2968.0,0.0139
2967.0,0.0139
2966.0,0.014
2965.0,0.014
2964.0,0.0141
2963.0,0.0142
2962.0,0.0143
2961.0,0.0144
2960.0,0.0145
2959.0,0.0145
2958.0,0.0145
2957.0,0.0145
2956.0,0.0145
2955.0,0.0145
2954.0,0.0146
2953.0,0.0146
2952.0,0.0147
2951.0,0.0148
2950.0,0.0148
2949.0,0.0148
2948.0,0.0149
2947.0,0.015
2946.0,0.0152
2945.0,0.0154
2944.0,0.0156
2943.0,0.0157
2942.0,0.0159
2941.0,0.0161
2940.0,0.0163
2939.0,0.0164
2938.0,0.0166
2937.0,0.017
2936.0,0.0173
2935.0,0.0178
2934.0,0.0182
2933.0,0.0187
2932.0,0.0192
2931.0,0.0197
2930.0,0.0201
2929.0,0.0205
2928.0,0.0209
2927.0,0.0212
2926.0,0.0215
2925.0,0.0219
2924.0,0.0222
2923.0,0.0225
2922.0,0.0226
2921.0,0.0227
2920.0,0.0227
2919.0,0.0228
2918.0,0.0228
2917.0,0.0228
2916.0,0.0227
2915.0,0.0225
2914.0,0.0223
2913.0,0.0222
2912.0,0.022
2911.0,0.0219
2910.0,0.0217
2909.0,0.0216
2908.0,0.0215
2907.0,0.0214
2906.0,0.0212
2905.0,0.021
2904.0,0.0207
2903.0,0.0205
2902.0,0.0203
2901.0,0.0202
2900.0,0.02
2899.0,0.0198
2898.0,0.0196
2897.0,0.0195
2896.0,0.0193
2895.0,0.0192
2894.0,0.0191
2893.0,0.0191
2892.0,0.019
2891.0,0.0189
2890.0,0.0188
2889.0,0.0186
2888.0,0.0184
2887.0,0.0183
2886.0,0.0182
2885.0,0.0182
2884.0,0.0181
2883.0,0.0181
2882.0,0.0181
2881.0,0.018
2880.0,0.018
2879.0,0.018
2878.0,0.0179
2877.0,0.0178
2876.0,0.0178
2875.0,0.0177
2874.0,0.0176
2873.0,0.0176
2872.0,0.0175
2871.0,0.0174
2870.0,0.0174
2869.0,0.0175
2868.0,0.0175
2867.0,0.0175
2866.0,0.0175
2865.0,0.0175
2864.0,0.0176
2863.0,0.0177
2862.0,0.0178
2861.0,0.0178
2860.0,0.0179
2859.0,0.0181
2858.0,0.0182
2857.0,0.0184
2856.0,0.0187
2855.0,0.0189
2854.0,0.0191
2853.0,0.0192
2852.0,0.0194
2851.0,0.0195
2850.0,0.0196
2849.0,0.0197
2848.0,0.0196
2847.0,0.0195
2846.0,0.0194
2845.0,0.0193
2844.0,0.0192
2843.0,0.0191
2842.0,0.019
2841.0,0.0188
2840.0,0.0186
2839.0,0.0184
2838.0,0.0181
2837.0,0.0179
2836.0,0.0177
2835.0,0.0176
2834.0,0.0176
2833.0,0.0175
2832.0,0.0174
2831.0,0.0173
2830.0,0.0172
2829.0,0.0172
2828.0,0.0172
2827.0,0.0171
2826.0,0.0171
2825.0,0.017
2824.0,0.0169
2823.0,0.0169
2822.0,0.0169
2821.0,0.0169
2820.0,0.0169
2819.0,0.0168
2818.0,0.0167
2817.0,0.0167
2816.0,0.0168
2815.0,0.0168
2814.0,0.0168
2813.0,0.0168
2812.0,0.0166
2811.0,0.0165
2810.0,0.0165
2809.0,0.0165
2808.0,0.0166
2807.0,0.0167
2806.0,0.0167
2805.0,0.0167
2804.0,0.0167
2803.0,0.0167
2802.0,0.0167
2801.0,0.0167
2800.0,0.0167
2799.0,0.0166
2798.0,0.0166
2797.0,0.0166
2796.0,0.0165
2795.0,0.0165
2794.0,0.0165
2793.0,0.0165
2792.0,0.0164
2791.0,0.0164
2790.0,0.0164
2789.0,0.0165
2788.0,0.0166
2787.0,0.0165
2786.0,0.0165
2785.0,0.0164
2784.0,0.0164
2783.0,0.0164
2782.0,0.0164
2781.0,0.0164
2780.0,0.0164
2779.0,0.0164
2778.0,0.0164
2777.0,0.0164
2776.0,0.0164
2775.0,0.0164
2774.0,0.0164
2773.0,0.0164
2772.0,0.0164
2771.0,0.0164
2770.0,0.0163
2769.0,0.0163
2768.0,0.0163
2767.0,0.0163
2766.0,0.0163
2765.0,0.0163
2764.0,0.0163
2763.0,0.0163
2762.0,0.0163
2761.0,0.0163
2760.0,0.0163
2759.0,0.0163
2758.0,0.0164
2757.0,0.0164
2756.0,0.0164
2755.0,0.0163
2754.0,0.0163
2753.0,0.0162
2752.0,0.0163
2751.0,0.0163
2750.0,0.0164
2749.0,0.0165
2748.0,0.0165
2747.0,0.0165
2746.0,0.0165
2745.0,0.0164
2744.0,0.0164
2743.0,0.0163
2742.0,0.0163
2741.0,0.0163
2740.0,0.0162
2739.0,0.0162
2738.0,0.0162
2737.0,0.0162
2736.0,0.0162
2735.0,0.0162
2734.0,0.0162
2733.0,0.0163
2732.0,0.0163
2731.0,0.0163
2730.0,0.0163
2729.0,0.0163
2728.0,0.0163
2727.0,0.0163
2726.0,0.0164
2725.0,0.0164
2724.0,0.0164
2723.0,0.0164
2722.0,0.0164
2721.0,0.0164
2720.0,0.0164
2719.0,0.0165
2718.0,0.0165
2717.0,0.0165
2716.0,0.0165
2715.0,0.0164
2714.0,0.0164
2713.0,0.0165
2712.0,0.0164
2711.0,0.0164
2710.0,0.0164
2709.0,0.0164
2708.0,0.0164
2707.0,0.0165
2706.0,0.0165
2705.0,0.0165
2704.0,0.0164
2703.0,0.0164
2702.0,0.0163
2701.0,0.0163
2700.0,0.0164
2699.0,0.0164
2698.0,0.0164
2697.0,0.0164
2696.0,0.0164
2695.0,0.0164
2694.0,0.0165
2693.0,0.0165
2692.0,0.0165
2691.0,0.0164
2690.0,0.0164
2689.0,0.0164
2688.0,0.0165
2687.0,0.0166
2686.0,0.0167
2685.0,0.0167
2684.0,0.0166
2683.0,0.0166
2682.0,0.0166
2681.0,0.0165
2680.0,0.0165
2679.0,0.0165
2678.0,0.0165
2677.0,0.0165
2676.0,0.0165
2675.0,0.0165
2674.0,0.0165
2673.0,0.0165
2672.0,0.0165
2671.0,0.0165
2670.0,0.0166
2669.0,0.0166
2668.0,0.0166
2667.0,0.0166
2666.0,0.0166
2665.0,0.0167
2664.0,0.0167
2663.0,0.0167
2662.0,0.0167
2661.0,0.0167
2660.0,0.0167
2659.0,0.0167
2658.0,0.0167
2657.0,0.0167
2656.0,0.0167
2655.0,0.0166
2654.0,0.0166
2653.0,0.0165
2652.0,0.0165
2651.0,0.0165
2650.0,0.0165
2649.0,0.0165
2648.0,0.0166
2647.0,0.0167
2646.0,0.0167
2645.0,0.0167
2644.0,0.0166
2643.0,0.0165
2642.0,0.0165
2641.0,0.0164
2640.0,0.0165
2639.0,0.0165
2638.0,0.0166
2637.0,0.0166
2636.0,0.0166
2635.0,0.0165
2634.0,0.0165
2633.0,0.0165
2632.0,0.0165
2631.0,0.0166
2630.0,0.0167
2629.0,0.0168
2628.0,0.0169
2627.0,0.0169
2626.0,0.0169
2625.0,0.0168
2624.0,0.0168
2623.0,0.0167
2622.0,0.0167
2621.0,0.0166
2620.0,0.0166
2619.0,0.0167
2618.0,0.0167
2617.0,0.0168
2616.0,0.0168
2615.0,0.0167
2614.0,0.0167
2613.0,0.0168
2612.0,0.0168
2611.0,0.0169
2610.0,0.0168
2609.0,0.0168
2608.0,0.0167
2607.0,0.0167
2606.0,0.0167
2605.0,0.0168
2604.0,0.0168
2603.0,0.0169
2602.0,0.0169
2601.0,0.0169
2600.0,0.0169
2599.0,0.0169
2598.0,0.0168
2597.0,0.0168
2596.0,0.0168
2595.0,0.0168
2594.0,0.0168
2593.0,0.0167
2592.0,0.0168
2591.0,0.0168
2590.0,0.0168
2589.0,0.0168
2588.0,0.0168
2587.0,0.0168
2586.0,0.0168
2585.0,0.0168
2584.0,0.0169
2583.0,0.0169
2582.0,0.0169
2581.0,0.0169
2580.0,0.0169
2579.0,0.0169
2578.0,0.0169
2577.0,0.0168
2576.0,0.0168
2575.0,0.0169
2574.0,0.0169
2573.0,0.0169
2572.0,0.0169
2571.0,0.0169
2570.0,0.0168
2569.0,0.0168
2568.0,0.0168
2567.0,0.0169
2566.0,0.0169
2565.0,0.0169
2564.0,0.0169
2563.0,0.0169
2562.0,0.0168
2561.0,0.0168
2560.0,0.0168
2559.0,0.0168
2558.0,0.0168
2557.0,0.0169
2556.0,0.0169
2555.0,0.017
2554.0,0.017
2553.0,0.0169
2552.0,0.0169
2551.0,0.0169
2550.0,0.0168
2549.0,0.0168
2548.0,0.0168
2547.0,0.0168
2546.0,0.0169
2545.0,0.017
2544.0,0.017
2543.0,0.0171
2542.0,0.017
2541.0,0.017
2540.0,0.017
2539.0,0.017
2538.0,0.017
2537.0,0.017
2536.0,0.0169
2535.0,0.0169
2534.0,0.017
2533.0,0.017
2532.0,0.017
2531.0,0.017
2530.0,0.0171
2529.0,0.0172
2528.0,0.0172
2527.0,0.0171
2526.0,0.0171
2525.0,0.0171
2524.0,0.0171
2523.0,0.0171
2522.0,0.0172
2521.0,0.0172
2520.0,0.0171
2519.0,0.0171
2518.0,0.0171
2517.0,0.0171
2516.0,0.0171
2515.0,0.0171
2514.0,0.0171
2513.0,0.0172
2512.0,0.0173
2511.0,0.0173
2510.0,0.0173
2509.0,0.0172
2508.0,0.0171
2507.0,0.0171
2506.0,0.0171
2505.0,0.0171
2504.0,0.0172
2503.0,0.0172
2502.0,0.0172
2501.0,0.0172
2500.0,0.0172
2499.0,0.0172
2498.0,0.0172
2497.0,0.0172
2496.0,0.0173
2495.0,0.0173
2494.0,0.0173
2493.0,0.0173
2492.0,0.0173
2491.0,0.0173
2490.0,0.0173
2489.0,0.0173
2488.0,0.0173
2487.0,0.0173
2486.0,0.0173
2485.0,0.0173
2484.0,0.0173
2483.0,0.0172
2482.0,0.0172
2481.0,0.0172
2480.0,0.0172
2479.0,0.0172
2478.0,0.0172
2477.0,0.0172
2476.0,0.0173
2475.0,0.0173
2474.0,0.0174
2473.0,0.0174
2472.0,0.0174
2471.0,0.0174
2470.0,0.0173
2469.0,0.0173
2468.0,0.0173
2467.0,0.0174
2466.0,0.0174
2465.0,0.0174
2464.0,0.0174
2463.0,0.0174
2462.0,0.0174
2461.0,0.0174
2460.0,0.0174
2459.0,0.0174
2458.0,0.0174
2457.0,0.0174
2456.0,0.0174
2455.0,0.0174
2454.0,0.0174
2453.0,0.0174
2452.0,0.0174
2451.0,0.0174
2450.0,0.0174
2449.0,0.0174
2448.0,0.0174
2447.0,0.0174
2446.0,0.0174
2445.0,0.0174
2444.0,0.0174
2443.0,0.0174
2442.0,0.0174
2441.0,0.0174
2440.0,0.0174
2439.0,0.0174
2438.0,0.0174
2437.0,0.0174
2436.0,0.0174
2435.0,0.0174
2434.0,0.0174
2433.0,0.0173
2432.0,0.0173
2431.0,0.0174
2430.0,0.0176
2429.0,0.0176
2428.0,0.0176
2427.0,0.0176
2426.0,0.0175
2425.0,0.0176
2424.0,0.0177
2423.0,0.0177
2422.0,0.0177
2421.0,0.0176
2420.0,0.0176
2419.0,0.0176
2418.0,0.0176
2417.0,0.0176
2416.0,0.0177
2415.0,0.0177
2414.0,0.0177
2413.0,0.0177
2412.0,0.0177
2411.0,0.0176
2410.0,0.0176
2409.0,0.0176
2408.0,0.0175
2407.0,0.0175
2406.0,0.0175
2405.0,0.0175
2404.0,0.0175
2403.0,0.0176
2402.0,0.0176
2401.0,0.0176
2400.0,0.0176
2399.0,0.0176
2398.0,0.0177
2397.0,0.0177
2396.0,0.0178
2395.0,0.0178
2394.0,0.0179
2393.0,0.018
2392.0,0.018
2391.0,0.018
2390.0,0.0179
2389.0,0.0179
2388.0,0.0178
2387.0,0.0178
2386.0,0.0179
2385.0,0.018
2384.0,0.018
2383.0,0.018
2382.0,0.0179
2381.0,0.0178
2380.0,0.0178
2379.0,0.0178
2378.0,0.0179
2377.0,0.0179
2376.0,0.0179
2375.0,0.0178
2374.0,0.0179
2373.0,0.0182
2372.0,0.0187
2371.0,0.0191
2370.0,0.0194
2369.0,0.0198
2368.0,0.0204
2367.0,0.021
2366.0,0.0214
2365.0,0.0212
2364.0,0.0205
2363.0,0.0196
2362.0,0.0193
2361.0,0.0197
2360.0,0.0207
2359.0,0.0218
2358.0,0.0226
2357.0,0.0224
2356.0,0.0214
2355.0,0.0199
2354.0,0.0189
2353.0,0.0184
2352.0,0.0184
2351.0,0.0188
2350.0,0.0194
2349.0,0.0198
2348.0,0.0197
2347.0,0.0193
2346.0,0.0192
2345.0,0.0196
2344.0,0.0201
2343.0,0.0203
2342.0,0.0203
2341.0,0.0202
2340.0,0.0199
2339.0,0.0194
2338.0,0.0186
2337.0,0.0181
2336.0,0.018
2335.0,0.0181
2334.0,0.0181
2333.0,0.0178
2332.0,0.0176
2331.0,0.0176
2330.0,0.0177
2329.0,0.018
2328.0,0.0184
2327.0,0.0186
2326.0,0.0187
2325.0,0.0187
2324.0,0.0188
2323.0,0.0188
2322.0,0.0187
2321.0,0.0184
2320.0,0.0182
2319.0,0.0182
2318.0,0.0183
2317.0,0.0185
2316.0,0.0185
2315.0,0.0185
2314.0,0.0184
2313.0,0.0184
2312.0,0.0185
2311.0,0.0187
2310.0,0.0188
2309.0,0.0188
2308.0,0.0188
2307.0,0.0187
2306.0,0.0186
2305.0,0.0186
2304.0,0.0186
2303.0,0.0187
2302.0,0.0188
2301.0,0.0188
2300.0,0.0188
2299.0,0.0187
2298.0,0.0187
2297.0,0.0187
2296.0,0.0187
2295.0,0.0187
2294.0,0.0187
2293.0,0.0187
2292.0,0.0186
2291.0,0.0186
2290.0,0.0186
2289.0,0.0186
2288.0,0.0187
2287.0,0.0188
2286.0,0.0188
2285.0,0.0188
2284.0,0.0188
2283.0,0.0188
2282.0,0.0187
2281.0,0.0186
2280.0,0.0186
2279.0,0.0187
2278.0,0.0188
2277.0,0.0188
2276.0,0.0188
2275.0,0.0188
2274.0,0.0188
2273.0,0.0187
2272.0,0.0187
2271.0,0.0187
2270.0,0.0187
2269.0,0.0187
2268.0,0.0187
2267.0,0.0188
2266.0,0.0188
2265.0,0.0188
2264.0,0.0188
2263.0,0.0188
2262.0,0.0188
2261.0,0.0188
2260.0,0.0188
2259.0,0.0188
2258.0,0.0188
2257.0,0.0189
2256.0,0.0189
2255.0,0.0189
2254.0,0.019
2253.0,0.0189
2252.0,0.0189
2251.0,0.0189
2250.0,0.0189
2249.0,0.0189
2248.0,0.0189
2247.0,0.0189
2246.0,0.0189
2245.0,0.0189
2244.0,0.0189
2243.0,0.0189
2242.0,0.019
2241.0,0.019
2240.0,0.019
2239.0,0.019
2238.0,0.019
2237.0,0.019
2236.0,0.019
2235.0,0.019
2234.0,0.019
2233.0,0.019
2232.0,0.019
2231.0,0.019
2230.0,0.0189
2229.0,0.0189
2228.0,0.0189
2227.0,0.0188
2226.0,0.0189
2225.0,0.0189
2224.0,0.0189
2223.0,0.019
2222.0,0.0189
2221.0,0.0189
2220.0,0.019
2219.0,0.019
2218.0,0.019
2217.0,0.019
2216.0,0.019
2215.0,0.019
2214.0,0.0191
2213.0,0.0191
2212.0,0.0191
2211.0,0.0191
2210.0,0.0192
2209.0,0.0192
2208.0,0.0192
2207.0,0.0192
2206.0,0.0192
2205.0,0.0192
2204.0,0.0192
2203.0,0.0192
2202.0,0.0191
2201.0,0.0191
2200.0,0.0191
2199.0,0.0192
2198.0,0.0192
2197.0,0.0193
2196.0,0.0193
2195.0,0.0193
2194.0,0.0192
2193.0,0.0192
2192.0,0.0191
2191.0,0.0191
2190.0,0.0191
2189.0,0.0191
2188.0,0.0192
2187.0,0.0192
2186.0,0.0193
2185.0,0.0193
2184.0,0.0194
2183.0,0.0194
2182.0,0.0194
2181.0,0.0194
2180.0,0.0194
2179.0,0.0194
2178.0,0.0194
2177.0,0.0194
2176.0,0.0194
2175.0,0.0194
2174.0,0.0194
2173.0,0.0194
2172.0,0.0194
2171.0,0.0194
2170.0,0.0195
2169.0,0.0196
2168.0,0.0196
2167.0,0.0196
2166.0,0.0195
2165.0,0.0195
2164.0,0.0194
2163.0,0.0194
2162.0,0.0194
2161.0,0.0194
2160.0,0.0194
2159.0,0.0194
2158.0,0.0194
2157.0,0.0195
2156.0,0.0195
2155.0,0.0195
2154.0,0.0195
2153.0,0.0195
2152.0,0.0196
2151.0,0.0196
2150.0,0.0196
2149.0,0.0196
2148.0,0.0195
2147.0,0.0195
2146.0,0.0196
2145.0,0.0196
2144.0,0.0196
2143.0,0.0196
2142.0,0.0196
2141.0,0.0196
2140.0,0.0196
2139.0,0.0196
2138.0,0.0196
2137.0,0.0196
2136.0,0.0196
2135.0,0.0197
2134.0,0.0197
2133.0,0.0198
2132.0,0.0199
2131.0,0.0199
2130.0,0.0199
2129.0,0.0199
2128.0,0.0199
2127.0,0.0198
2126.0,0.0198
2125.0,0.0197
2124.0,0.0197
2123.0,0.0198
2122.0,0.0198
2121.0,0.0198
2120.0,0.0199
2119.0,0.0199
2118.0,0.0199
2117.0,0.02
2116.0,0.02
2115.0,0.02
2114.0,0.02
2113.0,0.02
2112.0,0.02
2111.0,0.02
2110.0,0.0199
2109.0,0.0199
2108.0,0.02
2107.0,0.02
2106.0,0.02
2105.0,0.02
2104.0,0.02
2103.0,0.0199
2102.0,0.0199
2101.0,0.0199
2100.0,0.0199
2099.0,0.02
2098.0,0.02
2097.0,0.02
2096.0,0.02
2095.0,0.02
2094.0,0.02
2093.0,0.02
2092.0,0.02
2091.0,0.02
2090.0,0.02
2089.0,0.02
2088.0,0.02
2087.0,0.02
2086.0,0.02
2085.0,0.0201
2084.0,0.0201
2083.0,0.0201
2082.0,0.0202
2081.0,0.0201
2080.0,0.0201
2079.0,0.0201
2078.0,0.02
2077.0,0.02
2076.0,0.02
2075.0,0.0201
2074.0,0.0201
2073.0,0.0202
2072.0,0.0203
2071.0,0.0203
2070.0,0.0203
2069.0,0.0203
2068.0,0.0203
2067.0,0.0203
2066.0,0.0203
2065.0,0.0202
2064.0,0.0203
2063.0,0.0203
2062.0,0.0203
2061.0,0.0203
2060.0,0.0204
2059.0,0.0204
2058.0,0.0204
2057.0,0.0205
2056.0,0.0205
2055.0,0.0205
2054.0,0.0204
2053.0,0.0204
2052.0,0.0203
2051.0,0.0203
2050.0,0.0203
2049.0,0.0203
2048.0,0.0204
2047.0,0.0204
2046.0,0.0205
2045.0,0.0205
2044.0,0.0205
2043.0,0.0204
2042.0,0.0204
2041.0,0.0204
2040.0,0.0204
2039.0,0.0204
2038.0,0.0204
2037.0,0.0204
2036.0,0.0204
2035.0,0.0204
2034.0,0.0204
2033.0,0.0204
2032.0,0.0205
2031.0,0.0205
2030.0,0.0205
2029.0,0.0205
2028.0,0.0205
2027.0,0.0205
2026.0,0.0205
2025.0,0.0206
2024.0,0.0206
2023.0,0.0205
2022.0,0.0205
2021.0,0.0205
2020.0,0.0205
2019.0,0.0205
2018.0,0.0206
2017.0,0.0207
2016.0,0.0207
2015.0,0.0207
2014.0,0.0206
2013.0,0.0205
2012.0,0.0205
2011.0,0.0205
2010.0,0.0206
2009.0,0.0206
2008.0,0.0207
2007.0,0.0207
2006.0,0.0207
2005.0,0.0207
2004.0,0.0207
2003.0,0.0208
2002.0,0.0208
2001.0,0.0208
2000.0,0.0208
1999.0,0.0208
1998.0,0.0208
1997.0,0.0208
1996.0,0.0208
1995.0,0.0208
1994.0,0.0208
1993.0,0.0208
1992.0,0.0208
1991.0,0.0209
1990.0,0.0209
1989.0,0.0209
1988.0,0.0209
1987.0,0.0209
1986.0,0.021
1985.0,0.0209
1984.0,0.0209
1983.0,0.0209
1982.0,0.0209
1981.0,0.0209
1980.0,0.0209
1979.0,0.0209
1978.0,0.0209
1977.0,0.0209
1976.0,0.021
1975.0,0.021
1974.0,0.021
1973.0,0.021
1972.0,0.021
1971.0,0.021
1970.0,0.021
1969.0,0.021
1968.0,0.021
1967.0,0.0211
1966.0,0.0212
1965.0,0.0213
1964.0,0.0214
1963.0,0.0214
1962.0,0.0214
1961.0,0.0214
1960.0,0.0215
1959.0,0.0215
1958.0,0.0216
1957.0,0.0217
1956.0,0.0217
1955.0,0.0218
1954.0,0.0218
1953.0,0.0218
1952.0,0.0218
1951.0,0.0219
1950.0,0.022
1949.0,0.0221
1948.0,0.0221
1947.0,0.0222
1946.0,0.0222
1945.0,0.0222
1944.0,0.0222
1943.0,0.0223
1942.0,0.0224
1941.0,0.0224
1940.0,0.0225
1939.0,0.0225
1938.0,0.0225
1937.0,0.0225
1936.0,0.0224
1935.0,0.0224
1934.0,0.0223
1933.0,0.0223
1932.0,0.0223
1931.0,0.0222
1930.0,0.0221
1929.0,0.0221
1928.0,0.022
1927.0,0.022
1926.0,0.0219
1925.0,0.0219
1924.0,0.0219
1923.0,0.0219
1922.0,0.0219
1921.0,0.0219
1920.0,0.0219
1919.0,0.0219
1918.0,0.0219
1917.0,0.0218
1916.0,0.0218
1915.0,0.0218
1914.0,0.0218
1913.0,0.0219
1912.0,0.0219
1911.0,0.0219
1910.0,0.0219
1909.0,0.0219
1908.0,0.0218
1907.0,0.0218
1906.0,0.0218
1905.0,0.0218
1904.0,0.0218
1903.0,0.0219
1902.0,0.0219
1901.0,0.0219
1900.0,0.0219
1899.0,0.0219
1898.0,0.0219
1897.0,0.022
1896.0,0.022
1895.0,0.0221
1894.0,0.0222
1893.0,0.0222
1892.0,0.0223
1891.0,0.0223
1890.0,0.0223
1889.0,0.0224
1888.0,0.0224
1887.0,0.0225
1886.0,0.0225
1885.0,0.0226
1884.0,0.0226
1883.0,0.0227
1882.0,0.0227
1881.0,0.0227
1880.0,0.0228
1879.0,0.0228
1878.0,0.0228
1877.0,0.0228
1876.0,0.0228
1875.0,0.0227
1874.0,0.0228
1873.0,0.0228
1872.0,0.0229
1871.0,0.0229
1870.0,0.0229
1869.0,0.023
1868.0,0.0231
1867.0,0.0232
1866.0,0.0232
1865.0,0.0232
1864.0,0.0231
1863.0,0.023
1862.0,0.023
1861.0,0.023
1860.0,0.023
1859.0,0.023
1858.0,0.0229
1857.0,0.0228
1856.0,0.0227
1855.0,0.0226
1854.0,0.0226
1853.0,0.0226
1852.0,0.0226
1851.0,0.0226
1850.0,0.0226
1849.0,0.0226
1848.0,0.0227
1847.0,0.0227
1846.0,0.0227
1845.0,0.0226
1844.0,0.0226
1843.0,0.0226
1842.0,0.0226
1841.0,0.0227
1840.0,0.0227
1839.0,0.0227
1838.0,0.0226
1837.0,0.0226
1836.0,0.0226
1835.0,0.0226
1834.0,0.0226
1833.0,0.0226
1832.0,0.0225
1831.0,0.0224
1830.0,0.0224
1829.0,0.0225
1828.0,0.0226
1827.0,0.0227
1826.0,0.0228
1825.0,0.0228
1824.0,0.0229
1823.0,0.0229
1822.0,0.0229
1821.0,0.0228
1820.0,0.0228
1819.0,0.0229
1818.0,0.0229
1817.0,0.0231
1816.0,0.0231
1815.0,0.0232
1814.0,0.0232
1813.0,0.0232
1812.0,0.0232
1811.0,0.0233
1810.0,0.0234
1809.0,0.0235
1808.0,0.0235
1807.0,0.0236
1806.0,0.0237
1805.0,0.0237
1804.0,0.0238
1803.0,0.0238
1802.0,0.0238
1801.0,0.0238
1800.0,0.0238
1799.0,0.0238
1798.0,0.0238
1797.0,0.0238
1796.0,0.0238
1795.0,0.0237
1794.0,0.0236
1793.0,0.0236
1792.0,0.0236
1791.0,0.0235
1790.0,0.0235
1789.0,0.0235
1788.0,0.0235
1787.0,0.0235
1786.0,0.0234
1785.0,0.0234
1784.0,0.0234
1783.0,0.0233
1782.0,0.0232
1781.0,0.0232
1780.0,0.0233
1779.0,0.0234
1778.0,0.0234
1777.0,0.0234
1776.0,0.0234
1775.0,0.0234
1774.0,0.0234
1773.0,0.0234
1772.0,0.0234
1771.0,0.0235
1770.0,0.0235
1769.0,0.0236
1768.0,0.0236
1767.0,0.0236
1766.0,0.0235
1765.0,0.0235
1764.0,0.0235
1763.0,0.0234
1762.0,0.0234
1761.0,0.0234
1760.0,0.0235
1759.0,0.0236
1758.0,0.0237
1757.0,0.0237
1756.0,0.0238
1755.0,0.0239
1754.0,0.0239
1753.0,0.0239
1752.0,0.024
1751.0,0.024
1750.0,0.0241
1749.0,0.0242
1748.0,0.0243
1747.0,0.0244
1746.0,0.0244
1745.0,0.0244
1744.0,0.0244
1743.0,0.0245
1742.0,0.0246
1741.0,0.0246
1740.0,0.0246
1739.0,0.0247
1738.0,0.0247
1737.0,0.0247
1736.0,0.0246
1735.0,0.0244
1734.0,0.0244
1733.0,0.0245
1732.0,0.0245
1731.0,0.0246
1730.0,0.0246
1729.0,0.0246
1728.0,0.0246
1727.0,0.0246
1726.0,0.0246
1725.0,0.0245
1724.0,0.0245
1723.0,0.0244
1722.0,0.0244
1721.0,0.0243
1720.0,0.0243
1719.0,0.0242
1718.0,0.0242
1717.0,0.0244
1716.0,0.0244
1715.0,0.0244
1714.0,0.0244
1713.0,0.0244
1712.0,0.0245
1711.0,0.0245
1710.0,0.0245
1709.0,0.0245
1708.0,0.0245
1707.0,0.0245
1706.0,0.0245
1705.0,0.0246
1704.0,0.0247
1703.0,0.0248
1702.0,0.0249
1701.0,0.0249
1700.0,0.0249
1699.0,0.0249
1698.0,0.025
1697.0,0.0251
1696.0,0.0252
1695.0,0.0252
1694.0,0.0252
1693.0,0.0252
1692.0,0.0251
1691.0,0.0251
1690.0,0.0251
1689.0,0.0253
1688.0,0.0255
1687.0,0.0256
1686.0,0.0257
1685.0,0.0258
1684.0,0.0259
1683.0,0.0259
1682.0,0.026
1681.0,0.0261
1680.0,0.0262
1679.0,0.0262
1678.0,0.0263
1677.0,0.0263
1676.0,0.0263
1675.0,0.0264
1674.0,0.0264
1673.0,0.0265
1672.0,0.0266
1671.0,0.0266
1670.0,0.0268
1669.0,0.0269
1668.0,0.027
1667.0,0.0271
1666.0,0.0271
1665.0,0.0271
1664.0,0.0271
1663.0,0.0272
1662.0,0.0273
1661.0,0.0274
1660.0,0.0274
1659.0,0.0274
1658.0,0.0273
1657.0,0.0274
1656.0,0.0275
1655.0,0.0276
1654.0,0.0279
1653.0,0.028
1652.0,0.0277
1651.0,0.0275
1650.0,0.0275
1649.0,0.0273
1648.0,0.0273
1647.0,0.0275
1646.0,0.0279
1645.0,0.0281
1644.0,0.0282
1643.0,0.0283
1642.0,0.0283
1641.0,0.0284
1640.0,0.0283
1639.0,0.0283
1638.0,0.0282
1637.0,0.0282
1636.0,0.0282
1635.0,0.0281
1634.0,0.0279
1633.0,0.0278
1632.0,0.0277
1631.0,0.0276
1630.0,0.0275
1629.0,0.0274
1628.0,0.0275
1627.0,0.0276
1626.0,0.0275
1625.0,0.0273
1624.0,0.0271
1623.0,0.0271
1622.0,0.0271
1621.0,0.0272
1620.0,0.0272
1619.0,0.0272
1618.0,0.027
1617.0,0.0269
1616.0,0.0269
1615.0,0.0269
1614.0,0.027
1613.0,0.027
1612.0,0.0271
1611.0,0.0272
1610.0,0.0274
1609.0,0.0277
1608.0,0.0284
1607.0,0.0292
1606.0,0.0303
1605.0,0.0315
1604.0,0.0328
1603.0,0.0342
1602.0,0.0353
1601.0,0.036
1600.0,0.0361
1599.0,0.0356
1598.0,0.0348
1597.0,0.0339
1596.0,0.033
1595.0,0.0323
1594.0,0.0317
1593.0,0.0313
1592.0,0.0308
1591.0,0.0304
1590.0,0.0302
1589.0,0.03
1588.0,0.03
1587.0,0.0302
1586.0,0.0305
1585.0,0.0309
1584.0,0.0312
1583.0,0.0313
1582.0,0.0312
1581.0,0.0308
1580.0,0.0304
1579.0,0.03
1578.0,0.0296
1577.0,0.0292
1576.0,0.029
1575.0,0.0289
1574.0,0.0288
1573.0,0.0287
1572.0,0.0285
1571.0,0.0283
1570.0,0.0282
1569.0,0.0281
1568.0,0.0281
1567.0,0.0281
1566.0,0.028
1565.0,0.028
1564.0,0.028
1563.0,0.028
1562.0,0.028
1561.0,0.0277
1560.0,0.0276
1559.0,0.028
1558.0,0.028
1557.0,0.0279
1556.0,0.028
1555.0,0.028
1554.0,0.0279
1553.0,0.0279
1552.0,0.0279
1551.0,0.0279
1550.0,0.028
1549.0,0.028
1548.0,0.028
1547.0,0.0279
1546.0,0.0278
1545.0,0.0279
1544.0,0.028
1543.0,0.0282
1542.0,0.0282
1541.0,0.0282
1540.0,0.0282
1539.0,0.028
1538.0,0.028
1537.0,0.028
1536.0,0.028
1535.0,0.028
1534.0,0.0279
1533.0,0.0279
1532.0,0.0279
1531.0,0.0278
1530.0,0.0276
1529.0,0.0274
1528.0,0.0273
1527.0,0.0273
1526.0,0.0273
1525.0,0.0272
1524.0,0.0271
1523.0,0.027
1522.0,0.027
1521.0,0.027
1520.0,0.027
1519.0,0.0269
1518.0,0.0268
1517.0,0.0268
1516.0,0.0268
1515.0,0.0268
1514.0,0.0267
1513.0,0.0266
1512.0,0.0265
1511.0,0.0264
1510.0,0.0263
1509.0,0.0262
1508.0,0.0262
1507.0,0.0261
1506.0,0.0258
1505.0,0.0256
1504.0,0.0256
1503.0,0.0256
1502.0,0.0256
1501.0,0.0257
1500.0,0.0261
1499.0,0.0271
1498.0,0.0296
1497.0,0.0343
1496.0,0.0404
1495.0,0.0461
1494.0,0.0502
1493.0,0.0527
1492.0,0.0531
1491.0,0.0512
1490.0,0.0475
1489.0,0.0437
1488.0,0.0409
1487.0,0.0389
1486.0,0.0373
1485.0,0.0361
1484.0,0.0351
1483.0,0.0341
1482.0,0.0333
1481.0,0.0327
1480.0,0.0323
1479.0,0.0319
1478.0,0.0315
1477.0,0.0312
1476.0,0.0309
1475.0,0.0307
1474.0,0.0305
1473.0,0.0306
1472.0,0.0306
1471.0,0.0305
1470.0,0.0303
1469.0,0.0302
1468.0,0.0301
1467.0,0.0299
1466.0,0.0298
1465.0,0.0297
1464.0,0.0297
1463.0,0.0296
1462.0,0.0294
1461.0,0.0292
1460.0,0.0292
1459.0,0.0296
1458.0,0.0318
1457.0,0.0369
1456.0,0.0425
1455.0,0.047
1454.0,0.0509
1453.0,0.054
1452.0,0.0557
1451.0,0.0557
1450.0,0.0544
1449.0,0.0525
1448.0,0.0507
1447.0,0.0493
1446.0,0.0481
1445.0,0.0471
1444.0,0.046
1443.0,0.045
1442.0,0.044
1441.0,0.0432
1440.0,0.0424
1439.0,0.0417
1438.0,0.0409
1437.0,0.0401
1436.0,0.0394
1435.0,0.0387
1434.0,0.0381
1433.0,0.0375
1432.0,0.0368
1431.0,0.0363
1430.0,0.0358
1429.0,0.0354
1428.0,0.0351
1427.0,0.0348
1426.0,0.0345
1425.0,0.0343
1424.0,0.0342
1423.0,0.0342
1422.0,0.0341
1421.0,0.0339
1420.0,0.0337
1419.0,0.0336
1418.0,0.0335
1417.0,0.0334
1416.0,0.0333
1415.0,0.0332
1414.0,0.0332
1413.0,0.0331
1412.0,0.0331
1411.0,0.033
1410.0,0.033
1409.0,0.0329
1408.0,0.0328
1407.0,0.0327
1406.0,0.0326
1405.0,0.0326
1404.0,0.0326
1403.0,0.0325
1402.0,0.0325
1401.0,0.0324
1400.0,0.0323
1399.0,0.0322
1398.0,0.0322
1397.0,0.0322
1396.0,0.0322
1395.0,0.0324
1394.0,0.0325
1393.0,0.0326
1392.0,0.0326
1391.0,0.0327
1390.0,0.0327
1389.0,0.0329
1388.0,0.033
1387.0,0.0333
1386.0,0.0335
1385.0,0.0336
1384.0,0.0338
1383.0,0.034
1382.0,0.0342
1381.0,0.0344
1380.0,0.0346
1379.0,0.0348
1378.0,0.0351
1377.0,0.0352
1376.0,0.0354
1375.0,0.0356
1374.0,0.0359
1373.0,0.0361
1372.0,0.0362
1371.0,0.0362
1370.0,0.0361
1369.0,0.0361
1368.0,0.0361
1367.0,0.0361
1366.0,0.0361
1365.0,0.0361
1364.0,0.0361
1363.0,0.0361
1362.0,0.0362
1361.0,0.0362
1360.0,0.0361
1359.0,0.036
1358.0,0.0358
1357.0,0.0357
1356.0,0.0356
1355.0,0.0356
1354.0,0.0356
1353.0,0.0356
1352.0,0.0356
1351.0,0.0356
1350.0,0.0356
1349.0,0.0356
1348.0,0.0356
1347.0,0.0355
1346.0,0.0355
1345.0,0.0355
1344.0,0.0354
1343.0,0.0353
1342.0,0.0352
1341.0,0.0352
1340.0,0.0352
1339.0,0.0352
1338.0,0.0352
1337.0,0.0353
1336.0,0.0353
1335.0,0.0354
1334.0,0.0354
1333.0,0.0355
1332.0,0.0356
1331.0,0.0357
1330.0,0.0358
1329.0,0.0359
1328.0,0.036
1327.0,0.0361
1326.0,0.036
1325.0,0.036
1324.0,0.0359
1323.0,0.0358
1322.0,0.0358
1321.0,0.0358
1320.0,0.0358
1319.0,0.0358
1318.0,0.0358
1317.0,0.0359
1316.0,0.0359
1315.0,0.036
1314.0,0.0361
1313.0,0.0362
1312.0,0.0364
1311.0,0.0365
1310.0,0.0365
1309.0,0.0365
1308.0,0.0364
1307.0,0.0364
1306.0,0.0363
1305.0,0.0362
1304.0,0.0361
1303.0,0.0361
1302.0,0.036
1301.0,0.036
1300.0,0.036
1299.0,0.036
1298.0,0.0359
1297.0,0.0359
1296.0,0.0359
1295.0,0.0359
1294.0,0.0359
1293.0,0.0359
1292.0,0.0359
1291.0,0.0359
1290.0,0.0359
1289.0,0.0358
1288.0,0.0357
1287.0,0.0357
1286.0,0.0358
1285.0,0.0358
1284.0,0.0359
1283.0,0.0359
1282.0,0.0359
1281.0,0.0359
1280.0,0.0359
1279.0,0.0358
1278.0,0.0358
1277.0,0.0358
1276.0,0.0358
1275.0,0.0357
1274.0,0.0357
1273.0,0.0357
1272.0,0.0357
1271.0,0.0356
1270.0,0.0356
1269.0,0.0356
1268.0,0.0355
1267.0,0.0356
1266.0,0.0356
1265.0,0.0357
1264.0,0.0357
1263.0,0.0357
1262.0,0.0357
1261.0,0.0357
1260.0,0.0356
1259.0,0.0356
1258.0,0.0356
1257.0,0.0356
1256.0,0.0355
1255.0,0.0355
1254.0,0.0355
1253.0,0.0356
1252.0,0.0357
1251.0,0.0357
1250.0,0.0357
1249.0,0.0357
1248.0,0.0357
1247.0,0.0357
1246.0,0.0358
1245.0,0.0359
1244.0,0.0359
1243.0,0.036
1242.0,0.0359
1241.0,0.0359
1240.0,0.0359
1239.0,0.0358
1238.0,0.0358
1237.0,0.0358
1236.0,0.0358
1235.0,0.0358
1234.0,0.0358
1233.0,0.0359
1232.0,0.036
1231.0,0.036
1230.0,0.0361
1229.0,0.0361
1228.0,0.0362
1227.0,0.0363
1226.0,0.0363
1225.0,0.0364
1224.0,0.0364
1223.0,0.0364
1222.0,0.0365
1221.0,0.0365
1220.0,0.0366
1219.0,0.0366
1218.0,0.0366
1217.0,0.0366
1216.0,0.0366
1215.0,0.0367
1214.0,0.0367
1213.0,0.0367
1212.0,0.0368
1211.0,0.0369
1210.0,0.0369
1209.0,0.0369
1208.0,0.0369
1207.0,0.0369
1206.0,0.0369
1205.0,0.037
1204.0,0.0371
1203.0,0.0372
1202.0,0.0373
1201.0,0.0375
1200.0,0.0377
1199.0,0.0378
1198.0,0.0379
1197.0,0.038
1196.0,0.038
1195.0,0.038
1194.0,0.0381
1193.0,0.0382
1192.0,0.0383
1191.0,0.0384
1190.0,0.0385
1189.0,0.0386
1188.0,0.0387
1187.0,0.0389
1186.0,0.0391
1185.0,0.0394
1184.0,0.0397
1183.0,0.0401
1182.0,0.0405
1181.0,0.0408
1180.0,0.0409
1179.0,0.0409
1178.0,0.0406
1177.0,0.0402
1176.0,0.0399
1175.0,0.0396
1174.0,0.0395
1173.0,0.0394
1172.0,0.0393
1171.0,0.0392
1170.0,0.0391
1169.0,0.039
1168.0,0.039
1167.0,0.0389
1166.0,0.0389
1165.0,0.0388
1164.0,0.0388
1163.0,0.039
1162.0,0.0391
1161.0,0.0393
1160.0,0.0397
1159.0,0.0401
1158.0,0.0405
1157.0,0.041
1156.0,0.0415
1155.0,0.0419
1154.0,0.0421
1153.0,0.0421
1152.0,0.0419
1151.0,0.0416
1150.0,0.0413
1149.0,0.0411
1148.0,0.0408
1147.0,0.0406
1146.0,0.0404
1145.0,0.0403
1144.0,0.0402
1143.0,0.0401
1142.0,0.0401
1141.0,0.04
1140.0,0.04
1139.0,0.0398
1138.0,0.0397
1137.0,0.0397
1136.0,0.0397
1135.0,0.0397
1134.0,0.0397
1133.0,0.0396
1132.0,0.0396
1131.0,0.0396
1130.0,0.0396
1129.0,0.0397
1128.0,0.0397
1127.0,0.0397
1126.0,0.0397
1125.0,0.0397
1124.0,0.0396
1123.0,0.0396
1122.0,0.0396
1121.0,0.0398
1120.0,0.0399
1119.0,0.0401
1118.0,0.0401
1117.0,0.0401
1116.0,0.0401
1115.0,0.0401
1114.0,0.0401
1113.0,0.0402
1112.0,0.0402
1111.0,0.0403
1110.0,0.0403
1109.0,0.0402
1108.0,0.0402
1107.0,0.0403
1106.0,0.0403
1105.0,0.0404
1104.0,0.0404
1103.0,0.0403
1102.0,0.0403
1101.0,0.0403
1100.0,0.0403
1099.0,0.0404
1098.0,0.0404
1097.0,0.0405
1096.0,0.0405
1095.0,0.0406
1094.0,0.0406
1093.0,0.0406
1092.0,0.0406
1091.0,0.0406
1090.0,0.0406
1089.0,0.0407
1088.0,0.0407
1087.0,0.0408
1086.0,0.0409
1085.0,0.041
1084.0,0.0411
1083.0,0.0413
1082.0,0.0414
1081.0,0.0416
1080.0,0.0418
1079.0,0.042
1078.0,0.0422
1077.0,0.0423
1076.0,0.0425
1075.0,0.0428
1074.0,0.0431
1073.0,0.0435
1072.0,0.044
1071.0,0.0444
1070.0,0.0448
1069.0,0.045
1068.0,0.0451
1067.0,0.0451
1066.0,0.045
1065.0,0.0448
1064.0,0.0446
1063.0,0.0443
1062.0,0.0439
1061.0,0.0437
1060.0,0.0435
1059.0,0.0433
1058.0,0.0431
1057.0,0.0429
1056.0,0.0426
1055.0,0.0424
1054.0,0.0423
1053.0,0.0422
1052.0,0.0421
1051.0,0.0419
1050.0,0.0418
1049.0,0.0416
1048.0,0.0415
1047.0,0.0413
1046.0,0.0412
1045.0,0.0412
1044.0,0.0411
1043.0,0.0411
1042.0,0.041
1041.0,0.0409
1040.0,0.0408
1039.0,0.0407
1038.0,0.0407
1037.0,0.0409
1036.0,0.0415
1035.0,0.0424
1034.0,0.0437
1033.0,0.0452
1032.0,0.047
1031.0,0.0488
1030.0,0.0503
1029.0,0.0515
1028.0,0.0522
1027.0,0.0524
1026.0,0.0521
1025.0,0.0514
1024.0,0.0506
1023.0,0.0497
1022.0,0.049
1021.0,0.0483
1020.0,0.0478
1019.0,0.0473
1018.0,0.0469
1017.0,0.0466
1016.0,0.0463
1015.0,0.046
1014.0,0.0459
1013.0,0.0458
1012.0,0.0457
1011.0,0.0455
1010.0,0.0452
1009.0,0.045
1008.0,0.0448
1007.0,0.0448
1006.0,0.0449
1005.0,0.0452
1004.0,0.0454
1003.0,0.0456
1002.0,0.0456
1001.0,0.0454
1000.0,0.0451
999.0,0.0448
998.0,0.0445
997.0,0.0443
996.0,0.0442
995.0,0.0441
994.0,0.044
993.0,0.0439
992.0,0.0439
991.0,0.0439
990.0,0.0439
989.0,0.0439
988.0,0.044
987.0,0.0441
986.0,0.0443
985.0,0.0444
984.0,0.0446
983.0,0.0447
982.0,0.0449
981.0,0.0451
980.0,0.0453
979.0,0.0453
978.0,0.0451
977.0,0.0449
976.0,0.0447
975.0,0.0446
974.0,0.0445
973.0,0.0445
972.0,0.0446
971.0,0.0447
970.0,0.0449
969.0,0.0452
968.0,0.0455
967.0,0.0458
966.0,0.046
965.0,0.0462
964.0,0.0463
963.0,0.0463
962.0,0.0462
961.0,0.0461
960.0,0.0459
959.0,0.0457
958.0,0.0455
957.0,0.0454
956.0,0.0453
955.0,0.0453
954.0,0.0453
953.0,0.0452
952.0,0.0451
951.0,0.045
950.0,0.0451
949.0,0.0452
948.0,0.0454
947.0,0.0455
946.0,0.0457
945.0,0.0458
944.0,0.046
943.0,0.0461
942.0,0.0462
941.0,0.0462
940.0,0.0462
939.0,0.0461
938.0,0.0459
937.0,0.0458
936.0,0.0456
935.0,0.0454
934.0,0.0453
933.0,0.0452
932.0,0.0451
931.0,0.045
930.0,0.0448
929.0,0.0447
928.0,0.0447
927.0,0.0447
926.0,0.0447
925.0,0.0446
924.0,0.0446
923.0,0.0447
922.0,0.0448
921.0,0.045
920.0,0.0451
919.0,0.0453
918.0,0.0455
917.0,0.0457
916.0,0.0461
915.0,0.0465
914.0,0.047
913.0,0.0478
912.0,0.0487
911.0,0.0497
910.0,0.0507
909.0,0.0517
908.0,0.0525
907.0,0.0532
906.0,0.0537
905.0,0.0539
904.0,0.0538
903.0,0.0534
902.0,0.0528
901.0,0.0521
900.0,0.0514
899.0,0.0508
898.0,0.0503
897.0,0.0498
896.0,0.0494
895.0,0.0492
894.0,0.049
893.0,0.0488
892.0,0.0486
891.0,0.0484
890.0,0.0481
889.0,0.048
888.0,0.0479
887.0,0.0478
886.0,0.0478
885.0,0.0479
884.0,0.048
883.0,0.048
882.0,0.048
881.0,0.048
880.0,0.0479
879.0,0.0478
878.0,0.0476
877.0,0.0475
876.0,0.0475
875.0,0.0476
874.0,0.0477
873.0,0.0477
872.0,0.0477
871.0,0.0476
870.0,0.0476
869.0,0.0475
868.0,0.0475
867.0,0.0475
866.0,0.0475
865.0,0.0474
864.0,0.0473
863.0,0.0473
862.0,0.0474
861.0,0.0475
860.0,0.0476
859.0,0.0474
858.0,0.0472
857.0,0.047
856.0,0.047
855.0,0.047
854.0,0.0471
853.0,0.0471
852.0,0.0472
851.0,0.0473
850.0,0.0475
849.0,0.0477
848.0,0.048
847.0,0.0484
846.0,0.049
845.0,0.0494
844.0,0.0497
843.0,0.05
842.0,0.0501
841.0,0.0503
840.0,0.0504
839.0,0.0504
838.0,0.0504
837.0,0.0502
836.0,0.0499
835.0,0.0495
834.0,0.049
833.0,0.0487
832.0,0.0486
831.0,0.0485
830.0,0.0484
829.0,0.0483
828.0,0.0482
827.0,0.0481
826.0,0.0479
825.0,0.0478
824.0,0.0477
823.0,0.0476
822.0,0.0476
821.0,0.0475
820.0,0.0475
819.0,0.0476
818.0,0.0478
817.0,0.0478
816.0,0.0478
815.0,0.0477
814.0,0.0476
813.0,0.0473
812.0,0.0471
811.0,0.0468
810.0,0.0467
809.0,0.0467
808.0,0.0468
807.0,0.047
806.0,0.0471
805.0,0.0471
804.0,0.0469
803.0,0.0467
802.0,0.0464
801.0,0.0463
800.0,0.0463
799.0,0.0464
798.0,0.0465
797.0,0.0465
796.0,0.0464
795.0,0.0462
794.0,0.0461
793.0,0.046
792.0,0.0461
791.0,0.0463
790.0,0.0465
789.0,0.0467
788.0,0.047
787.0,0.0473
786.0,0.0475
785.0,0.0478
784.0,0.0481
783.0,0.0484
782.0,0.0487
781.0,0.0491
780.0,0.0495
779.0,0.0501
778.0,0.0509
777.0,0.052
776.0,0.0532
775.0,0.0546
774.0,0.056
773.0,0.0578
772.0,0.0598
771.0,0.0619
770.0,0.0641
769.0,0.0665
768.0,0.0691
767.0,0.0718
766.0,0.0744
765.0,0.0771
764.0,0.0798
763.0,0.0827
762.0,0.0856
761.0,0.0887
760.0,0.0917
759.0,0.0945
758.0,0.0971
757.0,0.0994
756.0,0.1012
755.0,0.1024
754.0,0.1028
753.0,0.103
752.0,0.1032
751.0,0.1035
750.0,0.1038
749.0,0.1041
748.0,0.1044
747.0,0.1043
746.0,0.1034
745.0,0.1017
744.0,0.0992
743.0,0.0962
742.0,0.093
741.0,0.0897
740.0,0.0864
739.0,0.0832
738.0,0.0802
737.0,0.0775
736.0,0.075
735.0,0.0727
734.0,0.0703
733.0,0.0679
732.0,0.0657
731.0,0.0636
730.0,0.0617
729.0,0.06
728.0,0.0586
727.0,0.0574
726.0,0.0563
725.0,0.0552
724.0,0.0542
723.0,0.0532
722.0,0.0522
721.0,0.0511
720.0,0.0499
719.0,0.0489
718.0,0.048
717.0,0.047
716.0,0.0458
715.0,0.0444
714.0,0.043
713.0,0.0421
712.0,0.0418
711.0,0.0424
710.0,0.0442
709.0,0.0476
708.0,0.0532
707.0,0.0613
706.0,0.0721
705.0,0.0857
704.0,0.1021
703.0,0.1212
702.0,0.1429
701.0,0.1672
700.0,0.194
699.0,0.2222
698.0,0.2495
697.0,0.2721
696.0,0.285
695.0,0.2841
694.0,0.2696
693.0,0.2463
692.0,0.2203
691.0,0.1959
690.0,0.1752
689.0,0.1589
688.0,0.1467
687.0,0.1378
686.0,0.1313
685.0,0.1262
684.0,0.1218
683.0,0.1173
682.0,0.1129
681.0,0.1091
680.0,0.1063
679.0,0.1045
678.0,0.103
677.0,0.1016
676.0,0.1
675.0,0.0984
674.0,0.097
673.0,0.0961
672.0,0.0953
671.0,0.0943
670.0,0.0929
669.0,0.0915
668.0,0.0901
667.0,0.0888
666.0,0.0875
665.0,0.0864
664.0,0.0855
663.0,0.0849
662.0,0.0843
661.0,0.0835
660.0,0.0828
659.0,0.0822
658.0,0.0817
657.0,0.0814
656.0,0.0811
655.0,0.0806
654.0,0.08
653.0,0.0795
652.0,0.0792
651.0,0.0793
650.0,0.0795
649.0,0.0796
648.0,0.0791
647.0,0.0779
646.0,0.0767
645.0,0.076
644.0,0.0758
643.0,0.0759
642.0,0.076
641.0,0.0763
640.0,0.0771
639.0,0.078
638.0,0.0789
637.0,0.0798
636.0,0.0812
635.0,0.0824
634.0,0.0827
633.0,0.0818
632.0,0.0806
631.0,0.0797
630.0,0.0795
629.0,0.0797
628.0,0.0798
627.0,0.0791
626.0,0.0779
625.0,0.077
624.0,0.0771
623.0,0.078
622.0,0.0789
621.0,0.0792
620.0,0.0788
619.0,0.0783
618.0,0.0784
617.0,0.0793
616.0,0.0802
615.0,0.0807
614.0,0.0806
613.0,0.0807
612.0,0.081
611.0,0.0811
610.0,0.0809
609.0,0.0805
608.0,0.0799
607.0,0.0791
606.0,0.0784
605.0,0.0782
604.0,0.0786
603.0,0.0791
602.0,0.0792
601.0,0.0792
600.0,0.0792
