cm-1,A
4000.0,0.0052
3999.0,0.0051
3998.0,0.0051
3997.0,0.005
3996.0,0.005
3995.0,0.0051
3994.0,0.0052
3993.0,0.0053
3992.0,0.0053
3991.0,0.0053
3990.0,0.0053
3989.0,0.0052
3988.0,0.0052
3987.0,0.0052
3986.0,0.0052
3985.0,0.0052
3984.0,0.0052
3983.0,0.0051
3982.0,0.0051
3981.0,0.0051
3980.0,0.0051
3979.0,0.0051
3978.0,0.0051
3977.0,0.0051
3976.0,0.0051
3975.0,0.0051
3974.0,0.0051
3973.0,0.0051
3972.0,0.0052
3971.0,0.0052
3970.0,0.0052
3969.0,0.0052
3968.0,0.0052
3967.0,0.0052
3966.0,0.0052
3965.0,0.0052
3964.0,0.0052
3963.0,0.0052
3962.0,0.0052
3961.0,0.0052
3960.0,0.0051
3959.0,0.0051
3958.0,0.0052
3957.0,0.0052
3956.0,0.0053
3955.0,0.0053
3954.0,0.0053
3953.0,0.0053
3952.0,0.0053
3951.0,0.0053
3950.0,0.0053
3949.0,0.0053
3948.0,0.0053
3947.0,0.0053
3946.0,0.0054
3945.0,0.0054
3944.0,0.0055
3943.0,0.0056
3942.0,0.0057
3941.0,0.0057
3940.0,0.0056
3939.0,0.0055
3938.0,0.0055
3937.0,0.0055
3936.0,0.0055
3935.0,0.0055
3934.0,0.0054
3933.0,0.0054
3932.0,0.0054
3931.0,0.0054
3930.0,0.0055
3929.0,0.0055
3928.0,0.0055
3927.0,0.0055
3926.0,0.0054
3925.0,0.0054
3924.0,0.0055
3923.0,0.0055
3922.0,0.0055
3921.0,0.0056
3920.0,0.0056
3919.0,0.0056
3918.0,0.0056
3917.0,0.0056
3916.0,0.0056
3915.0,0.0056
3914.0,0.0056
3913.0,0.0055
3912.0,0.0055
3911.0,0.0054
3910.0,0.0053
3909.0,0.0054
3908.0,0.0054
3907.0,0.0054
3906.0,0.0054
3905.0,0.0054
3904.0,0.0055
3903.0,0.0056
3902.0,0.0056
3901.0,0.0056
3900.0,0.0056
3899.0,0.0056
3898.0,0.0056
3897.0,0.0055
3896.0,0.0055
3895.0,0.0056
3894.0,0.0056
3893.0,0.0055
3892.0,0.0055
3891.0,0.0054
3890.0,0.0055
3889.0,0.0057
3888.0,0.0057
3887.0,0.0058
3886.0,0.0059
3885.0,0.006
3884.0,0.0061
3883.0,0.0061
3882.0,0.0058
3881.0,0.0057
3880.0,0.0057
3879.0,0.0059
3878.0,0.006
3877.0,0.006
3876.0,0.006
3875.0,0.006
3874.0,0.0061
3873.0,0.0062
3872.0,0.006
3871.0,0.0057
3870.0,0.0057
3869.0,0.0059
3868.0,0.006
3867.0,0.006
3866.0,0.0058
3865.0,0.0058
3864.0,0.0059
3863.0,0.006
3862.0,0.006
3861.0,0.0059
3860.0,0.0058
3859.0,0.0059
3858.0,0.006
3857.0,0.0062
3856.0,0.0063
3855.0,0.0062
3854.0,0.0062
3853.0,0.0062
3852.0,0.0062
3851.0,0.0061
3850.0,0.006
3849.0,0.0059
3848.0,0.0059
3847.0,0.0059
3846.0,0.0059
3845.0,0.006
3844.0,0.006
3843.0,0.0061
3842.0,0.0062
3841.0,0.0063
3840.0,0.0062
3839.0,0.0061
3838.0,0.0061
3837.0,0.0061
3836.0,0.0062
3835.0,0.0062
3834.0,0.0062
3833.0,0.0062
3832.0,0.0063
3831.0,0.0063
3830.0,0.0064
3829.0,0.0064
3828.0,0.0063
3827.0,0.0062
3826.0,0.0062
3825.0,0.0063
3824.0,0.0063
3823.0,0.0061
3822.0,0.006
3821.0,0.0062
3820.0,0.0065
3819.0,0.0067
3818.0,0.0065
3817.0,0.0062
3816.0,0.006
3815.0,0.006
3814.0,0.006
3813.0,0.0059
3812.0,0.0058
3811.0,0.0059
3810.0,0.006
3809.0,0.006
3808.0,0.006
3807.0,0.0061
3806.0,0.0063
3805.0,0.0065
3804.0,0.0064
3803.0,0.0061
3802.0,0.006
3801.0,0.0061
3800.0,0.0063
3799.0,0.0063
3798.0,0.0062
3797.0,0.0061
3796.0,0.0061
3795.0,0.0061
3794.0,0.0061
3793.0,0.0061
3792.0,0.0061
3791.0,0.0061
3790.0,0.0061
3789.0,0.0061
3788.0,0.006
3787.0,0.006
3786.0,0.0059
3785.0,0.006
3784.0,0.0061
3783.0,0.0062
3782.0,0.0063
3781.0,0.0063
3780.0,0.0063
3779.0,0.0064
3778.0,0.0064
3777.0,0.0063
3776.0,0.0062
3775.0,0.0062
3774.0,0.0062
3773.0,0.0063
3772.0,0.0063
3771.0,0.0062
3770.0,0.0063
3769.0,0.0064
3768.0,0.0065
3767.0,0.0065
3766.0,0.0065
3765.0,0.0066
3764.0,0.0066
3763.0,0.0067
3762.0,0.0066
3761.0,0.0065
3760.0,0.0066
3759.0,0.0066
3758.0,0.0066
3757.0,0.0066
3756.0,0.0066
3755.0,0.0065
3754.0,0.0064
3753.0,0.0063
3752.0,0.0065
3751.0,0.0068
3750.0,0.007
3749.0,0.0071
3748.0,0.0072
3747.0,0.0071
3746.0,0.007
3745.0,0.007
3744.0,0.0071
3743.0,0.0072
3742.0,0.007
3741.0,0.0068
3740.0,0.0067
3739.0,0.0066
3738.0,0.0067
3737.0,0.0068
3736.0,0.0071
3735.0,0.0073
3734.0,0.0072
3733.0,0.007
3732.0,0.0068
3731.0,0.0067
3730.0,0.0067
3729.0,0.0066
3728.0,0.0065
3727.0,0.0064
3726.0,0.0064
3725.0,0.0064
3724.0,0.0065
3723.0,0.0065
3722.0,0.0067
3721.0,0.0068
3720.0,0.0068
3719.0,0.0068
3718.0,0.0067
3717.0,0.0067
3716.0,0.0068
3715.0,0.0068
3714.0,0.0067
3713.0,0.0066
3712.0,0.0066
3711.0,0.0067
3710.0,0.0068
3709.0,0.0068
3708.0,0.0067
3707.0,0.0066
3706.0,0.0067
3705.0,0.0067
3704.0,0.0068
3703.0,0.0068
3702.0,0.0068
3701.0,0.0069
3700.0,0.0069
3699.0,0.0069
3698.0,0.0069
3697.0,0.0069
3696.0,0.0069
3695.0,0.0069
3694.0,0.0069
3693.0,0.0069
3692.0,0.0071
3691.0,0.0072
3690.0,0.0072
3689.0,0.0073
3688.0,0.0073
3687.0,0.0072
3686.0,0.0072
3685.0,0.0071
3684.0,0.007
3683.0,0.007
3682.0,0.007
3681.0,0.0071
3680.0,0.0072
3679.0,0.0075
3678.0,0.0076
3677.0,0.0075
3676.0,0.0075
3675.0,0.0075
3674.0,0.0076
3673.0,0.0076
3672.0,0.0074
3671.0,0.0072
3670.0,0.0072
3669.0,0.0072
3668.0,0.0071
3667.0,0.007
3666.0,0.0069
3665.0,0.0069
3664.0,0.0069
3663.0,0.0069
3662.0,0.0069
3661.0,0.007
3660.0,0.0071
3659.0,0.0073
3658.0,0.0073
3657.0,0.0072
3656.0,0.0072
3655.0,0.0072
3654.0,0.0072
3653.0,0.0073
3652.0,0.0073
3651.0,0.0074
3650.0,0.0077
3649.0,0.0078
3648.0,0.0077
3647.0,0.0075
3646.0,0.0074
3645.0,0.0073
3644.0,0.0072
3643.0,0.0073
3642.0,0.0073
3641.0,0.0074
3640.0,0.0073
3639.0,0.0073
3638.0,0.0073
3637.0,0.0073
3636.0,0.0074
3635.0,0.0074
3634.0,0.0075
3633.0,0.0076
3632.0,0.0077
3631.0,0.0076
3630.0,0.0075
3629.0,0.0076
3628.0,0.0078
3627.0,0.0078
3626.0,0.0077
3625.0,0.0077
3624.0,0.0077
3623.0,0.0078
3622.0,0.0078
3621.0,0.0078
3620.0,0.0077
3619.0,0.0077
3618.0,0.0078
3617.0,0.0078
3616.0,0.0077
3615.0,0.0077
3614.0,0.0077
3613.0,0.0078
3612.0,0.0078
3611.0,0.0078
3610.0,0.0078
3609.0,0.0078
3608.0,0.0079
3607.0,0.008
3606.0,0.008
3605.0,0.0079
3604.0,0.0078
3603.0,0.0078
3602.0,0.0079
3601.0,0.008
3600.0,0.0082
3599.0,0.0083
3598.0,0.0082
3597.0,0.0082
3596.0,0.0081
3595.0,0.0081
3594.0,0.0081
3593.0,0.0081
3592.0,0.0081
3591.0,0.0081
3590.0,0.0082
3589.0,0.0083
3588.0,0.0085
3587.0,0.0087
3586.0,0.0087
3585.0,0.0087
3584.0,0.0086
3583.0,0.0085
3582.0,0.0083
3581.0,0.0083
3580.0,0.0082
3579.0,0.0082
3578.0,0.0083
3577.0,0.0083
3576.0,0.0084
3575.0,0.0084
3574.0,0.0084
3573.0,0.0084
3572.0,0.0084
3571.0,0.0085
3570.0,0.0087
3569.0,0.0089
3568.0,0.009
3567.0,0.0091
3566.0,0.009
3565.0,0.0089
3564.0,0.0087
3563.0,0.0086
3562.0,0.0085
3561.0,0.0085
3560.0,0.0085
3559.0,0.0085
3558.0,0.0085
3557.0,0.0086
3556.0,0.0085
3555.0,0.0085
3554.0,0.0085
3553.0,0.0085
3552.0,0.0086
3551.0,0.0087
3550.0,0.0087
3549.0,0.0087
3548.0,0.0087
3547.0,0.0087
3546.0,0.0088
3545.0,0.0088
3544.0,0.0089
3543.0,0.0089
3542.0,0.0089
3541.0,0.0089
3540.0,0.0089
3539.0,0.0088
3538.0,0.0088
3537.0,0.0088
3536.0,0.0088
3535.0,0.0088
3534.0,0.0088
3533.0,0.0088
3532.0,0.0088
3531.0,0.0089
3530.0,0.0089
3529.0,0.009
3528.0,0.009
3527.0,0.009
3526.0,0.0089
3525.0,0.0089
3524.0,0.0089
3523.0,0.0089
3522.0,0.0089
3521.0,0.009
3520.0,0.009
3519.0,0.0091
3518.0,0.0091
3517.0,0.0091
3516.0,0.0091
3515.0,0.0091
3514.0,0.0091
3513.0,0.0091
3512.0,0.0091
3511.0,0.0091
3510.0,0.0092
3509.0,0.0093
3508.0,0.0094
3507.0,0.0094
3506.0,0.0093
3505.0,0.0091
3504.0,0.0091
3503.0,0.0091
3502.0,0.0092
3501.0,0.0092
3500.0,0.0093
3499.0,0.0092
3498.0,0.0092
3497.0,0.0092
3496.0,0.0092
3495.0,0.0093
3494.0,0.0094
3493.0,0.0094
3492.0,0.0094
3491.0,0.0093
3490.0,0.0093
3489.0,0.0094
3488.0,0.0094
3487.0,0.0094
3486.0,0.0094
3485.0,0.0093
3484.0,0.0093
3483.0,0.0093
3482.0,0.0093
3481.0,0.0094
3480.0,0.0094
3479.0,0.0094
3478.0,0.0093
3477.0,0.0093
3476.0,0.0093
3475.0,0.0093
3474.0,0.0093
3473.0,0.0093
3472.0,0.0092
3471.0,0.0092
3470.0,0.0092
3469.0,0.0092
3468.0,0.0092
3467.0,0.0093
3466.0,0.0093
3465.0,0.0093
3464.0,0.0093
3463.0,0.0093
3462.0,0.0094
3461.0,0.0094
3460.0,0.0095
3459.0,0.0095
3458.0,0.0096
3457.0,0.0096
3456.0,0.0097
3455.0,0.0097
3454.0,0.0097
3453.0,0.0096
3452.0,0.0095
3451.0,0.0093
3450.0,0.0093
3449.0,0.0093
3448.0,0.0094
3447.0,0.0095
3446.0,0.0095
3445.0,0.0096
3444.0,0.0096
3443.0,0.0096
3442.0,0.0096
3441.0,0.0096
3440.0,0.0096
3439.0,0.0096
3438.0,0.0097
3437.0,0.0098
3436.0,0.0098
3435.0,0.0099
3434.0,0.0099
3433.0,0.0099
3432.0,0.0099
3431.0,0.0099
3430.0,0.0099
3429.0,0.0099
3428.0,0.0099
3427.0,0.0099
3426.0,0.0098
3425.0,0.0098
3424.0,0.0097
3423.0,0.0097
3422.0,0.0098
3421.0,0.0098
3420.0,0.0099
3419.0,0.0099
3418.0,0.0099
3417.0,0.0099
3416.0,0.0099
3415.0,0.0099
3414.0,0.0099
3413.0,0.0099
3412.0,0.0099
3411.0,0.0099
3410.0,0.0099
3409.0,0.0098
3408.0,0.0098
3407.0,0.0098
3406.0,0.0098
3405.0,0.0098
3404.0,0.0098
3403.0,0.0098
3402.0,0.0098
3401.0,0.0099
3400.0,0.0099
3399.0,0.01
3398.0,0.01
3397.0,0.01
3396.0,0.01
3395.0,0.0099
3394.0,0.0098
3393.0,0.0097
3392.0,0.0097
3391.0,0.0097
3390.0,0.0098
3389.0,0.0098
3388.0,0.0098
3387.0,0.0099
3386.0,0.0099
3385.0,0.0099
3384.0,0.0099
3383.0,0.0099
3382.0,0.0099
3381.0,0.0098
3380.0,0.0098
3379.0,0.0097
3378.0,0.0098
3377.0,0.0098
3376.0,0.0099
3375.0,0.0099
3374.0,0.01
3373.0,0.0101
3372.0,0.01
3371.0,0.0099
3370.0,0.0098
3369.0,0.0097
3368.0,0.0097
3367.0,0.0098
3366.0,0.0099
3365.0,0.0099
3364.0,0.0099
3363.0,0.0099
3362.0,0.0099
3361.0,0.0099
3360.0,0.0099
3359.0,0.0099
3358.0,0.0099
3357.0,0.0098
3356.0,0.0098
3355.0,0.0098
3354.0,0.0099
3353.0,0.0099
3352.0,0.0099
3351.0,0.0099
3350.0,0.0099
3349.0,0.0098
3348.0,0.0098
3347.0,0.0098
3346.0,0.0098
3345.0,0.0098
3344.0,0.0099
3343.0,0.0099
3342.0,0.0099
3341.0,0.0099
3340.0,0.0098
3339.0,0.0098
3338.0,0.0097
3337.0,0.0097
3336.0,0.0096
3335.0,0.0096
3334.0,0.0096
3333.0,0.0096
3332.0,0.0097
3331.0,0.0097
3330.0,0.0097
3329.0,0.0097
3328.0,0.0096
3327.0,0.0096
3326.0,0.0096
3325.0,0.0096
3324.0,0.0097
3323.0,0.0097
3322.0,0.0097
3321.0,0.0096
3320.0,0.0095
3319.0,0.0094
3318.0,0.0093
3317.0,0.0093
3316.0,0.0094
3315.0,0.0095
3314.0,0.0095
3313.0,0.0095
3312.0,0.0094
3311.0,0.0094
3310.0,0.0093
3309.0,0.0094
3308.0,0.0095
3307.0,0.0095
3306.0,0.0095
3305.0,0.0095
3304.0,0.0095
3303.0,0.0094
3302.0,0.0094
3301.0,0.0093
3300.0,0.0093
3299.0,0.0092
3298.0,0.0092
3297.0,0.0093
3296.0,0.0093
3295.0,0.0094
3294.0,0.0095
3293.0,0.0095
3292.0,0.0094
3291.0,0.0093
3290.0,0.0091
3289.0,0.009
3288.0,0.009
3287.0,0.0091
3286.0,0.0092
3285.0,0.0093
3284.0,0.0093
3283.0,0.0094
3282.0,0.0093
3281.0,0.0093
3280.0,0.0092
3279.0,0.0092
3278.0,0.0092
3277.0,0.0093
3276.0,0.0093
3275.0,0.0092
3274.0,0.0092
3273.0,0.0091
3272.0,0.009
3271.0,0.009
3270.0,0.009
3269.0,0.0089
3268.0,0.0089
3267.0,0.0088
3266.0,0.0088
3265.0,0.0087
3264.0,0.0087
3263.0,0.0088
3262.0,0.0088
3261.0,0.0089
3260.0,0.0089
3259.0,0.0089
3258.0,0.0088
3257.0,0.0088
3256.0,0.0087
3255.0,0.0086
3254.0,0.0086
3253.0,0.0086
3252.0,0.0086
3251.0,0.0086
3250.0,0.0087
3249.0,0.0087
3248.0,0.0087
3247.0,0.0086
3246.0,0.0086
3245.0,0.0085
3244.0,0.0084
3243.0,0.0084
3242.0,0.0084
3241.0,0.0084
3240.0,0.0084
3239.0,0.0084
3238.0,0.0085
3237.0,0.0085
3236.0,0.0085
3235.0,0.0085
3234.0,0.0086
3233.0,0.0086
3232.0,0.0086
3231.0,0.0085
3230.0,0.0084
3229.0,0.0083
3228.0,0.0084
3227.0,0.0084
3226.0,0.0085
3225.0,0.0085
3224.0,0.0086
3223.0,0.0086
3222.0,0.0086
3221.0,0.0085
3220.0,0.0085
3219.0,0.0085
3218.0,0.0085
3217.0,0.0086
3216.0,0.0086
3215.0,0.0085
3214.0,0.0085
3213.0,0.0084
3212.0,0.0083
3211.0,0.0083
3210.0,0.0083
3209.0,0.0084
3208.0,0.0084
3207.0,0.0085
3206.0,0.0085
3205.0,0.0085
3204.0,0.0085
3203.0,0.0085
3202.0,0.0085
3201.0,0.0085
3200.0,0.0084
3199.0,0.0084
3198.0,0.0084
3197.0,0.0083
3196.0,0.0083
3195.0,0.0083
3194.0,0.0083
3193.0,0.0083
3192.0,0.0083
3191.0,0.0082
3190.0,0.0082
3189.0,0.0082
3188.0,0.0083
3187.0,0.0083
3186.0,0.0084
3185.0,0.0084
3184.0,0.0083
3183.0,0.0082
3182.0,0.0082
3181.0,0.0081
3180.0,0.0081
3179.0,0.008
3178.0,0.008
3177.0,0.008
3176.0,0.008
3175.0,0.008
3174.0,0.0079
3173.0,0.0078
3172.0,0.0077
3171.0,0.0076
3170.0,0.0076
3169.0,0.0076
3168.0,0.0075
3167.0,0.0076
3166.0,0.0076
3165.0,0.0077
3164.0,0.0077
3163.0,0.0077
3162.0,0.0077
3161.0,0.0076
3160.0,0.0076
3159.0,0.0075
3158.0,0.0075
3157.0,0.0075
3156.0,0.0075
3155.0,0.0075
3154.0,0.0074
3153.0,0.0074
3152.0,0.0073
3151.0,0.0073
3150.0,0.0073
3149.0,0.0073
3148.0,0.0073
3147.0,0.0074
3146.0,0.0074
3145.0,0.0073
3144.0,0.0073
3143.0,0.0073
3142.0,0.0073
3141.0,0.0073
3140.0,0.0073
3139.0,0.0072
3138.0,0.0072
3137.0,0.0073
3136.0,0.0073
3135.0,0.0072
3134.0,0.0072
3133.0,0.0071
3132.0,0.007
3131.0,0.0069
3130.0,0.0068
3129.0,0.0067
3128.0,0.0067
3127.0,0.0067
3126.0,0.0066
3125.0,0.0066
3124.0,0.0066
3123.0,0.0066
3122.0,0.0065
3121.0,0.0065
3120.0,0.0064
3119.0,0.0063
3118.0,0.0063
3117.0,0.0062
3116.0,0.0062
3115.0,0.0062
3114.0,0.0062
3113.0,0.0062
3112.0,0.0062
3111.0,0.0062
3110.0,0.0061
3109.0,0.0061
3108.0,0.006
3107.0,0.006
3106.0,0.006
3105.0,0.0061
3104.0,0.0061
3103.0,0.0061
3102.0,0.006
3101.0,0.0059
3100.0,0.0059
3099.0,0.0058
3098.0,0.0058
3097.0,0.0058
3096.0,0.0058
3095.0,0.0057
3094.0,0.0056
3093.0,0.0055
3092.0,0.0054
3091.0,0.0054
3090.0,0.0053
3089.0,0.0052
3088.0,0.0052
3087.0,0.0052
3086.0,0.0051
3085.0,0.0051
3084.0,0.0051
3083.0,0.0051
3082.0,0.0051
3081.0,0.0051
3080.0,0.0051
3079.0,0.0051
3078.0,0.0051
3077.0,0.005
3076.0,0.0049
3075.0,0.0048
3074.0,0.0048
3073.0,0.0049
3072.0,0.0049
3071.0,0.0049
3070.0,0.0048
3069.0,0.0047
3068.0,0.0046
3067.0,0.0046
3066.0,0.0046
3065.0,0.0046
3064.0,0.0046
3063.0,0.0046
3062.0,0.0045
3061.0,0.0045
3060.0,0.0044
3059.0,0.0044
3058.0,0.0043
3057.0,0.0042
3056.0,0.0041
3055.0,0.004
3054.0,0.004
3053.0,0.004
3052.0,0.004
3051.0,0.004
3050.0,0.0039
3049.0,0.0038
3048.0,0.0037
3047.0,0.0036
3046.0,0.0036
3045.0,0.0035
3044.0,0.0034
3043.0,0.0034
3042.0,0.0033
3041.0,0.0032
3040.0,0.0032
3039.0,0.0032
3038.0,0.0031
3037.0,0.003
3036.0,0.0029
3035.0,0.0029
3034.0,0.0029
3033.0,0.0029
3032.0,0.0029
3031.0,0.0029
3030.0,0.0028
3029.0,0.0027
3028.0,0.0026
3027.0,0.0026
3026.0,0.0026
3025.0,0.0025
3024.0,0.0025
3023.0,0.0026
3022.0,0.0026
3021.0,0.0026
3020.0,0.0027
3019.0,0.0027
3018.0,0.0027
3017.0,0.0027
3016.0,0.0027
3015.0,0.0026
3014.0,0.0025
3013.0,0.0025
3012.0,0.0024
3011.0,0.0024
3010.0,0.0024
3009.0,0.0024
3008.0,0.0024
3007.0,0.0023
3006.0,0.0023
3005.0,0.0022
3004.0,0.0022
3003.0,0.0022
3002.0,0.0023
3001.0,0.0023
3000.0,0.0024
2999.0,0.0025
2998.0,0.0025
2997.0,0.0026
2996.0,0.0028
2995.0,0.0029
2994.0,0.0032
2993.0,0.0034
2992.0,0.0037
2991.0,0.0039
2990.0,0.0043
2989.0,0.0047
2988.0,0.0051
2987.0,0.0056
2986.0,0.0061
2985.0,0.0068
2984.0,0.0076
2983.0,0.0086
2982.0,0.0097
2981.0,0.0109
2980.0,0.0124
2979.0,0.014
2978.0,0.0159
2977.0,0.018
2976.0,0.0204
2975.0,0.0231
2974.0,0.0263
2973.0,0.0298
2972.0,0.0338
2971.0,0.0383
2970.0,0.0431
2969.0,0.0483
2968.0,0.0539
2967.0,0.0597
2966.0,0.0656
2965.0,0.0715
2964.0,0.0772
2963.0,0.0822
2962.0,0.0866
2961.0,0.0901
2960.0,0.0931
2959.0,0.0959
2958.0,0.0989
2957.0,0.1024
2956.0,0.1068
2955.0,0.112
2954.0,0.1181
2953.0,0.1244
2952.0,0.1304
2951.0,0.1351
2950.0,0.1377
2949.0,0.1374
2948.0,0.1342
2947.0,0.1281
2946.0,0.12
2945.0,0.1109
2944.0,0.1018
2943.0,0.0936
2942.0,0.0868
2941.0,0.0817
2940.0,0.0782
2939.0,0.0763
2938.0,0.0758
2937.0,0.0767
2936.0,0.0788
2935.0,0.0821
2934.0,0.0864
2933.0,0.0917
2932.0,0.0979
2931.0,0.1047
2930.0,0.1119
2929.0,0.1193
2928.0,0.1267
2927.0,0.1338
2926.0,0.1406
2925.0,0.1472
2924.0,0.1537
2923.0,0.1601
2922.0,0.1664
2921.0,0.1726
2920.0,0.1783
2919.0,0.1827
2918.0,0.1853
2917.0,0.1855
2916.0,0.1833
2915.0,0.1792
2914.0,0.1738
2913.0,0.1678
2912.0,0.1619
2911.0,0.1564
2910.0,0.1514
2909.0,0.1468
2908.0,0.1425
2907.0,0.1384
2906.0,0.1342
2905.0,0.1301
2904.0,0.1259
2903.0,0.1216
2902.0,0.1175
2901.0,0.1134
2900.0,0.1094
2899.0,0.1057
2898.0,0.1022
2897.0,0.0988
2896.0,0.0958
2895.0,0.0932
2894.0,0.091
2893.0,0.0893
2892.0,0.088
2891.0,0.0872
2890.0,0.0868
2889.0,0.0866
2888.0,0.0867
2887.0,0.0871
2886.0,0.0878
2885.0,0.0887
2884.0,0.0899
2883.0,0.0914
2882.0,0.0932
2881.0,0.0953
2880.0,0.0974
2879.0,0.0993
2878.0,0.1006
2877.0,0.1012
2876.0,0.1012
2875.0,0.1008
2874.0,0.1004
2873.0,0.1005
2872.0,0.1011
2871.0,0.1023
2870.0,0.104
2869.0,0.1057
2868.0,0.1069
2867.0,0.1072
2866.0,0.1058
2865.0,0.1025
2864.0,0.0976
2863.0,0.0915
2862.0,0.0851
2861.0,0.079
2860.0,0.0736
2859.0,0.0692
2858.0,0.0657
2857.0,0.0631
2856.0,0.0613
2855.0,0.06
2854.0,0.0593
2853.0,0.0589
2852.0,0.0589
2851.0,0.0592
2850.0,0.0601
2849.0,0.0615
2848.0,0.0635
2847.0,0.0662
2846.0,0.0695
2845.0,0.0736
2844.0,0.0782
2843.0,0.0832
2842.0,0.0883
2841.0,0.0931
2840.0,0.0972
2839.0,0.1
2838.0,0.1012
2837.0,0.1003
2836.0,0.0973
2835.0,0.0925
2834.0,0.0865
2833.0,0.08
2832.0,0.0737
2831.0,0.0679
2830.0,0.0629
2829.0,0.0587
2828.0,0.0552
2827.0,0.0523
2826.0,0.0499
2825.0,0.0479
2824.0,0.0462
2823.0,0.0447
2822.0,0.0433
2821.0,0.0421
2820.0,0.0411
2819.0,0.0401
2818.0,0.0393
2817.0,0.0385
2816.0,0.0379
2815.0,0.0373
2814.0,0.0367
2813.0,0.0362
2812.0,0.0357
2811.0,0.0352
2810.0,0.0347
2809.0,0.0342
2808.0,0.0337
2807.0,0.0331
2806.0,0.0325
2805.0,0.0319
2804.0,0.0313
2803.0,0.0307
2802.0,0.0303
2801.0,0.0299
2800.0,0.0295
2799.0,0.0291
2798.0,0.0288
2797.0,0.0284
2796.0,0.0281
2795.0,0.0278
2794.0,0.0275
2793.0,0.0272
2792.0,0.0269
2791.0,0.0265
2790.0,0.0262
2789.0,0.0259
2788.0,0.0257
2787.0,0.0254
2786.0,0.0251
2785.0,0.0249
2784.0,0.0246
2783.0,0.0243
2782.0,0.024
2781.0,0.0237
2780.0,0.0234
2779.0,0.0232
2778.0,0.023
2777.0,0.0228
2776.0,0.0227
2775.0,0.0226
2774.0,0.0225
2773.0,0.0224
2772.0,0.0222
2771.0,0.022
2770.0,0.0219
2769.0,0.0218
2768.0,0.0218
2767.0,0.0217
2766.0,0.0217
2765.0,0.0215
2764.0,0.0214
2763.0,0.0212
2762.0,0.0211
2761.0,0.021
2760.0,0.0209
2759.0,0.0208
2758.0,0.0207
2757.0,0.0207
2756.0,0.0206
2755.0,0.0206
2754.0,0.0205
2753.0,0.0203
2752.0,0.0202
2751.0,0.0201
2750.0,0.0201
2749.0,0.0201
2748.0,0.0201
2747.0,0.0202
2746.0,0.0202
2745.0,0.0202
2744.0,0.0201
2743.0,0.0201
2742.0,0.0201
2741.0,0.0201
2740.0,0.0202
2739.0,0.0204
2738.0,0.0205
2737.0,0.0206
2736.0,0.0207
2735.0,0.0207
2734.0,0.0207
2733.0,0.0208
2732.0,0.0209
2731.0,0.0211
2730.0,0.0213
2729.0,0.0215
2728.0,0.0218
2727.0,0.022
2726.0,0.0223
2725.0,0.0225
2724.0,0.0226
2723.0,0.0227
2722.0,0.0226
2721.0,0.0225
2720.0,0.0222
2719.0,0.022
2718.0,0.0217
2717.0,0.0214
2716.0,0.0212
2715.0,0.021
2714.0,0.0208
2713.0,0.0205
2712.0,0.0203
2711.0,0.02
2710.0,0.0199
2709.0,0.0198
2708.0,0.0197
2707.0,0.0196
2706.0,0.0194
2705.0,0.0192
2704.0,0.0191
2703.0,0.019
2702.0,0.0189
2701.0,0.0188
2700.0,0.0187
2699.0,0.0186
2698.0,0.0185
2697.0,0.0184
2696.0,0.0183
2695.0,0.0183
2694.0,0.0183
2693.0,0.0183
2692.0,0.0184
2691.0,0.0184
2690.0,0.0184
2689.0,0.0184
2688.0,0.0183
2687.0,0.0183
2686.0,0.0182
2685.0,0.0182
2684.0,0.0182
2683.0,0.0181
2682.0,0.0181
2681.0,0.0181
2680.0,0.0181
2679.0,0.018
2678.0,0.018
2677.0,0.018
2676.0,0.018
2675.0,0.018
2674.0,0.018
2673.0,0.018
2672.0,0.0179
2671.0,0.0178
2670.0,0.0178
2669.0,0.0177
2668.0,0.0177
2667.0,0.0176
2666.0,0.0176
2665.0,0.0176
2664.0,0.0176
2663.0,0.0177
2662.0,0.0177
2661.0,0.0178
2660.0,0.0179
2659.0,0.0178
2658.0,0.0178
2657.0,0.0177
2656.0,0.0176
2655.0,0.0174
2654.0,0.0173
2653.0,0.0173
2652.0,0.0172
2651.0,0.0172
2650.0,0.0172
2649.0,0.0172
2648.0,0.0171
2647.0,0.017
2646.0,0.017
2645.0,0.0169
2644.0,0.0169
2643.0,0.0168
2642.0,0.0167
2641.0,0.0166
2640.0,0.0166
2639.0,0.0166
2638.0,0.0166
2637.0,0.0166
2636.0,0.0165
2635.0,0.0165
2634.0,0.0164
2633.0,0.0164
2632.0,0.0164
2631.0,0.0164
2630.0,0.0164
2629.0,0.0164
2628.0,0.0165
2627.0,0.0165
2626.0,0.0166
2625.0,0.0166
2624.0,0.0167
2623.0,0.0167
2622.0,0.0167
2621.0,0.0167
2620.0,0.0167
2619.0,0.0167
2618.0,0.0167
2617.0,0.0167
2616.0,0.0166
2615.0,0.0166
2614.0,0.0166
2613.0,0.0165
2612.0,0.0165
2611.0,0.0164
2610.0,0.0164
2609.0,0.0164
2608.0,0.0163
2607.0,0.0163
2606.0,0.0162
2605.0,0.0161
2604.0,0.0161
2603.0,0.016
2602.0,0.016
2601.0,0.016
2600.0,0.0159
2599.0,0.0159
2598.0,0.0158
2597.0,0.0158
2596.0,0.0158
2595.0,0.0158
2594.0,0.0158
2593.0,0.0159
2592.0,0.0159
2591.0,0.016
2590.0,0.0161
2589.0,0.0162
2588.0,0.0163
2587.0,0.0163
2586.0,0.0163
2585.0,0.0164
2584.0,0.0164
2583.0,0.0165
2582.0,0.0166
2581.0,0.0166
2580.0,0.0166
2579.0,0.0166
2578.0,0.0165
2577.0,0.0164
2576.0,0.0163
2575.0,0.0162
2574.0,0.0161
2573.0,0.016
2572.0,0.0159
2571.0,0.0158
2570.0,0.0157
2569.0,0.0156
2568.0,0.0156
2567.0,0.0155
2566.0,0.0155
2565.0,0.0154
2564.0,0.0154
2563.0,0.0153
2562.0,0.0152
2561.0,0.0152
2560.0,0.0151
2559.0,0.0151
2558.0,0.0151
2557.0,0.0151
2556.0,0.015
2555.0,0.015
2554.0,0.015
2553.0,0.015
2552.0,0.015
2551.0,0.015
2550.0,0.015
2549.0,0.0149
2548.0,0.0149
2547.0,0.0149
2546.0,0.0149
2545.0,0.0148
2544.0,0.0148
2543.0,0.0147
2542.0,0.0147
2541.0,0.0146
2540.0,0.0146
2539.0,0.0145
2538.0,0.0145
2537.0,0.0145
2536.0,0.0145
2535.0,0.0145
2534.0,0.0145
2533.0,0.0144
2532.0,0.0144
2531.0,0.0144
2530.0,0.0144
2529.0,0.0145
2528.0,0.0144
2527.0,0.0144
2526.0,0.0143
2525.0,0.0142
2524.0,0.0142
2523.0,0.0142
2522.0,0.0141
2521.0,0.0141
2520.0,0.0142
2519.0,0.0142
2518.0,0.0141
2517.0,0.0141
2516.0,0.014
2515.0,0.014
2514.0,0.0139
2513.0,0.0139
2512.0,0.0139
2511.0,0.014
2510.0,0.014
2509.0,0.0139
2508.0,0.0138
2507.0,0.0137
2506.0,0.0137
2505.0,0.0137
2504.0,0.0138
2503.0,0.0138
2502.0,0.0138
2501.0,0.0138
2500.0,0.0138
2499.0,0.0138
2498.0,0.0139
2497.0,0.0139
2496.0,0.0139
2495.0,0.0138
2494.0,0.0138
2493.0,0.0138
2492.0,0.0137
2491.0,0.0137
2490.0,0.0138
2489.0,0.0138
2488.0,0.0138
2487.0,0.0138
2486.0,0.0138
2485.0,0.0138
2484.0,0.0137
2483.0,0.0136
2482.0,0.0136
2481.0,0.0136
2480.0,0.0135
2479.0,0.0135
2478.0,0.0134
2477.0,0.0134
2476.0,0.0134
2475.0,0.0135
2474.0,0.0134
2473.0,0.0134
2472.0,0.0134
2471.0,0.0134
2470.0,0.0134
2469.0,0.0134
2468.0,0.0134
2467.0,0.0134
2466.0,0.0134
2465.0,0.0134
2464.0,0.0133
2463.0,0.0133
2462.0,0.0132
2461.0,0.0133
2460.0,0.0133
2459.0,0.0133
2458.0,0.0134
2457.0,0.0133
2456.0,0.0133
2455.0,0.0133
2454.0,0.0134
2453.0,0.0134
2452.0,0.0134
2451.0,0.0134
2450.0,0.0134
2449.0,0.0133
2448.0,0.0133
2447.0,0.0132
2446.0,0.0132
2445.0,0.0133
2444.0,0.0133
2443.0,0.0133
2442.0,0.0133
2441.0,0.0133
2440.0,0.0133
2439.0,0.0132
2438.0,0.0132
2437.0,0.0132
2436.0,0.0133
2435.0,0.0133
2434.0,0.0134
2433.0,0.0134
2432.0,0.0134
2431.0,0.0134
2430.0,0.0134
2429.0,0.0133
2428.0,0.0133
2427.0,0.0134
2426.0,0.0134
2425.0,0.0135
2424.0,0.0135
2423.0,0.0135
2422.0,0.0135
2421.0,0.0134
2420.0,0.0133
2419.0,0.0132
2418.0,0.0132
2417.0,0.0132
2416.0,0.0132
2415.0,0.0132
2414.0,0.0133
2413.0,0.0133
2412.0,0.0133
2411.0,0.0133
2410.0,0.0134
2409.0,0.0134
2408.0,0.0133
2407.0,0.0133
2406.0,0.0132
2405.0,0.0133
2404.0,0.0133
2403.0,0.0133
2402.0,0.0134
2401.0,0.0134
2400.0,0.0133
2399.0,0.0132
2398.0,0.0131
2397.0,0.013
2396.0,0.0131
2395.0,0.0131
2394.0,0.0132
2393.0,0.0132
2392.0,0.0131
2391.0,0.0131
2390.0,0.013
2389.0,0.013
2388.0,0.0129
2387.0,0.0129
2386.0,0.0129
2385.0,0.0128
2384.0,0.0128
2383.0,0.0128
2382.0,0.0127
2381.0,0.0126
2380.0,0.0126
2379.0,0.0126
2378.0,0.0126
2377.0,0.0126
2376.0,0.0127
2375.0,0.0129
2374.0,0.0131
2373.0,0.0132
2372.0,0.0132
2371.0,0.0133
2370.0,0.0134
2369.0,0.0131
2368.0,0.0118
2367.0,0.0095
2366.0,0.0077
2365.0,0.008
2364.0,0.0103
2363.0,0.0135
2362.0,0.016
2361.0,0.0173
2360.0,0.0175
2359.0,0.0166
2358.0,0.0152
2357.0,0.0136
2356.0,0.0123
2355.0,0.012
2354.0,0.0126
2353.0,0.0134
2352.0,0.0134
2351.0,0.0128
2350.0,0.0124
2349.0,0.0125
2348.0,0.0128
2347.0,0.013
2346.0,0.0129
2345.0,0.0129
2344.0,0.0129
2343.0,0.0128
2342.0,0.0128
2341.0,0.013
2340.0,0.0133
2339.0,0.0135
2338.0,0.0138
2337.0,0.0138
2336.0,0.0134
2335.0,0.0127
2334.0,0.012
2333.0,0.0116
2332.0,0.0116
2331.0,0.0119
2330.0,0.0124
2329.0,0.0127
2328.0,0.0129
2327.0,0.013
2326.0,0.0129
2325.0,0.0128
2324.0,0.0128
2323.0,0.0128
2322.0,0.013
2321.0,0.013
2320.0,0.0129
2319.0,0.0128
2318.0,0.013
2317.0,0.0132
2316.0,0.0134
2315.0,0.0133
2314.0,0.013
2313.0,0.0128
2312.0,0.0128
2311.0,0.0129
2310.0,0.013
2309.0,0.0132
2308.0,0.0132
2307.0,0.0132
2306.0,0.0131
2305.0,0.013
2304.0,0.0129
2303.0,0.0128
2302.0,0.0128
2301.0,0.0127
2300.0,0.0126
2299.0,0.0126
2298.0,0.0126
2297.0,0.0127
2296.0,0.0127
2295.0,0.0127
2294.0,0.0126
2293.0,0.0125
2292.0,0.0124
2291.0,0.0124
2290.0,0.0124
2289.0,0.0124
2288.0,0.0124
2287.0,0.0124
2286.0,0.0124
2285.0,0.0123
2284.0,0.0123
2283.0,0.0122
2282.0,0.0121
2281.0,0.0121
2280.0,0.0121
2279.0,0.0121
2278.0,0.0121
2277.0,0.0121
2276.0,0.0121
2275.0,0.0121
2274.0,0.0122
2273.0,0.0123
2272.0,0.0123
2271.0,0.0123
2270.0,0.0123
2269.0,0.0123
2268.0,0.0124
2267.0,0.0124
2266.0,0.0124
2265.0,0.0124
2264.0,0.0124
2263.0,0.0123
2262.0,0.0122
2261.0,0.0122
2260.0,0.0122
2259.0,0.0122
2258.0,0.0123
2257.0,0.0123
2256.0,0.0122
2255.0,0.0122
2254.0,0.0122
2253.0,0.0122
2252.0,0.0122
2251.0,0.0122
2250.0,0.0121
2249.0,0.0121
2248.0,0.0121
2247.0,0.0121
2246.0,0.0121
2245.0,0.0121
2244.0,0.0121
2243.0,0.012
2242.0,0.012
2241.0,0.012
2240.0,0.012
2239.0,0.012
2238.0,0.012
2237.0,0.012
2236.0,0.012
2235.0,0.012
2234.0,0.012
2233.0,0.012
2232.0,0.012
2231.0,0.012
2230.0,0.012
2229.0,0.012
2228.0,0.0119
2227.0,0.0119
2226.0,0.0119
2225.0,0.0119
2224.0,0.0118
2223.0,0.0118
2222.0,0.0119
2221.0,0.0119
2220.0,0.012
2219.0,0.012
2218.0,0.0119
2217.0,0.0119
2216.0,0.0118
2215.0,0.0119
2214.0,0.0119
2213.0,0.0119
2212.0,0.0119
2211.0,0.0119
2210.0,0.0119
2209.0,0.0119
2208.0,0.0119
2207.0,0.0119
2206.0,0.0119
2205.0,0.0119
2204.0,0.0119
2203.0,0.0119
2202.0,0.0119
2201.0,0.0119
2200.0,0.0119
2199.0,0.0119
2198.0,0.0119
2197.0,0.012
2196.0,0.0119
2195.0,0.0119
2194.0,0.0119
2193.0,0.0119
2192.0,0.012
2191.0,0.012
2190.0,0.012
2189.0,0.012
2188.0,0.012
2187.0,0.012
2186.0,0.0119
2185.0,0.0119
2184.0,0.0119
2183.0,0.0119
2182.0,0.0119
2181.0,0.0119
2180.0,0.012
2179.0,0.012
2178.0,0.012
2177.0,0.012
2176.0,0.012
2175.0,0.0119
2174.0,0.0119
2173.0,0.012
2172.0,0.012
2171.0,0.012
2170.0,0.012
2169.0,0.012
2168.0,0.012
2167.0,0.012
2166.0,0.012
2165.0,0.0119
2164.0,0.0119
2163.0,0.0119
2162.0,0.0118
2161.0,0.0118
2160.0,0.0118
2159.0,0.0118
2158.0,0.0119
2157.0,0.0119
2156.0,0.0119
2155.0,0.0119
2154.0,0.0118
2153.0,0.0118
2152.0,0.0117
2151.0,0.0118
2150.0,0.0118
2149.0,0.0119
2148.0,0.0119
2147.0,0.0118
2146.0,0.0118
2145.0,0.0118
2144.0,0.0118
2143.0,0.0118
2142.0,0.0118
2141.0,0.0118
2140.0,0.0118
2139.0,0.0118
2138.0,0.0119
2137.0,0.0119
2136.0,0.0118
2135.0,0.0118
2134.0,0.0119
2133.0,0.0119
2132.0,0.0119
2131.0,0.0118
2130.0,0.0118
2129.0,0.0118
2128.0,0.0117
2127.0,0.0117
2126.0,0.0117
2125.0,0.0117
2124.0,0.0117
2123.0,0.0117
2122.0,0.0117
2121.0,0.0117
2120.0,0.0117
2119.0,0.0117
2118.0,0.0117
2117.0,0.0117
2116.0,0.0116
2115.0,0.0116
2114.0,0.0115
2113.0,0.0115
2112.0,0.0115
2111.0,0.0115
2110.0,0.0115
2109.0,0.0116
2108.0,0.0116
2107.0,0.0116
2106.0,0.0116
2105.0,0.0116
2104.0,0.0116
2103.0,0.0116
2102.0,0.0116
2101.0,0.0116
2100.0,0.0116
2099.0,0.0117
2098.0,0.0117
2097.0,0.0117
2096.0,0.0116
2095.0,0.0117
2094.0,0.0117
2093.0,0.0117
2092.0,0.0116
2091.0,0.0116
2090.0,0.0115
2089.0,0.0115
2088.0,0.0115
2087.0,0.0115
2086.0,0.0116
2085.0,0.0116
2084.0,0.0116
2083.0,0.0116
2082.0,0.0116
2081.0,0.0116
2080.0,0.0115
2079.0,0.0115
2078.0,0.0115
2077.0,0.0115
2076.0,0.0115
2075.0,0.0115
2074.0,0.0114
2073.0,0.0115
2072.0,0.0115
2071.0,0.0115
2070.0,0.0116
2069.0,0.0116
2068.0,0.0116
2067.0,0.0115
2066.0,0.0115
2065.0,0.0116
2064.0,0.0116
2063.0,0.0116
2062.0,0.0115
2061.0,0.0115
2060.0,0.0115
2059.0,0.0115
2058.0,0.0115
2057.0,0.0115
2056.0,0.0115
2055.0,0.0115
2054.0,0.0115
2053.0,0.0115
2052.0,0.0115
2051.0,0.0115
2050.0,0.0116
2049.0,0.0116
2048.0,0.0116
2047.0,0.0116
2046.0,0.0117
2045.0,0.0116
2044.0,0.0116
2043.0,0.0116
2042.0,0.0116
2041.0,0.0116
2040.0,0.0116
2039.0,0.0116
2038.0,0.0116
2037.0,0.0116
2036.0,0.0116
2035.0,0.0116
2034.0,0.0116
2033.0,0.0116
2032.0,0.0116
2031.0,0.0116
2030.0,0.0117
2029.0,0.0117
2028.0,0.0117
2027.0,0.0117
2026.0,0.0116
2025.0,0.0116
2024.0,0.0116
2023.0,0.0116
2022.0,0.0116
2021.0,0.0116
2020.0,0.0116
2019.0,0.0116
2018.0,0.0116
2017.0,0.0116
2016.0,0.0116
2015.0,0.0115
2014.0,0.0115
2013.0,0.0114
2012.0,0.0114
2011.0,0.0115
2010.0,0.0115
2009.0,0.0115
2008.0,0.0116
2007.0,0.0116
2006.0,0.0116
2005.0,0.0115
2004.0,0.0116
2003.0,0.0116
2002.0,0.0115
2001.0,0.0115
2000.0,0.0114
1999.0,0.0114
1998.0,0.0115
1997.0,0.0116
1996.0,0.0116
1995.0,0.0117
1994.0,0.0117
1993.0,0.0117
1992.0,0.0117
1991.0,0.0117
1990.0,0.0117
1989.0,0.0117
1988.0,0.0117
1987.0,0.0117
1986.0,0.0117
1985.0,0.0117
1984.0,0.0117
1983.0,0.0117
1982.0,0.0117
1981.0,0.0117
1980.0,0.0117
1979.0,0.0116
1978.0,0.0116
1977.0,0.0116
1976.0,0.0116
1975.0,0.0116
1974.0,0.0116
1973.0,0.0116
1972.0,0.0117
1971.0,0.0117
1970.0,0.0116
1969.0,0.0116
1968.0,0.0116
1967.0,0.0116
1966.0,0.0116
1965.0,0.0117
1964.0,0.0117
1963.0,0.0117
1962.0,0.0117
1961.0,0.0117
1960.0,0.0117
1959.0,0.0117
1958.0,0.0117
1957.0,0.0117
1956.0,0.0117
1955.0,0.0117
1954.0,0.0117
1953.0,0.0117
1952.0,0.0116
1951.0,0.0116
1950.0,0.0115
1949.0,0.0116
1948.0,0.0116
1947.0,0.0117
1946.0,0.0117
1945.0,0.0118
1944.0,0.0118
1943.0,0.0117
1942.0,0.0117
1941.0,0.0117
1940.0,0.0117
1939.0,0.0117
1938.0,0.0117
1937.0,0.0117
1936.0,0.0117
1935.0,0.0117
1934.0,0.0117
1933.0,0.0117
1932.0,0.0118
1931.0,0.0118
1930.0,0.0118
1929.0,0.0118
1928.0,0.0118
1927.0,0.0118
1926.0,0.0118
1925.0,0.0118
1924.0,0.0117
1923.0,0.0117
1922.0,0.0117
1921.0,0.0118
1920.0,0.0118
1919.0,0.0119
1918.0,0.0118
1917.0,0.0118
1916.0,0.0119
1915.0,0.0119
1914.0,0.0119
1913.0,0.0119
1912.0,0.0118
1911.0,0.0118
1910.0,0.0118
1909.0,0.0118
1908.0,0.0118
1907.0,0.0118
1906.0,0.0119
1905.0,0.0119
1904.0,0.0119
1903.0,0.0119
1902.0,0.0119
1901.0,0.0119
1900.0,0.0119
1899.0,0.0119
1898.0,0.012
1897.0,0.012
1896.0,0.012
1895.0,0.012
1894.0,0.012
1893.0,0.012
1892.0,0.012
1891.0,0.012
1890.0,0.012
1889.0,0.012
1888.0,0.0119
1887.0,0.0119
1886.0,0.0119
1885.0,0.0118
1884.0,0.0118
1883.0,0.0118
1882.0,0.0118
1881.0,0.0118
1880.0,0.0118
1879.0,0.0118
1878.0,0.0118
1877.0,0.0118
1876.0,0.0119
1875.0,0.0119
1874.0,0.0119
1873.0,0.0119
1872.0,0.0119
1871.0,0.012
1870.0,0.012
1869.0,0.012
1868.0,0.012
1867.0,0.012
1866.0,0.0119
1865.0,0.0119
1864.0,0.0119
1863.0,0.0119
1862.0,0.0119
1861.0,0.0119
1860.0,0.0119
1859.0,0.0119
1858.0,0.0119
1857.0,0.0119
1856.0,0.0119
1855.0,0.0119
1854.0,0.012
1853.0,0.012
1852.0,0.012
1851.0,0.012
1850.0,0.012
1849.0,0.012
1848.0,0.012
1847.0,0.0121
1846.0,0.0121
1845.0,0.012
1844.0,0.012
1843.0,0.012
1842.0,0.012
1841.0,0.012
1840.0,0.012
1839.0,0.0121
1838.0,0.0121
1837.0,0.0121
1836.0,0.0121
1835.0,0.0121
1834.0,0.0121
1833.0,0.0121
1832.0,0.0121
1831.0,0.0122
1830.0,0.0122
1829.0,0.0122
1828.0,0.0122
1827.0,0.0122
1826.0,0.0122
1825.0,0.0122
1824.0,0.0121
1823.0,0.0121
1822.0,0.0121
1821.0,0.012
1820.0,0.0119
1819.0,0.0118
1818.0,0.0118
1817.0,0.0118
1816.0,0.0119
1815.0,0.0119
1814.0,0.012
1813.0,0.012
1812.0,0.012
1811.0,0.012
1810.0,0.012
1809.0,0.012
1808.0,0.012
1807.0,0.012
1806.0,0.0119
1805.0,0.012
1804.0,0.012
1803.0,0.012
1802.0,0.012
1801.0,0.0121
1800.0,0.0122
1799.0,0.0122
1798.0,0.0122
1797.0,0.0122
1796.0,0.0122
1795.0,0.0122
1794.0,0.0121
1793.0,0.0121
1792.0,0.0121
1791.0,0.0121
1790.0,0.0122
1789.0,0.0122
1788.0,0.0122
1787.0,0.0122
1786.0,0.0122
1785.0,0.0123
1784.0,0.0123
1783.0,0.0123
1782.0,0.0123
1781.0,0.0123
1780.0,0.0123
1779.0,0.0123
1778.0,0.0123
1777.0,0.0123
1776.0,0.0124
1775.0,0.0124
1774.0,0.0124
1773.0,0.0124
1772.0,0.0124
1771.0,0.0125
1770.0,0.0125
1769.0,0.0126
1768.0,0.0126
1767.0,0.0126
1766.0,0.0126
1765.0,0.0127
1764.0,0.0128
1763.0,0.0128
1762.0,0.0129
1761.0,0.013
1760.0,0.0132
1759.0,0.0133
1758.0,0.0135
1757.0,0.0137
1756.0,0.0139
1755.0,0.0141
1754.0,0.0142
1753.0,0.0143
1752.0,0.0146
1751.0,0.0149
1750.0,0.0153
1749.0,0.0157
1748.0,0.0159
1747.0,0.0161
1746.0,0.0162
1745.0,0.0163
1744.0,0.0164
1743.0,0.0164
1742.0,0.0163
1741.0,0.0162
1740.0,0.0161
1739.0,0.0159
1738.0,0.0157
1737.0,0.0156
1736.0,0.0154
1735.0,0.015
1734.0,0.0148
1733.0,0.0147
1732.0,0.0148
1731.0,0.0148
1730.0,0.0147
1729.0,0.0146
1728.0,0.0146
1727.0,0.0145
1726.0,0.0145
1725.0,0.0144
1724.0,0.0144
1723.0,0.0143
1722.0,0.0143
1721.0,0.0143
1720.0,0.0143
1719.0,0.0142
1718.0,0.0141
1717.0,0.0142
1716.0,0.0143
1715.0,0.0144
1714.0,0.0144
1713.0,0.0144
1712.0,0.0144
1711.0,0.0143
1710.0,0.0143
1709.0,0.0143
1708.0,0.0144
1707.0,0.0144
1706.0,0.0144
1705.0,0.0144
1704.0,0.0144
1703.0,0.0144
1702.0,0.0144
1701.0,0.0144
1700.0,0.0144
1699.0,0.0145
1698.0,0.0146
1697.0,0.0148
1696.0,0.0149
1695.0,0.0148
1694.0,0.0148
1693.0,0.0149
1692.0,0.015
1691.0,0.0151
1690.0,0.0151
1689.0,0.0152
1688.0,0.0153
1687.0,0.0153
1686.0,0.0154
1685.0,0.0155
1684.0,0.0157
1683.0,0.0158
1682.0,0.0158
1681.0,0.0158
1680.0,0.0158
1679.0,0.0159
1678.0,0.0159
1677.0,0.0159
1676.0,0.0159
1675.0,0.0159
1674.0,0.016
1673.0,0.016
1672.0,0.016
1671.0,0.0161
1670.0,0.0162
1669.0,0.0163
1668.0,0.0164
1667.0,0.0164
1666.0,0.0164
1665.0,0.0164
1664.0,0.0164
1663.0,0.0165
1662.0,0.0165
1661.0,0.0166
1660.0,0.0167
1659.0,0.0167
1658.0,0.0166
1657.0,0.0166
1656.0,0.0166
1655.0,0.0164
1654.0,0.0162
1653.0,0.0164
1652.0,0.0166
1651.0,0.0166
1650.0,0.0167
1649.0,0.0167
1648.0,0.0167
1647.0,0.0167
1646.0,0.0167
1645.0,0.0167
1644.0,0.0166
1643.0,0.0166
1642.0,0.0165
1641.0,0.0164
1640.0,0.0164
1639.0,0.0164
1638.0,0.0164
1637.0,0.0164
1636.0,0.0165
1635.0,0.0164
1634.0,0.0163
1633.0,0.0161
1632.0,0.0161
1631.0,0.016
1630.0,0.016
1629.0,0.0159
1628.0,0.0159
1627.0,0.0159
1626.0,0.016
1625.0,0.016
1624.0,0.016
1623.0,0.016
1622.0,0.0159
1621.0,0.0157
1620.0,0.0156
1619.0,0.0155
1618.0,0.0154
1617.0,0.0154
1616.0,0.0154
1615.0,0.0155
1614.0,0.0155
1613.0,0.0155
1612.0,0.0155
1611.0,0.0155
1610.0,0.0155
1609.0,0.0155
1608.0,0.0155
1607.0,0.0155
1606.0,0.0155
1605.0,0.0155
1604.0,0.0154
1603.0,0.0153
1602.0,0.0153
1601.0,0.0152
1600.0,0.0152
1599.0,0.0152
1598.0,0.0151
1597.0,0.0152
1596.0,0.0152
1595.0,0.0152
1594.0,0.0152
1593.0,0.0152
1592.0,0.0151
1591.0,0.0151
1590.0,0.0151
1589.0,0.0152
1588.0,0.0152
1587.0,0.0152
1586.0,0.0151
1585.0,0.0151
1584.0,0.0151
1583.0,0.0151
1582.0,0.015
1581.0,0.015
1580.0,0.0149
1579.0,0.0148
1578.0,0.0148
1577.0,0.0147
1576.0,0.0147
1575.0,0.0146
1574.0,0.0146
1573.0,0.0146
1572.0,0.0146
1571.0,0.0145
1570.0,0.0145
1569.0,0.0145
1568.0,0.0145
1567.0,0.0145
1566.0,0.0145
1565.0,0.0145
1564.0,0.0145
1563.0,0.0145
1562.0,0.0145
1561.0,0.0145
1560.0,0.0145
1559.0,0.0148
1558.0,0.0148
1557.0,0.0146
1556.0,0.0146
1555.0,0.0145
1554.0,0.0145
1553.0,0.0145
1552.0,0.0145
1551.0,0.0146
1550.0,0.0146
1549.0,0.0146
1548.0,0.0145
1547.0,0.0145
1546.0,0.0144
1545.0,0.0144
1544.0,0.0144
1543.0,0.0144
1542.0,0.0142
1541.0,0.0142
1540.0,0.0144
1539.0,0.0143
1538.0,0.0141
1537.0,0.014
1536.0,0.014
1535.0,0.0139
1534.0,0.0138
1533.0,0.0137
1532.0,0.0136
1531.0,0.0135
1530.0,0.0133
1529.0,0.0133
1528.0,0.0133
1527.0,0.0132
1526.0,0.0132
1525.0,0.0132
1524.0,0.0132
1523.0,0.0132
1522.0,0.0131
1521.0,0.013
1520.0,0.013
1519.0,0.013
1518.0,0.0129
1517.0,0.013
1516.0,0.0129
1515.0,0.0127
1514.0,0.0126
1513.0,0.0125
1512.0,0.0125
1511.0,0.0125
1510.0,0.0125
1509.0,0.0126
1508.0,0.0127
1507.0,0.0128
1506.0,0.0126
1505.0,0.0125
1504.0,0.0125
1503.0,0.0125
1502.0,0.0124
1501.0,0.0124
1500.0,0.0124
1499.0,0.0123
1498.0,0.0123
1497.0,0.0124
1496.0,0.0126
1495.0,0.0126
1494.0,0.0125
1493.0,0.0126
1492.0,0.0127
1491.0,0.0127
1490.0,0.0128
1489.0,0.013
1488.0,0.0131
1487.0,0.0132
1486.0,0.0133
1485.0,0.0135
1484.0,0.0139
1483.0,0.0142
1482.0,0.0145
1481.0,0.0151
1480.0,0.0157
1479.0,0.0163
1478.0,0.0172
1477.0,0.0184
1476.0,0.0199
1475.0,0.0216
1474.0,0.0243
1473.0,0.029
1472.0,0.0347
1471.0,0.0395
1470.0,0.0439
1469.0,0.0486
1468.0,0.0538
1467.0,0.0597
1466.0,0.0669
1465.0,0.0753
1464.0,0.0824
1463.0,0.087
1462.0,0.0899
1461.0,0.092
1460.0,0.0936
1459.0,0.0948
1458.0,0.0964
1457.0,0.0985
1456.0,0.0996
1455.0,0.0996
1454.0,0.0991
1453.0,0.0984
1452.0,0.097
1451.0,0.0948
1450.0,0.0917
1449.0,0.0872
1448.0,0.081
1447.0,0.0744
1446.0,0.0687
1445.0,0.0637
1444.0,0.0593
1443.0,0.0555
1442.0,0.0526
1441.0,0.0505
1440.0,0.0491
1439.0,0.0485
1438.0,0.0487
1437.0,0.0495
1436.0,0.0495
1435.0,0.0481
1434.0,0.0455
1433.0,0.0423
1432.0,0.0387
1431.0,0.0354
1430.0,0.0328
1429.0,0.0307
1428.0,0.0292
1427.0,0.0282
1426.0,0.0275
1425.0,0.0267
1424.0,0.026
1423.0,0.0255
1422.0,0.0252
1421.0,0.0248
1420.0,0.0243
1419.0,0.024
1418.0,0.0239
1417.0,0.0235
1416.0,0.0231
1415.0,0.0228
1414.0,0.0225
1413.0,0.0222
1412.0,0.0219
1411.0,0.0217
1410.0,0.0215
1409.0,0.0212
1408.0,0.0209
1407.0,0.0207
1406.0,0.0205
1405.0,0.0203
1404.0,0.02
1403.0,0.0198
1402.0,0.0197
1401.0,0.0195
1400.0,0.0193
1399.0,0.0192
1398.0,0.0191
1397.0,0.019
1396.0,0.0188
1395.0,0.0187
1394.0,0.0188
1393.0,0.0187
1392.0,0.0186
1391.0,0.0187
1390.0,0.019
1389.0,0.0195
1388.0,0.0206
1387.0,0.0226
1386.0,0.0256
1385.0,0.0297
1384.0,0.0357
1383.0,0.0444
1382.0,0.0562
1381.0,0.0714
1380.0,0.0904
1379.0,0.112
1378.0,0.133
1377.0,0.1488
1376.0,0.1559
1375.0,0.1515
1374.0,0.137
1373.0,0.119
1372.0,0.1025
1371.0,0.0883
1370.0,0.0761
1369.0,0.066
1368.0,0.0587
1367.0,0.0539
1366.0,0.051
1365.0,0.0495
1364.0,0.0493
1363.0,0.0503
1362.0,0.052
1361.0,0.0539
1360.0,0.0554
1359.0,0.0559
1358.0,0.0552
1357.0,0.0534
1356.0,0.0506
1355.0,0.0474
1354.0,0.0442
1353.0,0.0414
1352.0,0.0391
1351.0,0.0371
1350.0,0.0355
1349.0,0.0341
1348.0,0.0329
1347.0,0.0319
1346.0,0.031
1345.0,0.0301
1344.0,0.0294
1343.0,0.0288
1342.0,0.0283
1341.0,0.0279
1340.0,0.0276
1339.0,0.0274
1338.0,0.0272
1337.0,0.027
1336.0,0.0269
1335.0,0.027
1334.0,0.0271
1333.0,0.0275
1332.0,0.0279
1331.0,0.0282
1330.0,0.0283
1329.0,0.0282
1328.0,0.028
1327.0,0.0275
1326.0,0.027
1325.0,0.0265
1324.0,0.026
1323.0,0.0255
1322.0,0.0251
1321.0,0.0248
1320.0,0.0246
1319.0,0.0244
1318.0,0.0242
1317.0,0.024
1316.0,0.0238
1315.0,0.0236
1314.0,0.0234
1313.0,0.0233
1312.0,0.0233
1311.0,0.0233
1310.0,0.0234
1309.0,0.0237
1308.0,0.0242
1307.0,0.0249
1306.0,0.0256
1305.0,0.0261
1304.0,0.0263
1303.0,0.0262
1302.0,0.026
1301.0,0.0258
1300.0,0.0258
1299.0,0.0259
1298.0,0.0261
1297.0,0.0263
1296.0,0.0264
1295.0,0.0263
1294.0,0.026
1293.0,0.0257
1292.0,0.0253
1291.0,0.025
1290.0,0.0246
1289.0,0.0243
1288.0,0.024
1287.0,0.0238
1286.0,0.0236
1285.0,0.0234
1284.0,0.0233
1283.0,0.0231
1282.0,0.023
1281.0,0.0229
1280.0,0.0228
1279.0,0.0227
1278.0,0.0227
1277.0,0.0227
1276.0,0.0226
1275.0,0.0226
1274.0,0.0225
1273.0,0.0225
1272.0,0.0225
1271.0,0.0226
1270.0,0.0227
1269.0,0.0227
1268.0,0.0228
1267.0,0.0229
1266.0,0.023
1265.0,0.0231
1264.0,0.0232
1263.0,0.0234
1262.0,0.0236
1261.0,0.0239
1260.0,0.0243
1259.0,0.0247
1258.0,0.0252
1257.0,0.0256
1256.0,0.0257
1255.0,0.0257
1254.0,0.0253
1253.0,0.0249
1252.0,0.0244
1251.0,0.024
1250.0,0.0237
1249.0,0.0235
1248.0,0.0233
1247.0,0.0231
1246.0,0.0229
1245.0,0.0228
1244.0,0.0227
1243.0,0.0227
1242.0,0.0226
1241.0,0.0225
1240.0,0.0224
1239.0,0.0223
1238.0,0.0222
1237.0,0.0222
1236.0,0.0221
1235.0,0.0221
1234.0,0.0221
1233.0,0.022
1232.0,0.022
1231.0,0.0221
1230.0,0.0221
1229.0,0.0221
1228.0,0.0222
1227.0,0.0223
1226.0,0.0224
1225.0,0.0227
1224.0,0.023
1223.0,0.0233
1222.0,0.0235
1221.0,0.0237
1220.0,0.0239
1219.0,0.0239
1218.0,0.0239
1217.0,0.0237
1216.0,0.0235
1215.0,0.0233
1214.0,0.0231
1213.0,0.0229
1212.0,0.0227
1211.0,0.0226
1210.0,0.0225
1209.0,0.0225
1208.0,0.0224
1207.0,0.0224
1206.0,0.0224
1205.0,0.0224
1204.0,0.0224
1203.0,0.0224
1202.0,0.0224
1201.0,0.0224
1200.0,0.0224
1199.0,0.0224
1198.0,0.0224
1197.0,0.0224
1196.0,0.0224
1195.0,0.0225
1194.0,0.0225
1193.0,0.0225
1192.0,0.0225
1191.0,0.0226
1190.0,0.0226
1189.0,0.0226
1188.0,0.0227
1187.0,0.0227
1186.0,0.0228
1185.0,0.0229
1184.0,0.023
1183.0,0.0231
1182.0,0.0233
1181.0,0.0235
1180.0,0.0237
1179.0,0.0241
1178.0,0.0245
1177.0,0.025
1176.0,0.0257
1175.0,0.0266
1174.0,0.028
1173.0,0.0297
1172.0,0.0316
1171.0,0.0337
1170.0,0.0357
1169.0,0.0373
1168.0,0.0383
1167.0,0.0387
1166.0,0.0384
1165.0,0.0378
1164.0,0.0372
1163.0,0.0365
1162.0,0.0359
1161.0,0.0353
1160.0,0.0349
1159.0,0.0346
1158.0,0.0344
1157.0,0.0344
1156.0,0.0344
1155.0,0.0344
1154.0,0.0344
1153.0,0.0344
1152.0,0.0342
1151.0,0.0338
1150.0,0.0332
1149.0,0.0324
1148.0,0.0317
1147.0,0.0309
1146.0,0.0302
1145.0,0.0296
1144.0,0.029
1143.0,0.0284
1142.0,0.0277
1141.0,0.0272
1140.0,0.0267
1139.0,0.0263
1138.0,0.026
1137.0,0.0257
1136.0,0.0255
1135.0,0.0253
1134.0,0.0252
1133.0,0.0251
1132.0,0.0251
1131.0,0.025
1130.0,0.0249
1129.0,0.0249
1128.0,0.0248
1127.0,0.0248
1126.0,0.0248
1125.0,0.0249
1124.0,0.0249
1123.0,0.0249
1122.0,0.025
1121.0,0.025
1120.0,0.025
1119.0,0.0251
1118.0,0.0252
1117.0,0.0253
1116.0,0.0254
1115.0,0.0254
1114.0,0.0255
1113.0,0.0255
1112.0,0.0256
1111.0,0.0257
1110.0,0.026
1109.0,0.0264
1108.0,0.0268
1107.0,0.0274
1106.0,0.0281
1105.0,0.0287
1104.0,0.0293
1103.0,0.0297
1102.0,0.0297
1101.0,0.0295
1100.0,0.029
1099.0,0.0285
1098.0,0.0279
1097.0,0.0275
1096.0,0.0271
1095.0,0.0268
1094.0,0.0266
1093.0,0.0264
1092.0,0.0262
1091.0,0.026
1090.0,0.0258
1089.0,0.0257
1088.0,0.0256
1087.0,0.0255
1086.0,0.0254
1085.0,0.0253
1084.0,0.0252
1083.0,0.0251
1082.0,0.0251
1081.0,0.0251
1080.0,0.0251
1079.0,0.025
1078.0,0.0249
1077.0,0.0248
1076.0,0.0247
1075.0,0.0247
1074.0,0.0247
1073.0,0.0246
1072.0,0.0246
1071.0,0.0246
1070.0,0.0246
1069.0,0.0246
1068.0,0.0246
1067.0,0.0247
1066.0,0.0246
1065.0,0.0246
1064.0,0.0245
1063.0,0.0245
1062.0,0.0245
1061.0,0.0245
1060.0,0.0245
1059.0,0.0245
1058.0,0.0245
1057.0,0.0245
1056.0,0.0245
1055.0,0.0246
1054.0,0.0247
1053.0,0.0247
1052.0,0.0247
1051.0,0.0247
1050.0,0.0248
1049.0,0.0249
1048.0,0.025
1047.0,0.0251
1046.0,0.0251
1045.0,0.0252
1044.0,0.0251
1043.0,0.025
1042.0,0.0248
1041.0,0.0246
1040.0,0.0243
1039.0,0.0241
1038.0,0.024
1037.0,0.0239
1036.0,0.0238
1035.0,0.0236
1034.0,0.0235
1033.0,0.0233
1032.0,0.0232
1031.0,0.023
1030.0,0.0229
1029.0,0.0227
1028.0,0.0227
1027.0,0.0226
1026.0,0.0226
1025.0,0.0225
1024.0,0.0225
1023.0,0.0224
1022.0,0.0224
1021.0,0.0224
1020.0,0.0223
1019.0,0.0223
1018.0,0.0223
1017.0,0.0223
1016.0,0.0223
1015.0,0.0223
1014.0,0.0224
1013.0,0.0224
1012.0,0.0225
1011.0,0.0227
1010.0,0.0229
1009.0,0.0232
1008.0,0.0234
1007.0,0.0237
1006.0,0.0242
1005.0,0.0249
1004.0,0.0259
1003.0,0.0273
1002.0,0.0294
1001.0,0.0319
1000.0,0.0346
999.0,0.0369
998.0,0.0382
997.0,0.0379
996.0,0.0364
995.0,0.034
994.0,0.0316
993.0,0.0294
992.0,0.0278
991.0,0.0265
990.0,0.0256
989.0,0.0248
988.0,0.0242
987.0,0.0237
986.0,0.0235
985.0,0.0235
984.0,0.0237
983.0,0.0241
982.0,0.0249
981.0,0.0261
980.0,0.0279
979.0,0.0302
978.0,0.0331
977.0,0.0365
976.0,0.04
975.0,0.0432
974.0,0.0453
973.0,0.046
972.0,0.0449
971.0,0.0424
970.0,0.0391
969.0,0.0359
968.0,0.0332
967.0,0.031
966.0,0.0294
965.0,0.0282
964.0,0.0274
963.0,0.0266
962.0,0.026
961.0,0.0255
960.0,0.0251
959.0,0.0247
958.0,0.0243
957.0,0.024
956.0,0.0237
955.0,0.0235
954.0,0.0233
953.0,0.0232
952.0,0.0231
951.0,0.0229
950.0,0.0227
949.0,0.0226
948.0,0.0226
947.0,0.0226
946.0,0.0227
945.0,0.023
944.0,0.0233
943.0,0.0237
942.0,0.0239
941.0,0.0241
940.0,0.0241
939.0,0.0239
938.0,0.0236
937.0,0.0232
936.0,0.0228
935.0,0.0224
934.0,0.0221
933.0,0.0218
932.0,0.0215
931.0,0.0214
930.0,0.0212
929.0,0.0212
928.0,0.0212
927.0,0.0212
926.0,0.0211
925.0,0.021
924.0,0.0209
923.0,0.0209
922.0,0.021
921.0,0.0209
920.0,0.0209
919.0,0.0209
918.0,0.0209
917.0,0.0209
916.0,0.0209
915.0,0.021
914.0,0.021
913.0,0.0211
912.0,0.0211
911.0,0.0213
910.0,0.0215
909.0,0.0217
908.0,0.0219
907.0,0.0222
906.0,0.0227
905.0,0.0235
904.0,0.0248
903.0,0.0266
902.0,0.0286
901.0,0.0305
900.0,0.0319
899.0,0.0325
898.0,0.0322
897.0,0.031
896.0,0.0295
895.0,0.028
894.0,0.0267
893.0,0.0256
892.0,0.0248
891.0,0.0243
890.0,0.0239
889.0,0.0236
888.0,0.0234
887.0,0.0232
886.0,0.023
885.0,0.0229
884.0,0.0228
883.0,0.0228
882.0,0.0228
881.0,0.0227
880.0,0.0226
879.0,0.0225
878.0,0.0224
877.0,0.0224
876.0,0.0224
875.0,0.0223
874.0,0.0223
873.0,0.0223
872.0,0.0224
871.0,0.0225
870.0,0.0225
869.0,0.0226
868.0,0.0227
867.0,0.0229
866.0,0.0229
865.0,0.0229
864.0,0.0228
863.0,0.0227
862.0,0.0227
861.0,0.0228
860.0,0.023
859.0,0.0232
858.0,0.0234
857.0,0.0235
856.0,0.0235
855.0,0.0235
854.0,0.0236
853.0,0.0237
852.0,0.0239
851.0,0.0241
850.0,0.0244
849.0,0.0246
848.0,0.025
847.0,0.0256
846.0,0.0269
845.0,0.029
844.0,0.0319
843.0,0.0351
842.0,0.0377
841.0,0.0385
840.0,0.0372
839.0,0.0346
838.0,0.0317
837.0,0.0295
836.0,0.0281
835.0,0.0271
834.0,0.0265
833.0,0.0261
832.0,0.0257
831.0,0.0254
830.0,0.0253
829.0,0.0251
828.0,0.0249
827.0,0.0246
826.0,0.0244
825.0,0.0242
824.0,0.0241
823.0,0.024
822.0,0.0239
821.0,0.024
820.0,0.0242
819.0,0.0245
818.0,0.0248
817.0,0.0252
816.0,0.0258
815.0,0.0268
814.0,0.0281
813.0,0.0299
812.0,0.0319
811.0,0.0338
810.0,0.0352
809.0,0.0359
808.0,0.0359
807.0,0.0352
806.0,0.0339
805.0,0.0324
804.0,0.031
803.0,0.0298
802.0,0.0288
801.0,0.0281
800.0,0.0276
799.0,0.0271
798.0,0.0266
797.0,0.0261
796.0,0.0258
795.0,0.0255
794.0,0.0252
793.0,0.0249
792.0,0.0247
791.0,0.0245
790.0,0.0244
789.0,0.0243
788.0,0.0242
787.0,0.0239
786.0,0.0236
785.0,0.0233
784.0,0.0231
783.0,0.023
782.0,0.023
781.0,0.023
780.0,0.023
779.0,0.0229
778.0,0.0228
777.0,0.0228
776.0,0.0227
775.0,0.0226
774.0,0.0224
773.0,0.0222
772.0,0.0221
771.0,0.0221
770.0,0.0221
769.0,0.0222
768.0,0.0222
767.0,0.0222
766.0,0.0221
765.0,0.0222
764.0,0.0222
763.0,0.0224
762.0,0.0224
761.0,0.0224
760.0,0.0222
759.0,0.0221
758.0,0.022
757.0,0.022
756.0,0.022
755.0,0.022
754.0,0.022
753.0,0.0219
752.0,0.0219
751.0,0.0219
750.0,0.022
749.0,0.0221
748.0,0.0222
747.0,0.0223
746.0,0.0224
745.0,0.0224
744.0,0.0224
743.0,0.0225
742.0,0.0224
741.0,0.0222
740.0,0.022
739.0,0.022
738.0,0.0221
737.0,0.0222
736.0,0.0223
735.0,0.0222
734.0,0.0222
733.0,0.0222
732.0,0.0222
731.0,0.0225
730.0,0.0228
729.0,0.023
728.0,0.0229
727.0,0.0227
726.0,0.0225
725.0,0.0224
724.0,0.0224
723.0,0.0223
722.0,0.0222
721.0,0.022
720.0,0.0219
719.0,0.022
718.0,0.0225
717.0,0.023
716.0,0.0234
715.0,0.0234
714.0,0.0231
713.0,0.0228
712.0,0.0226
711.0,0.0224
710.0,0.0224
709.0,0.0224
708.0,0.0224
707.0,0.0225
706.0,0.0225
705.0,0.0225
704.0,0.0223
703.0,0.022
702.0,0.0218
701.0,0.0218
700.0,0.022
699.0,0.0224
698.0,0.0227
697.0,0.023
696.0,0.0231
695.0,0.0232
694.0,0.0231
693.0,0.0231
692.0,0.0233
691.0,0.0236
690.0,0.0239
689.0,0.0241
688.0,0.0243
687.0,0.0246
686.0,0.0248
685.0,0.0246
684.0,0.0237
683.0,0.0224
682.0,0.0215
681.0,0.0212
680.0,0.0213
679.0,0.0216
678.0,0.0217
677.0,0.0218
676.0,0.022
675.0,0.0224
674.0,0.0226
673.0,0.0226
672.0,0.0222
671.0,0.022
670.0,0.0224
669.0,0.0234
668.0,0.0238
667.0,0.0233
666.0,0.0229
665.0,0.023
664.0,0.0233
663.0,0.0235
662.0,0.0234
661.0,0.023
660.0,0.0225
659.0,0.0221
658.0,0.0219
657.0,0.0221
656.0,0.0223
655.0,0.0224
654.0,0.0224
653.0,0.0227
652.0,0.023
651.0,0.0234
650.0,0.0237
649.0,0.0238
648.0,0.0236
647.0,0.0233
646.0,0.023
645.0,0.0228
644.0,0.0226
643.0,0.0224
642.0,0.0224
641.0,0.0228
640.0,0.0234
639.0,0.024
638.0,0.0245
637.0,0.0251
636.0,0.0257
635.0,0.0259
634.0,0.0256
633.0,0.0251
632.0,0.0246
631.0,0.0241
630.0,0.0237
629.0,0.0235
628.0,0.0237
627.0,0.024
626.0,0.0243
625.0,0.0245
624.0,0.0244
623.0,0.0242
622.0,0.0243
621.0,0.0247
620.0,0.025
619.0,0.0247
618.0,0.0241
617.0,0.0237
616.0,0.0238
615.0,0.0244
614.0,0.0251
613.0,0.0257
612.0,0.0261
611.0,0.0262
610.0,0.0261
609.0,0.0258
608.0,0.0254
607.0,0.0249
606.0,0.0246
605.0,0.0246
604.0,0.0248
603.0,0.0251
602.0,0.0257
601.0,0.0265
600.0,0.0271
