nm,Intensity
526.508,836.3
526.645,836.8
526.782,834.85
526.919,837.2
527.055,836.45
527.192,836.6
527.329,836.1
527.465,835.7
527.602,836.1
527.739,836.4
527.875,835.9
528.012,835.95
528.149,836.6
528.285,836.0
528.422,837.15
528.558,836.2
528.695,837.1
528.832,834.9
528.968,837.3
529.105,837.2
529.241,836.0
529.378,836.25
529.514,837.2
529.651,836.3
529.787,837.3
529.924,838.15
530.061,835.75
530.197,837.0
530.334,837.85
530.47,837.0
530.606,836.0
530.743,836.95
530.879,837.25
531.016,838.45
531.152,837.2
531.289,837.55
531.425,837.0
531.562,838.2
531.698,838.05
531.834,837.75
531.971,841.25
532.107,874.15
532.244,887.25
532.38,852.15
532.516,840.2
532.653,839.0
532.789,839.55
532.925,840.0
533.062,839.7
533.198,840.65
533.334,841.9
533.471,850.9
533.607,909.6
533.743,1479.3
533.879,4457.65
534.016,9760.9
534.152,12815.7
534.288,13490.0
534.424,13495.9
534.561,13603.2
534.697,13907.5
534.833,13999.4
534.969,13851.9
535.106,13703.4
535.242,13746.3
535.378,13942.3
535.514,14223.7
535.65,14392.5
535.786,14514.2
535.923,14569.1
536.059,14609.2
536.195,14667.7
536.331,14725.4
536.467,14767.5
536.603,14801.3
536.739,14907.2
536.876,14960.2
537.012,14988.0
537.148,15037.8
537.284,15109.3
537.42,15172.8
537.556,15232.5
537.692,15369.1
537.828,15446.1
537.964,15561.2
538.1,15707.8
538.236,15752.0
538.372,15813.5
538.508,15847.8
538.644,15909.6
538.78,16008.5
538.916,15949.2
539.052,16080.8
539.188,16093.8
539.324,16198.9
539.46,16321.8
539.596,16413.4
539.732,16506.0
539.868,16593.4
540.004,16661.3
540.14,16719.3
540.275,16796.8
540.411,16820.5
540.547,16873.8
540.683,16917.8
540.819,17018.4
540.955,17103.9
541.091,17148.4
541.227,17311.7
541.362,17375.7
541.498,17444.6
541.634,17578.3
541.77,17601.1
541.906,17647.1
542.041,17747.9
542.177,17827.0
542.313,17878.8
542.449,17964.2
542.585,18109.4
542.72,18186.3
542.856,18238.9
542.992,18360.8
543.128,18467.8
543.263,18536.3
543.399,18606.1
543.535,18715.7
543.67,18786.7
543.806,18898.3
543.942,18914.2
544.078,19079.1
544.213,19074.3
544.349,19184.2
544.485,19259.2
544.62,19328.9
544.756,19477.1
544.892,19538.9
545.027,19664.5
545.163,19700.8
545.298,19827.4
545.434,19908.4
545.57,19940.3
545.705,20021.3
545.841,20088.1
545.976,20155.2
546.112,20260.3
546.248,20368.4
546.383,20393.8
546.519,20424.9
546.654,20519.4
546.79,20645.6
546.925,20745.5
547.061,20813.3
547.196,20837.3
547.332,20931.3
547.467,20993.3
547.603,21019.9
547.738,21058.9
547.874,21151.4
548.009,21199.5
548.145,21265.9
548.28,21330.2
548.416,21405.6
548.551,21556.5
548.686,21661.6
548.822,21756.1
548.957,21845.9
549.093,21914.8
549.228,22066.3
549.363,22126.9
549.499,22148.4
549.634,22238.4
549.77,22314.8
549.905,22353.8
550.04,22362.2
550.176,22368.8
550.311,22487.7
550.446,22537.3
550.582,22658.8
550.717,22803.2
550.852,22815.2
550.988,22870.6
551.123,22945.5
551.258,23040.1
551.394,23098.8
551.529,23202.0
551.664,23313.0
551.799,23419.9
551.935,23457.9
552.07,23531.2
552.205,23613.7
552.34,23617.8
552.476,23700.7
552.611,23741.6
552.746,23831.3
552.881,23912.3
553.016,23935.6
553.152,23953.5
553.287,24051.7
553.422,24087.6
553.557,24243.2
553.692,24354.1
553.827,24455.3
553.963,24576.2
554.098,24586.2
554.233,24705.4
554.368,24752.8
554.503,24827.7
554.638,24911.1
554.773,24920.7
554.908,24916.3
555.043,24932.0
555.179,25007.4
555.314,24960.7
555.449,25046.2
555.584,25059.3
555.719,25105.9
555.854,25111.9
555.989,25196.7
556.124,25283.1
556.259,25352.3
556.394,25395.6
556.529,25556.8
556.664,25629.1
556.799,25711.1
556.934,25769.8
557.069,25900.3
557.204,25931.9
557.339,26028.4
557.474,26126.4
557.609,26226.2
557.744,26348.6
557.879,26195.8
558.014,26181.9
558.149,26109.3
558.284,26224.3
558.419,26142.9
558.553,26263.3
558.688,26227.6
558.823,26354.2
558.958,26418.8
559.093,26555.8
559.228,26628.3
559.363,26724.6
559.498,26841.2
559.632,26908.2
559.767,27089.1
559.902,27242.3
560.037,27342.0
560.172,27448.4
560.307,27499.0
560.441,27551.6
560.576,27623.8
560.711,27658.1
560.846,27643.3
560.981,27662.6
561.115,27683.7
561.25,27795.1
561.385,27786.2
561.52,27828.8
561.654,27882.6
561.789,27844.7
561.924,27952.6
562.059,28000.7
562.193,28106.1
562.328,28188.4
562.463,28244.7
562.598,28367.3
562.732,28512.8
562.867,28661.4
563.002,28795.4
563.136,28917.9
563.271,28936.8
563.406,29190.3
563.54,29292.1
563.675,29405.9
563.81,29491.1
563.944,29612.3
564.079,29642.3
564.213,29740.2
564.348,29887.8
564.483,29946.7
564.617,30009.3
564.752,30168.3
564.887,30227.9
565.021,30359.3
565.156,30470.1
565.29,30453.4
565.425,30541.1
565.559,30596.4
565.694,30576.3
565.828,30743.5
565.963,30749.2
566.098,30730.2
566.232,30744.8
566.367,30733.3
566.501,30785.3
566.636,30747.0
566.77,30708.8
566.905,30754.7
567.039,30784.6
567.174,30814.5
567.308,30863.1
567.443,30944.8
567.577,31031.3
567.711,31103.6
567.846,31158.4
567.98,31228.3
568.115,31332.7
568.249,31367.6
568.384,31515.4
568.518,31633.3
568.652,31837.3
568.787,31909.9
568.921,32001.2
569.056,32224.3
569.19,32233.2
569.324,32380.7
569.459,32471.8
569.593,32588.7
569.727,32623.2
569.862,32652.3
569.996,32747.1
570.131,32770.6
570.265,32723.1
570.399,32839.6
570.534,32860.9
570.668,32903.9
570.802,32959.4
570.936,32962.6
571.071,33114.1
571.205,33165.6
571.339,33161.7
571.474,33223.7
571.608,33267.6
571.742,33229.7
571.876,33334.4
572.011,33429.1
572.145,33532.1
572.279,33589.6
572.413,33693.5
572.548,33817.6
572.682,33922.1
572.816,34021.6
572.95,34132.8
573.084,34198.6
573.219,34357.3
573.353,34408.4
573.487,34560.7
573.621,34561.9
573.755,34690.5
573.889,34683.9
574.024,34876.9
574.158,34814.6
574.292,34951.6
574.426,34981.6
574.56,35019.1
574.694,35015.4
574.828,35122.1
574.963,35111.9
575.097,35122.7
575.231,35230.3
575.365,35325.8
575.499,35377.1
575.633,35499.8
575.767,35466.6
575.901,35515.1
576.035,35610.0
576.169,35595.3
576.303,35721.1
576.437,35748.9
576.571,35820.3
576.706,35878.2
576.84,35949.9
576.974,36093.8
577.108,36140.3
577.242,36259.3
577.376,36346.0
577.51,36463.6
577.644,36581.9
577.778,36479.3
577.912,36520.2
578.046,36556.2
578.179,36507.9
578.313,36720.7
578.447,36745.2
578.581,36817.1
578.715,36998.6
578.849,36997.8
578.983,37064.9
579.117,36998.2
579.251,37198.8
579.385,37220.4
579.519,37329.8
579.653,37328.4
579.787,37358.5
579.921,37397.8
580.054,37360.6
580.188,37393.3
580.322,37511.5
580.456,37492.4
580.59,37531.3
580.724,37563.3
580.858,37561.9
580.991,37612.5
581.125,37655.3
581.259,37695.0
581.393,37841.1
581.527,37929.5
581.661,37988.9
581.794,38220.9
581.928,38385.9
582.062,38870.1
582.196,39289.7
582.33,39153.9
582.463,38663.6
582.597,38580.9
582.731,38521.3
582.865,38716.1
582.998,38744.7
583.132,38781.4
583.266,38841.4
583.4,38850.1
583.533,38938.6
583.667,39061.8
583.801,39097.8
583.935,39154.6
584.068,39178.7
584.202,39207.9
584.336,39223.1
584.469,39357.9
584.603,39294.6
584.737,39302.4
584.87,39354.6
585.004,39463.4
585.138,39523.9
585.271,39665.3
585.405,39677.0
585.539,39896.1
585.672,39994.4
585.806,40222.3
585.94,40353.4
586.073,40624.4
586.207,40672.7
586.34,40585.4
586.474,40611.9
586.608,40606.3
586.741,40637.4
586.875,40687.6
587.008,40722.4
587.142,40795.3
587.276,40720.4
587.409,40881.4
587.543,40847.7
587.676,40752.9
587.81,40742.2
587.943,40755.8
588.077,40793.6
588.21,40710.5
588.344,40799.4
588.478,40848.4
588.611,40720.6
588.745,40667.4
588.878,40748.2
589.012,40659.4
589.145,40595.8
589.279,40750.6
589.412,40681.6
589.546,40652.8
589.679,40797.4
589.812,40789.8
589.946,40836.8
590.079,40991.6
590.213,41083.6
590.346,41075.0
590.48,41169.8
590.613,41237.6
590.747,41279.8
590.88,41379.6
591.013,41430.8
591.147,41523.5
591.28,41545.6
591.414,41584.6
591.547,41636.4
591.68,41625.1
591.814,41644.7
591.947,41641.2
592.081,41646.0
592.214,41572.8
592.347,41645.4
592.481,41644.4
592.614,41568.2
592.747,41654.1
592.881,41544.9
593.014,41580.1
593.147,41528.0
593.281,41582.4
593.414,41582.8
593.547,41662.2
593.681,41779.6
593.814,41761.7
593.947,41768.4
594.081,41839.9
594.214,41835.3
594.347,42008.1
594.48,42029.1
594.614,42195.5
594.747,42183.3
594.88,42253.4
595.014,42281.5
595.147,42494.8
595.28,42493.6
595.413,42548.8
595.547,42624.2
595.68,42671.4
595.813,42709.9
595.946,42785.4
596.079,42751.8
596.213,42791.6
596.346,42700.9
596.479,42845.9
596.612,42972.8
596.745,42944.9
596.879,43053.8
597.012,43084.1
597.145,43175.6
597.278,43094.4
597.411,43150.7
597.545,43146.9
597.678,43225.9
597.811,43290.6
597.944,43490.1
598.077,43597.6
598.21,43704.6
598.343,43813.2
598.476,43749.1
598.61,43896.8
598.743,43946.9
598.876,43940.4
599.009,44105.4
599.142,44006.9
599.275,44025.1
599.408,44100.5
599.541,44069.9
599.674,44053.1
599.807,44036.6
599.941,43990.6
600.074,44020.8
600.207,43930.2
600.34,43921.3
600.473,43936.9
600.606,43757.1
600.739,43769.9
600.872,43696.4
601.005,43819.6
601.138,43728.2
601.271,43748.3
601.404,43738.8
601.537,43705.7
601.67,43725.4
601.803,43677.8
601.936,43674.1
602.069,43779.8
602.202,43886.3
602.335,43845.3
602.468,43993.0
602.601,44016.4
602.734,44075.2
602.867,44213.9
603.0,44129.1
603.133,44236.1
603.266,44210.3
603.399,44277.4
603.532,44296.6
603.664,44387.8
603.797,44315.4
603.93,44415.6
604.063,44277.9
604.196,44230.9
604.329,44273.7
604.462,44124.8
604.595,43964.2
604.728,43954.1
604.861,43832.6
604.994,43820.5
605.126,43582.9
605.259,43554.0
605.392,43404.4
605.525,43348.6
605.658,43199.3
605.791,43284.9
605.924,43190.4
606.056,43075.4
606.189,43099.8
606.322,43012.4
606.455,43017.3
606.588,43052.9
606.721,43125.2
606.853,43094.6
606.986,43238.0
607.119,43250.1
607.252,43323.6
607.385,43435.9
607.517,43435.6
607.65,43515.8
607.783,43628.4
607.916,43682.7
608.049,43835.9
608.181,43885.9
608.314,43916.8
608.447,43934.4
608.58,43977.3
608.712,44050.6
608.845,44081.1
608.978,44117.6
609.111,44118.1
609.243,44145.2
609.376,44129.1
609.509,43996.6
609.641,43996.8
609.774,43905.6
609.907,44000.0
610.04,43901.6
610.172,43958.3
610.305,43944.1
610.438,43916.4
610.57,43802.1
610.703,43881.7
610.836,43866.9
610.968,43794.4
611.101,43834.7
611.234,43770.6
611.366,44014.1
611.499,44044.8
611.632,44135.6
611.764,44209.5
611.897,44253.2
612.03,44343.4
612.162,44511.3
612.295,44702.6
612.428,44815.7
612.56,44929.1
612.693,45004.3
612.825,45092.6
612.958,45279.3
613.091,45376.3
613.223,45410.6
613.356,45512.0
613.488,45524.4
613.621,45592.3
613.754,45674.9
613.886,45653.6
614.019,45705.6
614.151,45658.9
614.284,45686.8
614.416,45661.2
614.549,45702.1
614.681,45661.0
614.814,45607.8
614.947,45595.3
615.079,45578.3
615.212,45473.1
615.344,45484.2
615.477,45457.4
615.609,45449.8
615.742,45403.1
615.874,45282.8
616.007,45406.4
616.139,45274.1
616.272,45359.5
616.404,45353.3
616.537,45332.0
616.669,45401.9
616.802,45600.6
616.934,45656.9
617.067,45584.1
617.199,45738.9
617.332,45710.8
617.464,45712.9
617.596,45706.9
617.729,45767.3
617.861,45843.1
617.994,45779.9
618.126,45843.2
618.259,45855.6
618.391,45898.5
618.524,45905.1
618.656,45904.8
618.788,45950.9
618.921,45828.2
619.053,45849.6
619.186,45759.8
619.318,45722.9
619.45,45753.4
619.583,45615.2
619.715,45727.9
619.848,45681.1
619.98,45626.9
620.112,45567.9
620.245,45561.3
620.377,45534.6
620.509,45482.4
620.642,45518.6
620.774,45377.2
620.907,45309.4
621.039,45451.4
621.171,45466.2
621.304,45536.1
621.436,45457.4
621.568,45467.9
621.701,45595.5
621.833,45464.3
621.965,45551.1
622.097,45551.9
622.23,45618.6
622.362,45676.9
622.494,45766.9
622.627,45797.2
622.759,45910.9
622.891,45920.7
623.024,46020.3
623.156,46023.6
623.288,46012.7
623.42,46132.2
623.553,46075.4
623.685,46163.6
623.817,46172.9
623.949,46117.1
624.082,46223.5
624.214,46213.9
624.346,46187.3
624.479,46195.4
624.611,46207.7
624.743,46253.0
624.875,46201.4
625.007,46163.2
625.14,46158.8
625.272,46088.1
625.404,45989.8
625.536,45981.8
625.669,45955.2
625.801,45997.8
625.933,45971.6
626.065,45941.3
626.197,45843.1
626.33,45742.8
626.462,45766.0
626.594,45848.1
626.726,45863.1
626.858,45792.8
626.99,45729.1
627.123,45717.1
627.255,45651.6
627.387,45668.3
627.519,45635.0
627.651,45609.8
627.783,45558.6
627.916,45554.6
628.048,45619.4
628.18,45664.8
628.312,45599.4
628.444,45655.1
628.576,45534.6
628.708,45603.6
628.84,45636.3
628.973,45724.9
629.105,45675.1
629.237,45672.6
629.369,45651.1
629.501,45709.6
629.633,45614.8
629.765,45725.6
629.897,45695.4
630.029,45641.5
630.161,45592.4
630.294,45691.8
630.426,45733.1
630.558,45685.2
630.69,45716.9
630.822,45638.4
630.954,45727.0
631.086,45695.1
631.218,45701.2
631.35,45752.0
631.482,45718.0
631.614,45678.6
631.746,45736.7
631.878,45701.8
632.01,45633.3
632.142,45563.4
632.274,45523.3
632.406,45432.3
632.538,45318.1
632.67,45320.8
632.802,45346.6
632.934,45212.1
633.066,45142.5
633.198,45173.4
633.33,45158.8
633.462,45081.9
633.594,45052.1
633.726,44965.3
633.858,44953.2
633.99,44902.8
634.122,44905.9
634.254,44805.4
634.386,44891.7
634.518,44827.4
634.65,44713.9
634.782,44654.8
634.914,44697.7
635.046,44757.4
635.178,44743.1
635.31,44749.1
635.442,44824.5
635.574,44868.5
635.706,44900.6
635.838,44976.3
635.97,45026.6
636.102,44855.0
636.234,44961.4
636.365,44979.5
636.497,44956.9
636.629,44957.3
636.761,45005.8
636.893,44963.7
637.025,44875.9
637.157,44679.2
637.289,44667.2
637.421,44574.4
637.553,44621.4
637.685,44627.1
637.816,44570.4
637.948,44549.4
638.08,44583.5
638.212,44413.7
638.344,44609.1
638.476,44481.7
638.608,44475.3
638.74,44415.4
638.871,44494.3
639.003,44439.9
639.135,44415.6
639.267,44368.0
639.399,44339.6
639.531,44282.1
639.662,44316.6
639.794,44286.8
639.926,44220.4
640.058,44253.7
640.19,44272.7
640.322,44242.3
640.453,44106.6
640.585,44169.9
640.717,44156.9
640.849,44132.1
640.981,44064.5
641.113,44157.7
641.244,44037.0
641.376,44111.6
641.508,44018.9
641.64,44018.7
641.772,43909.7
641.903,43893.6
642.035,43940.1
642.167,43917.0
642.299,43775.9
642.43,43662.6
642.562,43616.2
642.694,43595.8
642.826,43502.8
642.958,43395.0
643.089,43240.6
643.221,43118.9
643.353,43020.1
643.485,42935.9
643.616,42800.6
643.748,42778.4
643.88,42643.1
644.012,42524.9
644.143,42493.9
644.275,42492.9
644.407,42417.6
644.538,42433.4
644.67,42303.9
644.802,42233.4
644.934,42212.8
645.065,42158.3
645.197,42204.6
645.329,42008.1
645.461,42069.4
645.592,42023.4
645.724,42061.4
645.856,42035.6
645.987,41895.3
646.119,41903.9
646.251,41927.9
646.382,41941.9
646.514,41919.8
646.646,41940.1
646.777,42059.6
646.909,41866.6
647.041,41929.1
647.172,41996.7
647.304,41925.6
647.436,41957.8
647.567,42015.8
647.699,41842.1
647.831,41806.1
647.962,41794.1
648.094,41734.2
648.226,41612.8
648.357,41592.3
648.489,41480.9
648.621,41398.9
648.752,41335.8
648.884,41432.6
649.016,41243.1
649.147,41210.1
649.279,41106.9
649.411,41058.5
649.542,41054.3
649.674,41014.9
649.805,40897.2
649.937,40888.1
650.069,40842.4
650.2,40747.1
650.332,40665.1
650.463,40598.3
650.595,40550.9
650.727,40428.0
650.858,40426.4
650.99,40424.1
651.121,40413.9
651.253,40404.1
651.385,40477.9
651.516,40474.1
651.648,40458.5
651.779,40416.4
651.911,40452.7
652.043,40414.6
652.174,40455.0
652.306,40476.1
652.437,40361.5
652.569,40322.4
652.7,40357.4
652.832,40380.4
652.963,40300.9
653.095,40303.3
653.227,40296.6
653.358,40310.7
653.49,40197.9
653.621,40325.4
653.753,40255.9
653.884,40236.1
654.016,40212.2
654.147,40206.3
654.279,40100.5
654.41,40005.2
654.542,39955.4
654.674,39928.5
654.805,39877.6
654.937,39844.7
655.068,39758.1
655.2,39755.1
655.331,39732.1
655.463,39752.8
655.594,39782.3
655.726,39692.6
655.857,39676.9
655.989,39572.6
656.12,39486.6
656.252,39494.1
656.383,39460.6
656.515,39464.7
656.646,39465.5
656.778,39554.2
656.909,39570.2
657.041,39548.6
657.172,39524.8
657.304,39473.9
657.435,39415.3
657.567,39469.5
657.698,39380.7
657.829,39347.3
657.961,39353.8
658.092,39472.3
658.224,39352.1
658.355,39468.9
658.487,39438.1
658.618,39401.9
658.75,39262.5
658.881,39319.6
659.013,39181.8
659.144,39310.0
659.275,39485.6
659.407,39478.9
659.538,39249.4
659.67,39007.1
659.801,39143.1
659.933,39257.4
660.064,39144.5
660.196,39021.1
660.327,38875.6
660.458,38875.8
660.59,38907.0
660.721,38856.9
660.853,38545.4
660.984,38469.9
661.116,38523.1
661.247,38503.2
661.378,38432.4
661.51,38283.5
661.641,38179.3
661.773,38350.1
661.904,38313.8
662.035,38166.8
662.167,37964.8
662.298,37900.1
662.43,37872.4
662.561,37972.5
662.692,37983.9
662.824,37906.8
662.955,37745.8
663.087,37736.5
