cm-1,A
4000.0,0.0226
3999.0,0.0226
3998.0,0.0225
3997.0,0.0225
3996.0,0.0224
3995.0,0.0225
3994.0,0.0225
3993.0,0.0226
3992.0,0.0226
3991.0,0.0226
3990.0,0.0225
3989.0,0.0225
3988.0,0.0225
3987.0,0.0225
3986.0,0.0225
3985.0,0.0225
3984.0,0.0226
3983.0,0.0226
3982.0,0.0226
3981.0,0.0226
3980.0,0.0225
3979.0,0.0224
3978.0,0.0224
3977.0,0.0225
3976.0,0.0226
3975.0,0.0227
3974.0,0.0227
3973.0,0.0228
3972.0,0.0228
3971.0,0.0228
3970.0,0.0228
3969.0,0.0227
3968.0,0.0226
3967.0,0.0225
3966.0,0.0225
3965.0,0.0225
3964.0,0.0225
3963.0,0.0226
3962.0,0.0226
3961.0,0.0227
3960.0,0.0227
3959.0,0.0227
3958.0,0.0228
3957.0,0.0228
3956.0,0.0227
3955.0,0.0227
3954.0,0.0227
3953.0,0.0226
3952.0,0.0226
3951.0,0.0226
3950.0,0.0225
3949.0,0.0225
3948.0,0.0225
3947.0,0.0226
3946.0,0.0227
3945.0,0.0227
3944.0,0.0228
3943.0,0.0228
3942.0,0.0228
3941.0,0.0228
3940.0,0.0228
3939.0,0.0229
3938.0,0.023
3937.0,0.0231
3936.0,0.0231
3935.0,0.0231
3934.0,0.0231
3933.0,0.023
3932.0,0.0229
3931.0,0.0229
3930.0,0.0229
3929.0,0.0229
3928.0,0.0228
3927.0,0.0228
3926.0,0.0228
3925.0,0.0228
3924.0,0.0229
3923.0,0.023
3922.0,0.0231
3921.0,0.023
3920.0,0.023
3919.0,0.023
3918.0,0.0231
3917.0,0.0231
3916.0,0.0231
3915.0,0.023
3914.0,0.0229
3913.0,0.0229
3912.0,0.0229
3911.0,0.0229
3910.0,0.0229
3909.0,0.0228
3908.0,0.0228
3907.0,0.0228
3906.0,0.0228
3905.0,0.0229
3904.0,0.023
3903.0,0.0231
3902.0,0.0232
3901.0,0.0233
3900.0,0.0233
3899.0,0.0233
3898.0,0.0233
3897.0,0.0232
3896.0,0.0232
3895.0,0.0231
3894.0,0.0232
3893.0,0.0232
3892.0,0.0232
3891.0,0.0232
3890.0,0.0231
3889.0,0.0232
3888.0,0.0232
3887.0,0.0232
3886.0,0.0233
3885.0,0.0233
3884.0,0.0233
3883.0,0.0232
3882.0,0.0231
3881.0,0.0229
3880.0,0.0229
3879.0,0.023
3878.0,0.0232
3877.0,0.0232
3876.0,0.0232
3875.0,0.0232
3874.0,0.0232
3873.0,0.0233
3872.0,0.0234
3871.0,0.0234
3870.0,0.0235
3869.0,0.0236
3868.0,0.0237
3867.0,0.0237
3866.0,0.0236
3865.0,0.0236
3864.0,0.0235
3863.0,0.0235
3862.0,0.0235
3861.0,0.0235
3860.0,0.0235
3859.0,0.0236
3858.0,0.0237
3857.0,0.0237
3856.0,0.0238
3855.0,0.0238
3854.0,0.0238
3853.0,0.0238
3852.0,0.0238
3851.0,0.0238
3850.0,0.0237
3849.0,0.0236
3848.0,0.0236
3847.0,0.0236
3846.0,0.0236
3845.0,0.0235
3844.0,0.0235
3843.0,0.0235
3842.0,0.0235
3841.0,0.0237
3840.0,0.0238
3839.0,0.0238
3838.0,0.0238
3837.0,0.0237
3836.0,0.0236
3835.0,0.0235
3834.0,0.0235
3833.0,0.0235
3832.0,0.0235
3831.0,0.0236
3830.0,0.0236
3829.0,0.0236
3828.0,0.0236
3827.0,0.0236
3826.0,0.0236
3825.0,0.0237
3824.0,0.0237
3823.0,0.0237
3822.0,0.0237
3821.0,0.0238
3820.0,0.0239
3819.0,0.0239
3818.0,0.0237
3817.0,0.0236
3816.0,0.0235
3815.0,0.0235
3814.0,0.0236
3813.0,0.0236
3812.0,0.0237
3811.0,0.0237
3810.0,0.0239
3809.0,0.024
3808.0,0.024
3807.0,0.0239
3806.0,0.0239
3805.0,0.0238
3804.0,0.0239
3803.0,0.0239
3802.0,0.024
3801.0,0.024
3800.0,0.0239
3799.0,0.0239
3798.0,0.0238
3797.0,0.0238
3796.0,0.0238
3795.0,0.0239
3794.0,0.0239
3793.0,0.0238
3792.0,0.0237
3791.0,0.0237
3790.0,0.0237
3789.0,0.0237
3788.0,0.0237
3787.0,0.0238
3786.0,0.0238
3785.0,0.0239
3784.0,0.0239
3783.0,0.0239
3782.0,0.0238
3781.0,0.0237
3780.0,0.0236
3779.0,0.0236
3778.0,0.0236
3777.0,0.0237
3776.0,0.0237
3775.0,0.0238
3774.0,0.0238
3773.0,0.0238
3772.0,0.0238
3771.0,0.0237
3770.0,0.0237
3769.0,0.0237
3768.0,0.0237
3767.0,0.0238
3766.0,0.0238
3765.0,0.0238
3764.0,0.0238
3763.0,0.0237
3762.0,0.0236
3761.0,0.0235
3760.0,0.0236
3759.0,0.0236
3758.0,0.0238
3757.0,0.0239
3756.0,0.024
3755.0,0.0241
3754.0,0.0242
3753.0,0.0243
3752.0,0.0244
3751.0,0.0245
3750.0,0.0244
3749.0,0.0243
3748.0,0.0241
3747.0,0.024
3746.0,0.0239
3745.0,0.0239
3744.0,0.0241
3743.0,0.0243
3742.0,0.0245
3741.0,0.0244
3740.0,0.0244
3739.0,0.0243
3738.0,0.0243
3737.0,0.0244
3736.0,0.0246
3735.0,0.0248
3734.0,0.0249
3733.0,0.025
3732.0,0.025
3731.0,0.025
3730.0,0.0251
3729.0,0.0251
3728.0,0.025
3727.0,0.025
3726.0,0.0249
3725.0,0.0247
3724.0,0.0245
3723.0,0.0244
3722.0,0.0242
3721.0,0.024
3720.0,0.0239
3719.0,0.0237
3718.0,0.0236
3717.0,0.0234
3716.0,0.0233
3715.0,0.0233
3714.0,0.0234
3713.0,0.0236
3712.0,0.0238
3711.0,0.0239
3710.0,0.0238
3709.0,0.0236
3708.0,0.0235
3707.0,0.0233
3706.0,0.0232
3705.0,0.0229
3704.0,0.0227
3703.0,0.0225
3702.0,0.0225
3701.0,0.0224
3700.0,0.0225
3699.0,0.0225
3698.0,0.0224
3697.0,0.0224
3696.0,0.0223
3695.0,0.0224
3694.0,0.0223
3693.0,0.0223
3692.0,0.0221
3691.0,0.0219
3690.0,0.0216
3689.0,0.0214
3688.0,0.0212
3687.0,0.0212
3686.0,0.0211
3685.0,0.0209
3684.0,0.0208
3683.0,0.0206
3682.0,0.0205
3681.0,0.0203
3680.0,0.0201
3679.0,0.0199
3678.0,0.0197
3677.0,0.0194
3676.0,0.0191
3675.0,0.0188
3674.0,0.0187
3673.0,0.0186
3672.0,0.0184
3671.0,0.0181
3670.0,0.0177
3669.0,0.0174
3668.0,0.0172
3667.0,0.017
3666.0,0.0168
3665.0,0.0166
3664.0,0.0163
3663.0,0.016
3662.0,0.0157
3661.0,0.0155
3660.0,0.0153
3659.0,0.0151
3658.0,0.0148
3657.0,0.0144
3656.0,0.014
3655.0,0.0137
3654.0,0.0134
3653.0,0.0131
3652.0,0.0128
3651.0,0.0124
3650.0,0.0119
3649.0,0.0113
3648.0,0.0107
3647.0,0.0102
3646.0,0.01
3645.0,0.0098
3644.0,0.0096
3643.0,0.0093
3642.0,0.009
3641.0,0.0086
3640.0,0.0082
3639.0,0.0078
3638.0,0.0074
3637.0,0.0069
3636.0,0.0065
3635.0,0.0061
3634.0,0.0058
3633.0,0.0056
3632.0,0.0054
3631.0,0.0051
3630.0,0.0045
3629.0,0.0038
3628.0,0.0031
3627.0,0.0026
3626.0,0.0022
3625.0,0.0017
3624.0,0.0012
3623.0,0.0007
3622.0,0.0003
3621.0,-0.0003
3620.0,-0.001
3619.0,-0.0018
3618.0,-0.0025
3617.0,-0.003
3616.0,-0.0035
3615.0,-0.0041
3614.0,-0.0047
3613.0,-0.0053
3612.0,-0.0057
3611.0,-0.006
3610.0,-0.0064
3609.0,-0.0069
3608.0,-0.0075
3607.0,-0.008
3606.0,-0.0084
3605.0,-0.0087
3604.0,-0.0089
3603.0,-0.0093
3602.0,-0.0097
3601.0,-0.0103
3600.0,-0.011
3599.0,-0.0115
3598.0,-0.012
3597.0,-0.0124
3596.0,-0.0128
3595.0,-0.0134
3594.0,-0.014
3593.0,-0.0146
3592.0,-0.015
3591.0,-0.0153
3590.0,-0.0156
3589.0,-0.0162
3588.0,-0.0171
3587.0,-0.018
3586.0,-0.0186
3585.0,-0.019
3584.0,-0.0193
3583.0,-0.0195
3582.0,-0.02
3581.0,-0.0205
3580.0,-0.0211
3579.0,-0.0217
3578.0,-0.0223
3577.0,-0.0229
3576.0,-0.0234
3575.0,-0.024
3574.0,-0.0245
3573.0,-0.025
3572.0,-0.0254
3571.0,-0.0257
3570.0,-0.026
3569.0,-0.0263
3568.0,-0.027
3567.0,-0.0281
3566.0,-0.029
3565.0,-0.0296
3564.0,-0.0299
3563.0,-0.0302
3562.0,-0.0305
3561.0,-0.0311
3560.0,-0.0317
3559.0,-0.0323
3558.0,-0.0328
3557.0,-0.0333
3556.0,-0.0336
3555.0,-0.034
3554.0,-0.0344
3553.0,-0.0349
3552.0,-0.0354
3551.0,-0.0359
3550.0,-0.0364
3549.0,-0.0368
3548.0,-0.0374
3547.0,-0.038
3546.0,-0.0386
3545.0,-0.0393
3544.0,-0.0398
3543.0,-0.0403
3542.0,-0.0408
3541.0,-0.0413
3540.0,-0.0417
3539.0,-0.0422
3538.0,-0.0427
3537.0,-0.0433
3536.0,-0.0439
3535.0,-0.0445
3534.0,-0.0451
3533.0,-0.0456
3532.0,-0.0461
3531.0,-0.0467
3530.0,-0.0473
3529.0,-0.0479
3528.0,-0.0484
3527.0,-0.0489
3526.0,-0.0494
3525.0,-0.0501
3524.0,-0.0508
3523.0,-0.0515
3522.0,-0.0521
3521.0,-0.0527
3520.0,-0.0532
3519.0,-0.0538
3518.0,-0.0544
3517.0,-0.055
3516.0,-0.0556
3515.0,-0.0562
3514.0,-0.0567
3513.0,-0.0573
3512.0,-0.0578
3511.0,-0.0584
3510.0,-0.0591
3509.0,-0.0597
3508.0,-0.0603
3507.0,-0.0608
3506.0,-0.0612
3505.0,-0.0619
3504.0,-0.0627
3503.0,-0.0636
3502.0,-0.0645
3501.0,-0.0652
3500.0,-0.0657
3499.0,-0.0661
3498.0,-0.0665
3497.0,-0.067
3496.0,-0.0677
3495.0,-0.0685
3494.0,-0.0692
3493.0,-0.0699
3492.0,-0.0706
3491.0,-0.0712
3490.0,-0.0718
3489.0,-0.0725
3488.0,-0.0732
3487.0,-0.0739
3486.0,-0.0746
3485.0,-0.0752
3484.0,-0.0757
3483.0,-0.0763
3482.0,-0.077
3481.0,-0.0777
3480.0,-0.0785
3479.0,-0.0792
3478.0,-0.0798
3477.0,-0.0805
3476.0,-0.0812
3475.0,-0.0819
3474.0,-0.0826
3473.0,-0.0833
3472.0,-0.0841
3471.0,-0.0848
3470.0,-0.0856
3469.0,-0.0865
3468.0,-0.0873
3467.0,-0.0881
3466.0,-0.0888
3465.0,-0.0894
3464.0,-0.09
3463.0,-0.0907
3462.0,-0.0914
3461.0,-0.0922
3460.0,-0.093
3459.0,-0.0938
3458.0,-0.0945
3457.0,-0.0952
3456.0,-0.096
3455.0,-0.0968
3454.0,-0.0976
3453.0,-0.0983
3452.0,-0.0991
3451.0,-0.0997
3450.0,-0.1003
3449.0,-0.1011
3448.0,-0.102
3447.0,-0.103
3446.0,-0.104
3445.0,-0.1049
3444.0,-0.1057
3443.0,-0.1064
3442.0,-0.1071
3441.0,-0.1079
3440.0,-0.1087
3439.0,-0.1097
3438.0,-0.1105
3437.0,-0.1114
3436.0,-0.1121
3435.0,-0.1128
3434.0,-0.1135
3433.0,-0.1143
3432.0,-0.1153
3431.0,-0.1163
3430.0,-0.1172
3429.0,-0.1181
3428.0,-0.1189
3427.0,-0.1196
3426.0,-0.1203
3425.0,-0.121
3424.0,-0.1217
3423.0,-0.1224
3422.0,-0.1233
3421.0,-0.1243
3420.0,-0.1253
3419.0,-0.1263
3418.0,-0.1272
3417.0,-0.1281
3416.0,-0.1289
3415.0,-0.1297
3414.0,-0.1305
3413.0,-0.1314
3412.0,-0.1324
3411.0,-0.1334
3410.0,-0.1343
3409.0,-0.1351
3408.0,-0.1358
3407.0,-0.1365
3406.0,-0.1374
3405.0,-0.1383
3404.0,-0.1393
3403.0,-0.1403
3402.0,-0.1412
3401.0,-0.142
3400.0,-0.1428
3399.0,-0.1435
3398.0,-0.1443
3397.0,-0.145
3396.0,-0.1458
3395.0,-0.1467
3394.0,-0.1476
3393.0,-0.1486
3392.0,-0.1497
3391.0,-0.1506
3390.0,-0.1513
3389.0,-0.1519
3388.0,-0.1525
3387.0,-0.1532
3386.0,-0.154
3385.0,-0.1549
3384.0,-0.1557
3383.0,-0.1566
3382.0,-0.1574
3381.0,-0.1582
3380.0,-0.159
3379.0,-0.1597
3378.0,-0.1604
3377.0,-0.161
3376.0,-0.1617
3375.0,-0.1624
3374.0,-0.1632
3373.0,-0.1639
3372.0,-0.1647
3371.0,-0.1654
3370.0,-0.166
3369.0,-0.1667
3368.0,-0.1674
3367.0,-0.1682
3366.0,-0.169
3365.0,-0.1697
3364.0,-0.1703
3363.0,-0.1708
3362.0,-0.1713
3361.0,-0.1719
3360.0,-0.1724
3359.0,-0.1729
3358.0,-0.1735
3357.0,-0.1741
3356.0,-0.1748
3355.0,-0.1754
3354.0,-0.176
3353.0,-0.1764
3352.0,-0.1769
3351.0,-0.1774
3350.0,-0.1779
3349.0,-0.1783
3348.0,-0.1786
3347.0,-0.1789
3346.0,-0.1792
3345.0,-0.1795
3344.0,-0.1798
3343.0,-0.1803
3342.0,-0.1807
3341.0,-0.1812
3340.0,-0.1816
3339.0,-0.182
3338.0,-0.1823
3337.0,-0.1826
3336.0,-0.1829
3335.0,-0.1832
3334.0,-0.1833
3333.0,-0.1834
3332.0,-0.1834
3331.0,-0.1835
3330.0,-0.1837
3329.0,-0.184
3328.0,-0.1843
3327.0,-0.1846
3326.0,-0.1849
3325.0,-0.1852
3324.0,-0.1854
3323.0,-0.1854
3322.0,-0.1853
3321.0,-0.1852
3320.0,-0.1852
3319.0,-0.1854
3318.0,-0.1857
3317.0,-0.186
3316.0,-0.1861
3315.0,-0.186
3314.0,-0.1858
3313.0,-0.1857
3312.0,-0.1856
3311.0,-0.1855
3310.0,-0.1855
3309.0,-0.1855
3308.0,-0.1855
3307.0,-0.1855
3306.0,-0.1855
3305.0,-0.1855
3304.0,-0.1854
3303.0,-0.1853
3302.0,-0.1852
3301.0,-0.1852
3300.0,-0.1851
3299.0,-0.1851
3298.0,-0.185
3297.0,-0.185
3296.0,-0.1849
3295.0,-0.1848
3294.0,-0.1846
3293.0,-0.1845
3292.0,-0.1844
3291.0,-0.1844
3290.0,-0.1843
3289.0,-0.1843
3288.0,-0.1843
3287.0,-0.1842
3286.0,-0.1842
3285.0,-0.1842
3284.0,-0.1841
3283.0,-0.1841
3282.0,-0.184
3281.0,-0.1838
3280.0,-0.1838
3279.0,-0.1837
3278.0,-0.1837
3277.0,-0.1837
3276.0,-0.1837
3275.0,-0.1836
3274.0,-0.1835
3273.0,-0.1834
3272.0,-0.1834
3271.0,-0.1834
3270.0,-0.1833
3269.0,-0.1833
3268.0,-0.1833
3267.0,-0.1833
3266.0,-0.1834
3265.0,-0.1835
3264.0,-0.1836
3263.0,-0.1836
3262.0,-0.1837
3261.0,-0.1837
3260.0,-0.1837
3259.0,-0.1836
3258.0,-0.1836
3257.0,-0.1836
3256.0,-0.1836
3255.0,-0.1837
3254.0,-0.1838
3253.0,-0.1838
3252.0,-0.1838
3251.0,-0.1838
3250.0,-0.1838
3249.0,-0.1838
3248.0,-0.1838
3247.0,-0.1838
3246.0,-0.1838
3245.0,-0.1837
3244.0,-0.1837
3243.0,-0.1839
3242.0,-0.184
3241.0,-0.1842
3240.0,-0.1843
3239.0,-0.1842
3238.0,-0.1841
3237.0,-0.184
3236.0,-0.1839
3235.0,-0.1838
3234.0,-0.1837
3233.0,-0.1837
3232.0,-0.1836
3231.0,-0.1835
3230.0,-0.1834
3229.0,-0.1833
3228.0,-0.1832
3227.0,-0.1831
3226.0,-0.183
3225.0,-0.1828
3224.0,-0.1825
3223.0,-0.1823
3222.0,-0.182
3221.0,-0.1819
3220.0,-0.1818
3219.0,-0.1818
3218.0,-0.1817
3217.0,-0.1814
3216.0,-0.1811
3215.0,-0.1807
3214.0,-0.1804
3213.0,-0.1801
3212.0,-0.1798
3211.0,-0.1794
3210.0,-0.1791
3209.0,-0.1787
3208.0,-0.1783
3207.0,-0.178
3206.0,-0.1777
3205.0,-0.1773
3204.0,-0.1769
3203.0,-0.1763
3202.0,-0.1758
3201.0,-0.1753
3200.0,-0.1748
3199.0,-0.1744
3198.0,-0.174
3197.0,-0.1736
3196.0,-0.1733
3195.0,-0.1729
3194.0,-0.1725
3193.0,-0.1719
3192.0,-0.1714
3191.0,-0.1707
3190.0,-0.1702
3189.0,-0.1696
3188.0,-0.1691
3187.0,-0.1686
3186.0,-0.168
3185.0,-0.1674
3184.0,-0.1669
3183.0,-0.1663
3182.0,-0.1658
3181.0,-0.1652
3180.0,-0.1646
3179.0,-0.1641
3178.0,-0.1635
3177.0,-0.1629
3176.0,-0.1623
3175.0,-0.1616
3174.0,-0.161
3173.0,-0.1604
3172.0,-0.1598
3171.0,-0.1591
3170.0,-0.1585
3169.0,-0.1579
3168.0,-0.1572
3167.0,-0.1565
3166.0,-0.1558
3165.0,-0.1551
3164.0,-0.1545
3163.0,-0.1539
3162.0,-0.1533
3161.0,-0.1527
3160.0,-0.152
3159.0,-0.1513
3158.0,-0.1506
3157.0,-0.15
3156.0,-0.1493
3155.0,-0.1487
3154.0,-0.1481
3153.0,-0.1474
3152.0,-0.1468
3151.0,-0.1461
3150.0,-0.1453
3149.0,-0.1445
3148.0,-0.1438
3147.0,-0.1432
3146.0,-0.1426
3145.0,-0.1421
3144.0,-0.1414
3143.0,-0.1406
3142.0,-0.1398
3141.0,-0.139
3140.0,-0.1383
3139.0,-0.1377
3138.0,-0.137
3137.0,-0.1362
3136.0,-0.1354
3135.0,-0.1347
3134.0,-0.134
3133.0,-0.1334
3132.0,-0.1328
3131.0,-0.1322
3130.0,-0.1315
3129.0,-0.1308
3128.0,-0.1301
3127.0,-0.1294
3126.0,-0.1288
3125.0,-0.1281
3124.0,-0.1275
3123.0,-0.1268
3122.0,-0.1261
3121.0,-0.1254
3120.0,-0.1247
3119.0,-0.1239
3118.0,-0.1232
3117.0,-0.1225
3116.0,-0.1218
3115.0,-0.1211
3114.0,-0.1204
3113.0,-0.1197
3112.0,-0.119
3111.0,-0.1183
3110.0,-0.1177
3109.0,-0.117
3108.0,-0.1162
3107.0,-0.1155
3106.0,-0.1148
3105.0,-0.1141
3104.0,-0.1134
3103.0,-0.1127
3102.0,-0.1121
3101.0,-0.1115
3100.0,-0.1109
3099.0,-0.1102
3098.0,-0.1094
3097.0,-0.1086
3096.0,-0.1079
3095.0,-0.1073
3094.0,-0.1067
3093.0,-0.1062
3092.0,-0.1055
3091.0,-0.1049
3090.0,-0.1042
3089.0,-0.1034
3088.0,-0.1027
3087.0,-0.102
3086.0,-0.1014
3085.0,-0.1007
3084.0,-0.1
3083.0,-0.0994
3082.0,-0.0987
3081.0,-0.098
3080.0,-0.0973
3079.0,-0.0968
3078.0,-0.0962
3077.0,-0.0955
3076.0,-0.0949
3075.0,-0.0942
3074.0,-0.0935
3073.0,-0.093
3072.0,-0.0924
3071.0,-0.0917
3070.0,-0.091
3069.0,-0.0902
3068.0,-0.0894
3067.0,-0.0888
3066.0,-0.0882
3065.0,-0.0876
3064.0,-0.087
3063.0,-0.0864
3062.0,-0.0858
3061.0,-0.0853
3060.0,-0.0847
3059.0,-0.0841
3058.0,-0.0834
3057.0,-0.0828
3056.0,-0.0821
3055.0,-0.0815
3054.0,-0.0809
3053.0,-0.0803
3052.0,-0.0798
3051.0,-0.0792
3050.0,-0.0786
3049.0,-0.078
3048.0,-0.0774
3047.0,-0.0768
3046.0,-0.0763
3045.0,-0.0758
3044.0,-0.0752
3043.0,-0.0747
3042.0,-0.0741
3041.0,-0.0735
3040.0,-0.0729
3039.0,-0.0723
3038.0,-0.0718
3037.0,-0.0712
3036.0,-0.0706
3035.0,-0.07
3034.0,-0.0694
3033.0,-0.0688
3032.0,-0.0682
3031.0,-0.0677
3030.0,-0.0672
3029.0,-0.0667
3028.0,-0.0662
3027.0,-0.0657
3026.0,-0.0651
3025.0,-0.0645
3024.0,-0.0639
3023.0,-0.0634
3022.0,-0.0628
3021.0,-0.0623
3020.0,-0.0618
3019.0,-0.0613
3018.0,-0.0607
3017.0,-0.0602
3016.0,-0.0597
3015.0,-0.0592
3014.0,-0.0587
3013.0,-0.0583
3012.0,-0.0578
3011.0,-0.0573
3010.0,-0.0568
3009.0,-0.0562
3008.0,-0.0557
3007.0,-0.0551
3006.0,-0.0547
3005.0,-0.0543
3004.0,-0.0539
3003.0,-0.0534
3002.0,-0.053
3001.0,-0.0525
3000.0,-0.0521
2999.0,-0.0516
2998.0,-0.0512
2997.0,-0.0507
2996.0,-0.0502
2995.0,-0.0496
2994.0,-0.0491
2993.0,-0.0486
2992.0,-0.0481
2991.0,-0.0476
2990.0,-0.0472
2989.0,-0.0467
2988.0,-0.0464
2987.0,-0.046
2986.0,-0.0456
2985.0,-0.0451
2984.0,-0.0446
2983.0,-0.0442
2982.0,-0.0438
2981.0,-0.0434
2980.0,-0.043
2979.0,-0.0425
2978.0,-0.042
2977.0,-0.0415
2976.0,-0.041
2975.0,-0.0405
2974.0,-0.0401
2973.0,-0.0397
2972.0,-0.0394
2971.0,-0.0389
2970.0,-0.0385
2969.0,-0.0381
2968.0,-0.0377
2967.0,-0.0373
2966.0,-0.0369
2965.0,-0.0366
2964.0,-0.0362
2963.0,-0.0358
2962.0,-0.0354
2961.0,-0.0349
2960.0,-0.0345
2959.0,-0.034
2958.0,-0.0336
2957.0,-0.0332
2956.0,-0.0328
2955.0,-0.0325
2954.0,-0.0321
2953.0,-0.0317
2952.0,-0.0313
2951.0,-0.0309
2950.0,-0.0304
2949.0,-0.03
2948.0,-0.0296
2947.0,-0.0292
2946.0,-0.0288
2945.0,-0.0285
2944.0,-0.0282
2943.0,-0.0279
2942.0,-0.0275
2941.0,-0.0271
2940.0,-0.0267
2939.0,-0.0264
2938.0,-0.026
2937.0,-0.0256
2936.0,-0.0252
2935.0,-0.0249
2934.0,-0.0246
2933.0,-0.0242
2932.0,-0.024
2931.0,-0.0237
2930.0,-0.0234
2929.0,-0.0232
2928.0,-0.0229
2927.0,-0.0227
2926.0,-0.0224
2925.0,-0.022
2924.0,-0.0217
2923.0,-0.0214
2922.0,-0.0212
2921.0,-0.0209
2920.0,-0.0207
2919.0,-0.0204
2918.0,-0.0201
2917.0,-0.0198
2916.0,-0.0195
2915.0,-0.0191
2914.0,-0.0188
2913.0,-0.0184
2912.0,-0.0182
2911.0,-0.0179
2910.0,-0.0176
2909.0,-0.0173
2908.0,-0.017
2907.0,-0.0167
2906.0,-0.0164
2905.0,-0.0161
2904.0,-0.0158
2903.0,-0.0155
2902.0,-0.0152
2901.0,-0.015
2900.0,-0.0148
2899.0,-0.0146
2898.0,-0.0145
2897.0,-0.0143
2896.0,-0.0141
2895.0,-0.0138
2894.0,-0.0135
2893.0,-0.0133
2892.0,-0.0131
2891.0,-0.0128
2890.0,-0.0126
2889.0,-0.0124
2888.0,-0.0122
2887.0,-0.012
2886.0,-0.0119
2885.0,-0.0117
2884.0,-0.0115
2883.0,-0.0113
2882.0,-0.011
2881.0,-0.0108
2880.0,-0.0105
2879.0,-0.0103
2878.0,-0.0102
2877.0,-0.01
2876.0,-0.0098
2875.0,-0.0096
2874.0,-0.0094
2873.0,-0.0092
2872.0,-0.009
2871.0,-0.0088
2870.0,-0.0085
2869.0,-0.0082
2868.0,-0.0079
2867.0,-0.0077
2866.0,-0.0075
2865.0,-0.0073
2864.0,-0.0071
2863.0,-0.0068
2862.0,-0.0066
2861.0,-0.0063
2860.0,-0.006
2859.0,-0.0058
2858.0,-0.0056
2857.0,-0.0054
2856.0,-0.0052
2855.0,-0.005
2854.0,-0.0048
2853.0,-0.0045
2852.0,-0.0043
2851.0,-0.0041
2850.0,-0.0038
2849.0,-0.0036
2848.0,-0.0034
2847.0,-0.0031
2846.0,-0.0028
2845.0,-0.0026
2844.0,-0.0024
2843.0,-0.0021
2842.0,-0.0019
2841.0,-0.0017
2840.0,-0.0016
2839.0,-0.0014
2838.0,-0.0012
2837.0,-0.0009
2836.0,-0.0007
2835.0,-0.0004
2834.0,-0.0002
2833.0,0.0001
2832.0,0.0003
2831.0,0.0005
2830.0,0.0007
2829.0,0.0008
2828.0,0.001
2827.0,0.0011
2826.0,0.0013
2825.0,0.0015
2824.0,0.0016
2823.0,0.0018
2822.0,0.0019
2821.0,0.0021
2820.0,0.0023
2819.0,0.0025
2818.0,0.0027
2817.0,0.0029
2816.0,0.003
2815.0,0.0032
2814.0,0.0034
2813.0,0.0035
2812.0,0.0037
2811.0,0.0038
2810.0,0.0041
2809.0,0.0043
2808.0,0.0044
2807.0,0.0045
2806.0,0.0047
2805.0,0.0048
2804.0,0.005
2803.0,0.0051
2802.0,0.0053
2801.0,0.0054
2800.0,0.0055
2799.0,0.0055
2798.0,0.0056
2797.0,0.0057
2796.0,0.0058
2795.0,0.0059
2794.0,0.006
2793.0,0.0062
2792.0,0.0063
2791.0,0.0064
2790.0,0.0066
2789.0,0.0067
2788.0,0.0069
2787.0,0.0071
2786.0,0.0072
2785.0,0.0072
2784.0,0.0073
2783.0,0.0073
2782.0,0.0074
2781.0,0.0076
2780.0,0.0077
2779.0,0.0079
2778.0,0.0081
2777.0,0.0082
2776.0,0.0083
2775.0,0.0084
2774.0,0.0085
2773.0,0.0086
2772.0,0.0087
2771.0,0.0087
2770.0,0.0088
2769.0,0.0089
2768.0,0.0089
2767.0,0.009
2766.0,0.0091
2765.0,0.0092
2764.0,0.0093
2763.0,0.0094
2762.0,0.0094
2761.0,0.0095
2760.0,0.0096
2759.0,0.0098
2758.0,0.0099
2757.0,0.0101
2756.0,0.0102
2755.0,0.0103
2754.0,0.0105
2753.0,0.0106
2752.0,0.0107
2751.0,0.0108
2750.0,0.0109
2749.0,0.011
2748.0,0.011
2747.0,0.0112
2746.0,0.0113
2745.0,0.0114
2744.0,0.0114
2743.0,0.0115
2742.0,0.0115
2741.0,0.0116
2740.0,0.0117
2739.0,0.0119
2738.0,0.012
2737.0,0.0121
2736.0,0.0122
2735.0,0.0122
2734.0,0.0123
2733.0,0.0124
2732.0,0.0125
2731.0,0.0126
2730.0,0.0126
2729.0,0.0126
2728.0,0.0127
2727.0,0.0128
2726.0,0.0129
2725.0,0.013
2724.0,0.0132
2723.0,0.0133
2722.0,0.0133
2721.0,0.0134
2720.0,0.0134
2719.0,0.0135
2718.0,0.0136
2717.0,0.0137
2716.0,0.0138
2715.0,0.014
2714.0,0.0141
2713.0,0.0141
2712.0,0.0141
2711.0,0.0142
2710.0,0.0143
2709.0,0.0143
2708.0,0.0144
2707.0,0.0145
2706.0,0.0145
2705.0,0.0146
2704.0,0.0147
2703.0,0.0147
2702.0,0.0148
2701.0,0.0149
2700.0,0.015
2699.0,0.0151
2698.0,0.0152
2697.0,0.0153
2696.0,0.0153
2695.0,0.0153
2694.0,0.0153
2693.0,0.0154
2692.0,0.0154
2691.0,0.0155
2690.0,0.0155
2689.0,0.0155
2688.0,0.0155
2687.0,0.0156
2686.0,0.0157
2685.0,0.0158
2684.0,0.0159
2683.0,0.016
2682.0,0.0161
2681.0,0.0162
2680.0,0.0162
2679.0,0.0161
2678.0,0.0161
2677.0,0.0162
2676.0,0.0163
2675.0,0.0163
2674.0,0.0164
2673.0,0.0164
2672.0,0.0164
2671.0,0.0163
2670.0,0.0164
2669.0,0.0165
2668.0,0.0166
2667.0,0.0167
2666.0,0.0168
2665.0,0.0169
2664.0,0.0169
2663.0,0.017
2662.0,0.0171
2661.0,0.0171
2660.0,0.0171
2659.0,0.0172
2658.0,0.0172
2657.0,0.0172
2656.0,0.0172
2655.0,0.0172
2654.0,0.0173
2653.0,0.0173
2652.0,0.0174
2651.0,0.0174
2650.0,0.0175
2649.0,0.0175
2648.0,0.0176
2647.0,0.0178
2646.0,0.0178
2645.0,0.0179
2644.0,0.0179
2643.0,0.0179
2642.0,0.0179
2641.0,0.0179
2640.0,0.0179
2639.0,0.0179
2638.0,0.0179
2637.0,0.0179
2636.0,0.018
2635.0,0.0181
2634.0,0.0182
2633.0,0.0182
2632.0,0.0182
2631.0,0.0182
2630.0,0.0182
2629.0,0.0182
2628.0,0.0182
2627.0,0.0183
2626.0,0.0183
2625.0,0.0184
2624.0,0.0184
2623.0,0.0184
2622.0,0.0184
2621.0,0.0184
2620.0,0.0185
2619.0,0.0185
2618.0,0.0186
2617.0,0.0186
2616.0,0.0186
2615.0,0.0187
2614.0,0.0187
2613.0,0.0187
2612.0,0.0188
2611.0,0.0189
2610.0,0.019
2609.0,0.0191
2608.0,0.019
2607.0,0.019
2606.0,0.0189
2605.0,0.0189
2604.0,0.0189
2603.0,0.0189
2602.0,0.0189
2601.0,0.019
2600.0,0.019
2599.0,0.019
2598.0,0.0191
2597.0,0.0191
2596.0,0.0191
2595.0,0.0192
2594.0,0.0191
2593.0,0.0191
2592.0,0.0191
2591.0,0.0192
2590.0,0.0192
2589.0,0.0192
2588.0,0.0193
2587.0,0.0194
2586.0,0.0195
2585.0,0.0195
2584.0,0.0196
2583.0,0.0195
2582.0,0.0195
2581.0,0.0194
2580.0,0.0194
2579.0,0.0194
2578.0,0.0194
2577.0,0.0194
2576.0,0.0194
2575.0,0.0194
2574.0,0.0194
2573.0,0.0195
2572.0,0.0195
2571.0,0.0195
2570.0,0.0195
2569.0,0.0194
2568.0,0.0194
2567.0,0.0194
2566.0,0.0194
2565.0,0.0194
2564.0,0.0194
2563.0,0.0194
2562.0,0.0195
2561.0,0.0196
2560.0,0.0196
2559.0,0.0197
2558.0,0.0197
2557.0,0.0196
2556.0,0.0196
2555.0,0.0196
2554.0,0.0197
2553.0,0.0198
2552.0,0.0198
2551.0,0.0198
2550.0,0.0197
2549.0,0.0197
2548.0,0.0197
2547.0,0.0197
2546.0,0.0197
2545.0,0.0197
2544.0,0.0197
2543.0,0.0197
2542.0,0.0197
2541.0,0.0197
2540.0,0.0196
2539.0,0.0196
2538.0,0.0196
2537.0,0.0196
2536.0,0.0195
2535.0,0.0195
2534.0,0.0196
2533.0,0.0196
2532.0,0.0197
2531.0,0.0197
2530.0,0.0197
2529.0,0.0197
2528.0,0.0196
2527.0,0.0196
2526.0,0.0196
2525.0,0.0196
2524.0,0.0195
2523.0,0.0195
2522.0,0.0196
2521.0,0.0196
2520.0,0.0196
2519.0,0.0196
2518.0,0.0196
2517.0,0.0196
2516.0,0.0195
2515.0,0.0195
2514.0,0.0195
2513.0,0.0195
2512.0,0.0195
2511.0,0.0195
2510.0,0.0195
2509.0,0.0194
2508.0,0.0194
2507.0,0.0193
2506.0,0.0193
2505.0,0.0193
2504.0,0.0194
2503.0,0.0194
2502.0,0.0194
2501.0,0.0193
2500.0,0.0193
2499.0,0.0192
2498.0,0.0192
2497.0,0.0192
2496.0,0.0192
2495.0,0.0192
2494.0,0.0193
2493.0,0.0193
2492.0,0.0192
2491.0,0.0192
2490.0,0.0191
2489.0,0.019
2488.0,0.019
2487.0,0.019
2486.0,0.0191
2485.0,0.0192
2484.0,0.0192
2483.0,0.0192
2482.0,0.0191
2481.0,0.019
2480.0,0.0189
2479.0,0.0188
2478.0,0.0188
2477.0,0.0187
2476.0,0.0187
2475.0,0.0187
2474.0,0.0187
2473.0,0.0187
2472.0,0.0187
2471.0,0.0186
2470.0,0.0185
2469.0,0.0185
2468.0,0.0185
2467.0,0.0184
2466.0,0.0184
2465.0,0.0184
2464.0,0.0184
2463.0,0.0184
2462.0,0.0183
2461.0,0.0183
2460.0,0.0183
2459.0,0.0183
2458.0,0.0183
2457.0,0.0183
2456.0,0.0183
2455.0,0.0182
2454.0,0.0182
2453.0,0.0181
2452.0,0.0181
2451.0,0.0181
2450.0,0.018
2449.0,0.0179
2448.0,0.0179
2447.0,0.0178
2446.0,0.0178
2445.0,0.0177
2444.0,0.0176
2443.0,0.0176
2442.0,0.0175
2441.0,0.0175
2440.0,0.0174
2439.0,0.0175
2438.0,0.0175
2437.0,0.0175
2436.0,0.0175
2435.0,0.0174
2434.0,0.0173
2433.0,0.0173
2432.0,0.0172
2431.0,0.0172
2430.0,0.0172
2429.0,0.0172
2428.0,0.0171
2427.0,0.017
2426.0,0.0169
2425.0,0.0168
2424.0,0.0168
2423.0,0.0168
2422.0,0.0168
2421.0,0.0168
2420.0,0.0168
2419.0,0.0168
2418.0,0.0168
2417.0,0.0167
2416.0,0.0167
2415.0,0.0166
2414.0,0.0166
2413.0,0.0165
2412.0,0.0164
2411.0,0.0164
2410.0,0.0164
2409.0,0.0164
2408.0,0.0163
2407.0,0.0162
2406.0,0.0161
2405.0,0.0161
2404.0,0.0161
2403.0,0.0161
2402.0,0.0161
2401.0,0.016
2400.0,0.016
2399.0,0.0159
2398.0,0.0158
2397.0,0.0158
2396.0,0.0158
2395.0,0.0158
2394.0,0.0158
2393.0,0.0158
2392.0,0.0158
2391.0,0.0157
2390.0,0.0157
2389.0,0.0158
2388.0,0.0159
2387.0,0.0162
2386.0,0.0165
2385.0,0.0168
2384.0,0.0171
2383.0,0.0172
2382.0,0.0172
2381.0,0.0171
2380.0,0.017
2379.0,0.0168
2378.0,0.0167
2377.0,0.0166
2376.0,0.0166
2375.0,0.0167
2374.0,0.017
2373.0,0.0173
2372.0,0.0176
2371.0,0.018
2370.0,0.0184
2369.0,0.0188
2368.0,0.0188
2367.0,0.0186
2366.0,0.0184
2365.0,0.0182
2364.0,0.018
2363.0,0.0178
2362.0,0.0172
2361.0,0.0161
2360.0,0.0152
2359.0,0.0152
2358.0,0.0159
2357.0,0.0165
2356.0,0.017
2355.0,0.0177
2354.0,0.0185
2353.0,0.0188
2352.0,0.0186
2351.0,0.0183
2350.0,0.018
2349.0,0.0174
2348.0,0.0169
2347.0,0.0166
2346.0,0.0173
2345.0,0.0186
2344.0,0.0197
2343.0,0.0201
2342.0,0.0194
2341.0,0.018
2340.0,0.0169
2339.0,0.0166
2338.0,0.017
2337.0,0.0175
2336.0,0.0178
2335.0,0.018
2334.0,0.0179
2333.0,0.0173
2332.0,0.0166
2331.0,0.0164
2330.0,0.017
2329.0,0.0178
2328.0,0.0185
2327.0,0.0187
2326.0,0.0185
2325.0,0.0179
2324.0,0.0172
2323.0,0.0167
2322.0,0.0163
2321.0,0.0162
2320.0,0.0164
2319.0,0.0167
2318.0,0.017
2317.0,0.0172
2316.0,0.0172
2315.0,0.0172
2314.0,0.0173
2313.0,0.0176
2312.0,0.0178
2311.0,0.018
2310.0,0.0181
2309.0,0.0179
2308.0,0.0176
2307.0,0.0173
2306.0,0.0169
2305.0,0.0166
2304.0,0.0164
2303.0,0.0164
2302.0,0.0164
2301.0,0.0163
2300.0,0.0162
2299.0,0.016
2298.0,0.016
2297.0,0.0159
2296.0,0.0158
2295.0,0.0156
2294.0,0.0153
2293.0,0.015
2292.0,0.0147
2291.0,0.0146
2290.0,0.0144
2289.0,0.0142
2288.0,0.014
2287.0,0.0138
2286.0,0.0136
2285.0,0.0134
2284.0,0.0133
2283.0,0.0132
2282.0,0.0132
2281.0,0.0133
2280.0,0.0134
2279.0,0.0135
2278.0,0.0135
2277.0,0.0134
2276.0,0.0133
2275.0,0.0133
2274.0,0.0133
2273.0,0.0133
2272.0,0.0133
2271.0,0.0133
2270.0,0.0133
2269.0,0.0132
2268.0,0.0132
2267.0,0.0133
2266.0,0.0133
2265.0,0.0132
2264.0,0.0132
2263.0,0.0132
2262.0,0.0131
2261.0,0.0131
2260.0,0.0131
2259.0,0.0131
2258.0,0.0131
2257.0,0.0131
2256.0,0.0131
2255.0,0.013
2254.0,0.0129
2253.0,0.0129
2252.0,0.0129
2251.0,0.013
2250.0,0.013
2249.0,0.013
2248.0,0.013
2247.0,0.0129
2246.0,0.0129
2245.0,0.0129
2244.0,0.0129
2243.0,0.0129
2242.0,0.0129
2241.0,0.0129
2240.0,0.013
2239.0,0.013
2238.0,0.013
2237.0,0.013
2236.0,0.013
2235.0,0.013
2234.0,0.013
2233.0,0.013
2232.0,0.013
2231.0,0.013
2230.0,0.0131
2229.0,0.0131
2228.0,0.0131
2227.0,0.0132
2226.0,0.0132
2225.0,0.0132
2224.0,0.0131
2223.0,0.0131
2222.0,0.013
2221.0,0.0131
2220.0,0.0131
2219.0,0.0132
2218.0,0.0132
2217.0,0.0133
2216.0,0.0133
2215.0,0.0133
2214.0,0.0133
2213.0,0.0133
2212.0,0.0133
2211.0,0.0133
2210.0,0.0133
2209.0,0.0133
2208.0,0.0133
2207.0,0.0134
2206.0,0.0134
2205.0,0.0134
2204.0,0.0135
2203.0,0.0135
2202.0,0.0136
2201.0,0.0136
2200.0,0.0136
2199.0,0.0136
2198.0,0.0136
2197.0,0.0136
2196.0,0.0136
2195.0,0.0136
2194.0,0.0137
2193.0,0.0137
2192.0,0.0138
2191.0,0.0138
2190.0,0.0138
2189.0,0.0138
2188.0,0.0137
2187.0,0.0138
2186.0,0.0138
2185.0,0.0139
2184.0,0.0139
2183.0,0.014
2182.0,0.014
2181.0,0.014
2180.0,0.014
2179.0,0.014
2178.0,0.014
2177.0,0.0141
2176.0,0.0141
2175.0,0.0142
2174.0,0.0142
2173.0,0.0143
2172.0,0.0143
2171.0,0.0143
2170.0,0.0143
2169.0,0.0142
2168.0,0.0142
2167.0,0.0142
2166.0,0.0142
2165.0,0.0142
2164.0,0.0142
2163.0,0.0142
2162.0,0.0142
2161.0,0.0141
2160.0,0.0141
2159.0,0.0141
2158.0,0.0142
2157.0,0.0142
2156.0,0.0143
2155.0,0.0143
2154.0,0.0143
2153.0,0.0143
2152.0,0.0143
2151.0,0.0143
2150.0,0.0143
2149.0,0.0142
2148.0,0.0142
2147.0,0.0142
2146.0,0.0143
2145.0,0.0144
2144.0,0.0145
2143.0,0.0145
2142.0,0.0145
2141.0,0.0145
2140.0,0.0145
2139.0,0.0144
2138.0,0.0144
2137.0,0.0144
2136.0,0.0145
2135.0,0.0145
2134.0,0.0145
2133.0,0.0144
2132.0,0.0144
2131.0,0.0144
2130.0,0.0143
2129.0,0.0143
2128.0,0.0143
2127.0,0.0142
2126.0,0.0143
2125.0,0.0143
2124.0,0.0143
2123.0,0.0143
2122.0,0.0144
2121.0,0.0145
2120.0,0.0145
2119.0,0.0145
2118.0,0.0145
2117.0,0.0144
2116.0,0.0144
2115.0,0.0143
2114.0,0.0143
2113.0,0.0144
2112.0,0.0144
2111.0,0.0144
2110.0,0.0144
2109.0,0.0144
2108.0,0.0144
2107.0,0.0144
2106.0,0.0144
2105.0,0.0144
2104.0,0.0145
2103.0,0.0145
2102.0,0.0146
2101.0,0.0146
2100.0,0.0145
2099.0,0.0145
2098.0,0.0144
2097.0,0.0144
2096.0,0.0144
2095.0,0.0145
2094.0,0.0145
2093.0,0.0145
2092.0,0.0145
2091.0,0.0145
2090.0,0.0145
2089.0,0.0145
2088.0,0.0145
2087.0,0.0145
2086.0,0.0146
2085.0,0.0146
2084.0,0.0146
2083.0,0.0146
2082.0,0.0146
2081.0,0.0146
2080.0,0.0146
2079.0,0.0147
2078.0,0.0148
2077.0,0.0148
2076.0,0.0149
2075.0,0.0149
2074.0,0.0149
2073.0,0.0149
2072.0,0.0149
2071.0,0.0149
2070.0,0.0149
2069.0,0.015
2068.0,0.015
2067.0,0.015
2066.0,0.015
2065.0,0.015
2064.0,0.0151
2063.0,0.0151
2062.0,0.0152
2061.0,0.0152
2060.0,0.0153
2059.0,0.0153
2058.0,0.0153
2057.0,0.0153
2056.0,0.0153
2055.0,0.0154
2054.0,0.0155
2053.0,0.0156
2052.0,0.0157
2051.0,0.0157
2050.0,0.0157
2049.0,0.0158
2048.0,0.0158
2047.0,0.0159
2046.0,0.0159
2045.0,0.016
2044.0,0.016
2043.0,0.016
2042.0,0.0161
2041.0,0.0161
2040.0,0.0161
2039.0,0.0162
2038.0,0.0162
2037.0,0.0162
2036.0,0.0162
2035.0,0.0162
2034.0,0.0162
2033.0,0.0163
2032.0,0.0164
2031.0,0.0165
2030.0,0.0165
2029.0,0.0166
2028.0,0.0166
2027.0,0.0166
2026.0,0.0166
2025.0,0.0167
2024.0,0.0167
2023.0,0.0168
2022.0,0.0168
2021.0,0.0168
2020.0,0.0169
2019.0,0.0169
2018.0,0.017
2017.0,0.0171
2016.0,0.0171
2015.0,0.0172
2014.0,0.0173
2013.0,0.0173
2012.0,0.0174
2011.0,0.0175
2010.0,0.0176
2009.0,0.0176
2008.0,0.0177
2007.0,0.0177
2006.0,0.0178
2005.0,0.0178
2004.0,0.0179
2003.0,0.0179
2002.0,0.018
2001.0,0.018
2000.0,0.0181
1999.0,0.0181
1998.0,0.0182
1997.0,0.0182
1996.0,0.0182
1995.0,0.0183
1994.0,0.0182
1993.0,0.0182
1992.0,0.0182
1991.0,0.0182
1990.0,0.0183
1989.0,0.0184
1988.0,0.0185
1987.0,0.0186
1986.0,0.0187
1985.0,0.0188
1984.0,0.0188
1983.0,0.0189
1982.0,0.0189
1981.0,0.019
1980.0,0.019
1979.0,0.019
1978.0,0.019
1977.0,0.019
1976.0,0.019
1975.0,0.019
1974.0,0.0191
1973.0,0.0192
1972.0,0.0193
1971.0,0.0193
1970.0,0.0194
1969.0,0.0194
1968.0,0.0195
1967.0,0.0195
1966.0,0.0195
1965.0,0.0195
1964.0,0.0195
1963.0,0.0196
1962.0,0.0196
1961.0,0.0196
1960.0,0.0196
1959.0,0.0197
1958.0,0.0197
1957.0,0.0198
1956.0,0.0199
1955.0,0.02
1954.0,0.02
1953.0,0.0201
1952.0,0.0201
1951.0,0.0201
1950.0,0.0201
1949.0,0.02
1948.0,0.0201
1947.0,0.0202
1946.0,0.0202
1945.0,0.0202
1944.0,0.0201
1943.0,0.0201
1942.0,0.0201
1941.0,0.0203
1940.0,0.0204
1939.0,0.0205
1938.0,0.0205
1937.0,0.0206
1936.0,0.0206
1935.0,0.0206
1934.0,0.0206
1933.0,0.0206
1932.0,0.0206
1931.0,0.0206
1930.0,0.0207
1929.0,0.0207
1928.0,0.0206
1927.0,0.0206
1926.0,0.0205
1925.0,0.0205
1924.0,0.0205
1923.0,0.0206
1922.0,0.0207
1921.0,0.0207
1920.0,0.0208
1919.0,0.0208
1918.0,0.0209
1917.0,0.021
1916.0,0.021
1915.0,0.021
1914.0,0.0209
1913.0,0.0209
1912.0,0.0209
1911.0,0.0209
1910.0,0.021
1909.0,0.021
1908.0,0.021
1907.0,0.0209
1906.0,0.0209
1905.0,0.021
1904.0,0.021
1903.0,0.021
1902.0,0.021
1901.0,0.021
1900.0,0.021
1899.0,0.0211
1898.0,0.0212
1897.0,0.0212
1896.0,0.0212
1895.0,0.0212
1894.0,0.0211
1893.0,0.0211
1892.0,0.0211
1891.0,0.0211
1890.0,0.0211
1889.0,0.0212
1888.0,0.0212
1887.0,0.0212
1886.0,0.0212
1885.0,0.0212
1884.0,0.0212
1883.0,0.0213
1882.0,0.0213
1881.0,0.0213
1880.0,0.0213
1879.0,0.0214
1878.0,0.0214
1877.0,0.0214
1876.0,0.0213
1875.0,0.0213
1874.0,0.0212
1873.0,0.0212
1872.0,0.0211
1871.0,0.021
1870.0,0.021
1869.0,0.0211
1868.0,0.0211
1867.0,0.0212
1866.0,0.0212
1865.0,0.0212
1864.0,0.0212
1863.0,0.0212
1862.0,0.0212
1861.0,0.0212
1860.0,0.0212
1859.0,0.0213
1858.0,0.0213
1857.0,0.0213
1856.0,0.0213
1855.0,0.0213
1854.0,0.0213
1853.0,0.0214
1852.0,0.0213
1851.0,0.0213
1850.0,0.0212
1849.0,0.0211
1848.0,0.0211
1847.0,0.0211
1846.0,0.0212
1845.0,0.0214
1844.0,0.0215
1843.0,0.0216
1842.0,0.0215
1841.0,0.0214
1840.0,0.0212
1839.0,0.0212
1838.0,0.0212
1837.0,0.0212
1836.0,0.0212
1835.0,0.0212
1834.0,0.0212
1833.0,0.0212
1832.0,0.0212
1831.0,0.0212
1830.0,0.0213
1829.0,0.0213
1828.0,0.0212
1827.0,0.0211
1826.0,0.0211
1825.0,0.0211
1824.0,0.0212
1823.0,0.0212
1822.0,0.0212
1821.0,0.0212
1820.0,0.0212
1819.0,0.0212
1818.0,0.0213
1817.0,0.0213
1816.0,0.0212
1815.0,0.0212
1814.0,0.0212
1813.0,0.0211
1812.0,0.0211
1811.0,0.0211
1810.0,0.0211
1809.0,0.0211
1808.0,0.021
1807.0,0.021
1806.0,0.021
1805.0,0.0209
1804.0,0.0208
1803.0,0.0206
1802.0,0.0206
1801.0,0.0206
1800.0,0.0207
1799.0,0.0209
1798.0,0.021
1797.0,0.0209
1796.0,0.0208
1795.0,0.0206
1794.0,0.0205
1793.0,0.0205
1792.0,0.0205
1791.0,0.0205
1790.0,0.0205
1789.0,0.0205
1788.0,0.0205
1787.0,0.0204
1786.0,0.0204
1785.0,0.0203
1784.0,0.0203
1783.0,0.0202
1782.0,0.0201
1781.0,0.0201
1780.0,0.02
1779.0,0.02
1778.0,0.0199
1777.0,0.0198
1776.0,0.0196
1775.0,0.0194
1774.0,0.0194
1773.0,0.0195
1772.0,0.0195
1771.0,0.0194
1770.0,0.0194
1769.0,0.0192
1768.0,0.0191
1767.0,0.019
1766.0,0.019
1765.0,0.0189
1764.0,0.0187
1763.0,0.0186
1762.0,0.0186
1761.0,0.0185
1760.0,0.0184
1759.0,0.0183
1758.0,0.0182
1757.0,0.018
1756.0,0.0179
1755.0,0.0177
1754.0,0.0176
1753.0,0.0173
1752.0,0.0171
1751.0,0.0171
1750.0,0.017
1749.0,0.0169
1748.0,0.0167
1747.0,0.0166
1746.0,0.0164
1745.0,0.0162
1744.0,0.0159
1743.0,0.0157
1742.0,0.0156
1741.0,0.0155
1740.0,0.0154
1739.0,0.0152
1738.0,0.0149
1737.0,0.0146
1736.0,0.0142
1735.0,0.0139
1734.0,0.0136
1733.0,0.0132
1732.0,0.0128
1731.0,0.0124
1730.0,0.0121
1729.0,0.0118
1728.0,0.0115
1727.0,0.0112
1726.0,0.011
1725.0,0.0106
1724.0,0.0101
1723.0,0.0097
1722.0,0.0093
1721.0,0.0088
1720.0,0.0083
1719.0,0.0076
1718.0,0.007
1717.0,0.0063
1716.0,0.0055
1715.0,0.0049
1714.0,0.0044
1713.0,0.0038
1712.0,0.0031
1711.0,0.0023
1710.0,0.0017
1709.0,0.001
1708.0,0.0003
1707.0,-0.0006
1706.0,-0.0016
1705.0,-0.0027
1704.0,-0.0037
1703.0,-0.0044
1702.0,-0.005
1701.0,-0.0058
1700.0,-0.0072
1699.0,-0.0085
1698.0,-0.0094
1697.0,-0.0109
1696.0,-0.0128
1695.0,-0.0144
1694.0,-0.0153
1693.0,-0.0162
1692.0,-0.0174
1691.0,-0.0188
1690.0,-0.0203
1689.0,-0.0218
1688.0,-0.0232
1687.0,-0.0243
1686.0,-0.0253
1685.0,-0.0274
1684.0,-0.0307
1683.0,-0.0331
1682.0,-0.0344
1681.0,-0.0359
1680.0,-0.0377
1679.0,-0.0392
1678.0,-0.0404
1677.0,-0.0417
1676.0,-0.0437
1675.0,-0.046
1674.0,-0.0478
1673.0,-0.0492
1672.0,-0.0506
1671.0,-0.0525
1670.0,-0.055
1669.0,-0.0578
1668.0,-0.06
1667.0,-0.0615
1666.0,-0.0626
1665.0,-0.0637
1664.0,-0.0655
1663.0,-0.0679
1662.0,-0.0702
1661.0,-0.0721
1660.0,-0.0738
1659.0,-0.0754
1658.0,-0.0766
1657.0,-0.0777
1656.0,-0.0786
1655.0,-0.0796
1654.0,-0.0823
1653.0,-0.0873
1652.0,-0.0903
1651.0,-0.0911
1650.0,-0.0911
1649.0,-0.0914
1648.0,-0.093
1647.0,-0.0962
1646.0,-0.0988
1645.0,-0.1002
1644.0,-0.1012
1643.0,-0.102
1642.0,-0.1027
1641.0,-0.1034
1640.0,-0.1041
1639.0,-0.1046
1638.0,-0.1048
1637.0,-0.1054
1636.0,-0.1074
1635.0,-0.1093
1634.0,-0.1099
1633.0,-0.1099
1632.0,-0.1099
1631.0,-0.1099
1630.0,-0.1097
1629.0,-0.1097
1628.0,-0.1099
1627.0,-0.1101
1626.0,-0.1098
1625.0,-0.1093
1624.0,-0.1091
1623.0,-0.1093
1622.0,-0.1091
1621.0,-0.1085
1620.0,-0.1078
1619.0,-0.1071
1618.0,-0.1062
1617.0,-0.1056
1616.0,-0.1054
1615.0,-0.1051
1614.0,-0.1042
1613.0,-0.1032
1612.0,-0.1021
1611.0,-0.101
1610.0,-0.0998
1609.0,-0.0985
1608.0,-0.0973
1607.0,-0.0961
1606.0,-0.0947
1605.0,-0.0932
1604.0,-0.0918
1603.0,-0.0903
1602.0,-0.0888
1601.0,-0.0871
1600.0,-0.0855
1599.0,-0.084
1598.0,-0.0823
1597.0,-0.0805
1596.0,-0.0788
1595.0,-0.0771
1594.0,-0.0753
1593.0,-0.0734
1592.0,-0.0717
1591.0,-0.0699
1590.0,-0.0682
1589.0,-0.0665
1588.0,-0.0648
1587.0,-0.0632
1586.0,-0.0615
1585.0,-0.0598
1584.0,-0.0582
1583.0,-0.0567
1582.0,-0.0552
1581.0,-0.0537
1580.0,-0.0523
1579.0,-0.051
1578.0,-0.0495
1577.0,-0.0478
1576.0,-0.0461
1575.0,-0.0448
1574.0,-0.0439
1573.0,-0.0429
1572.0,-0.0418
1571.0,-0.0405
1570.0,-0.0391
1569.0,-0.0378
1568.0,-0.0368
1567.0,-0.0359
1566.0,-0.035
1565.0,-0.0339
1564.0,-0.0329
1563.0,-0.0322
1562.0,-0.0316
1561.0,-0.031
1560.0,-0.0296
1559.0,-0.0277
1558.0,-0.0266
1557.0,-0.0259
1556.0,-0.0254
1555.0,-0.0249
1554.0,-0.0244
1553.0,-0.0239
1552.0,-0.0234
1551.0,-0.023
1550.0,-0.0224
1549.0,-0.0218
1548.0,-0.0213
1547.0,-0.0208
1546.0,-0.0204
1545.0,-0.02
1544.0,-0.0195
1543.0,-0.0191
1542.0,-0.0186
1541.0,-0.0182
1540.0,-0.0182
1539.0,-0.0183
1538.0,-0.0181
1537.0,-0.0179
1536.0,-0.0177
1535.0,-0.0175
1534.0,-0.0171
1533.0,-0.0166
1532.0,-0.0162
1531.0,-0.0158
1530.0,-0.0154
1529.0,-0.0149
1528.0,-0.0144
1527.0,-0.0139
1526.0,-0.0133
1525.0,-0.0127
1524.0,-0.0122
1523.0,-0.0118
1522.0,-0.0113
1521.0,-0.0108
1520.0,-0.0105
1519.0,-0.0103
1518.0,-0.01
1517.0,-0.0096
1516.0,-0.0093
1515.0,-0.009
1514.0,-0.0088
1513.0,-0.0086
1512.0,-0.0084
1511.0,-0.0083
1510.0,-0.0084
1509.0,-0.0084
1508.0,-0.0082
1507.0,-0.0081
1506.0,-0.0078
1505.0,-0.0072
1504.0,-0.007
1503.0,-0.0071
1502.0,-0.0072
1501.0,-0.0072
1500.0,-0.0071
1499.0,-0.0071
1498.0,-0.0072
1497.0,-0.0072
1496.0,-0.0072
1495.0,-0.0071
1494.0,-0.0069
1493.0,-0.0068
1492.0,-0.0066
1491.0,-0.0064
1490.0,-0.0062
1489.0,-0.006
1488.0,-0.0057
1487.0,-0.0054
1486.0,-0.0052
1485.0,-0.0051
1484.0,-0.005
1483.0,-0.0049
1482.0,-0.0049
1481.0,-0.0049
1480.0,-0.0049
1479.0,-0.0049
1478.0,-0.0048
1477.0,-0.0048
1476.0,-0.0048
1475.0,-0.0047
1474.0,-0.0047
1473.0,-0.0046
1472.0,-0.0047
1471.0,-0.0047
1470.0,-0.0047
1469.0,-0.0047
1468.0,-0.0048
1467.0,-0.0049
1466.0,-0.0049
1465.0,-0.005
1464.0,-0.0051
1463.0,-0.0052
1462.0,-0.0053
1461.0,-0.0055
1460.0,-0.0057
1459.0,-0.0059
1458.0,-0.0061
1457.0,-0.0062
1456.0,-0.0062
1455.0,-0.0062
1454.0,-0.0062
1453.0,-0.0063
1452.0,-0.0064
1451.0,-0.0065
1450.0,-0.0066
1449.0,-0.0067
1448.0,-0.0067
1447.0,-0.0067
1446.0,-0.0067
1445.0,-0.0067
1444.0,-0.0067
1443.0,-0.0068
1442.0,-0.0069
1441.0,-0.0069
1440.0,-0.007
1439.0,-0.0071
1438.0,-0.007
1437.0,-0.007
1436.0,-0.0069
1435.0,-0.0068
1434.0,-0.0068
1433.0,-0.0067
1432.0,-0.0065
1431.0,-0.0063
1430.0,-0.0061
1429.0,-0.0059
1428.0,-0.0057
1427.0,-0.0056
1426.0,-0.0055
1425.0,-0.0054
1424.0,-0.0054
1423.0,-0.0054
1422.0,-0.0055
1421.0,-0.0055
1420.0,-0.0054
1419.0,-0.0054
1418.0,-0.0056
1417.0,-0.0057
1416.0,-0.0057
1415.0,-0.0057
1414.0,-0.0057
1413.0,-0.0058
1412.0,-0.0059
1411.0,-0.0062
1410.0,-0.0065
1409.0,-0.0067
1408.0,-0.0069
1407.0,-0.0072
1406.0,-0.0075
1405.0,-0.0079
1404.0,-0.0082
1403.0,-0.0084
1402.0,-0.0087
1401.0,-0.0089
1400.0,-0.0093
1399.0,-0.0096
1398.0,-0.0098
1397.0,-0.0099
1396.0,-0.01
1395.0,-0.0099
1394.0,-0.0098
1393.0,-0.0096
1392.0,-0.0094
1391.0,-0.0093
1390.0,-0.0093
1389.0,-0.0093
1388.0,-0.0094
1387.0,-0.0095
1386.0,-0.0097
1385.0,-0.0098
1384.0,-0.01
1383.0,-0.0104
1382.0,-0.0109
1381.0,-0.0114
1380.0,-0.0119
1379.0,-0.0124
1378.0,-0.0128
1377.0,-0.013
1376.0,-0.0131
1375.0,-0.0131
1374.0,-0.0129
1373.0,-0.0126
1372.0,-0.0121
1371.0,-0.0116
1370.0,-0.011
1369.0,-0.0104
1368.0,-0.0098
1367.0,-0.0093
1366.0,-0.0089
1365.0,-0.0085
1364.0,-0.0081
1363.0,-0.0076
1362.0,-0.007
1361.0,-0.0064
1360.0,-0.0058
1359.0,-0.0053
1358.0,-0.0048
1357.0,-0.0044
1356.0,-0.0039
1355.0,-0.0035
1354.0,-0.0032
1353.0,-0.0029
1352.0,-0.0025
1351.0,-0.0021
1350.0,-0.0018
1349.0,-0.0014
1348.0,-0.0011
1347.0,-0.0008
1346.0,-0.0005
1345.0,-0.0003
1344.0,-0.0001
1343.0,0.0
1342.0,0.0001
1341.0,0.0002
1340.0,0.0003
1339.0,0.0004
1338.0,0.0005
1337.0,0.0008
1336.0,0.001
1335.0,0.0012
1334.0,0.0014
1333.0,0.0014
1332.0,0.0015
1331.0,0.0015
1330.0,0.0016
1329.0,0.0016
1328.0,0.0017
1327.0,0.0017
1326.0,0.0017
1325.0,0.0017
1324.0,0.0018
1323.0,0.0018
1322.0,0.0018
1321.0,0.0017
1320.0,0.0017
1319.0,0.0017
1318.0,0.0017
1317.0,0.0017
1316.0,0.0017
1315.0,0.0017
1314.0,0.0017
1313.0,0.0017
1312.0,0.0017
1311.0,0.0017
1310.0,0.0016
1309.0,0.0016
1308.0,0.0016
1307.0,0.0016
1306.0,0.0016
1305.0,0.0016
1304.0,0.0016
1303.0,0.0016
1302.0,0.0015
1301.0,0.0015
1300.0,0.0015
1299.0,0.0015
1298.0,0.0015
1297.0,0.0014
1296.0,0.0014
1295.0,0.0014
1294.0,0.0014
1293.0,0.0013
1292.0,0.0013
1291.0,0.0013
1290.0,0.0013
1289.0,0.0013
1288.0,0.0013
1287.0,0.0012
1286.0,0.0012
1285.0,0.0011
1284.0,0.0011
1283.0,0.0011
1282.0,0.001
1281.0,0.001
1280.0,0.0009
1279.0,0.0009
1278.0,0.0009
1277.0,0.0008
1276.0,0.0008
1275.0,0.0007
1274.0,0.0006
1273.0,0.0006
1272.0,0.0006
1271.0,0.0006
1270.0,0.0005
1269.0,0.0005
1268.0,0.0005
1267.0,0.0005
1266.0,0.0004
1265.0,0.0003
1264.0,0.0002
1263.0,0.0002
1262.0,0.0002
1261.0,0.0001
1260.0,0.0001
1259.0,-0.0
1258.0,-0.0
1257.0,-0.0001
1256.0,-0.0001
1255.0,-0.0001
1254.0,-0.0002
1253.0,-0.0002
1252.0,-0.0002
1251.0,-0.0003
1250.0,-0.0004
1249.0,-0.0005
1248.0,-0.0006
1247.0,-0.0008
1246.0,-0.0009
1245.0,-0.001
1244.0,-0.001
1243.0,-0.0011
1242.0,-0.0012
1241.0,-0.0013
1240.0,-0.0014
1239.0,-0.0015
1238.0,-0.0017
1237.0,-0.0018
1236.0,-0.0019
1235.0,-0.002
1234.0,-0.0022
1233.0,-0.0024
1232.0,-0.0026
1231.0,-0.0029
1230.0,-0.0031
1229.0,-0.0034
1228.0,-0.0036
1227.0,-0.0039
1226.0,-0.0042
1225.0,-0.0045
1224.0,-0.0047
1223.0,-0.005
1222.0,-0.0053
1221.0,-0.0056
1220.0,-0.0059
1219.0,-0.0062
1218.0,-0.0065
1217.0,-0.0068
1216.0,-0.0071
1215.0,-0.0075
1214.0,-0.0078
1213.0,-0.0082
1212.0,-0.0085
1211.0,-0.0089
1210.0,-0.0093
1209.0,-0.0098
1208.0,-0.0102
1207.0,-0.0106
1206.0,-0.0111
1205.0,-0.0115
1204.0,-0.0121
1203.0,-0.0126
1202.0,-0.0132
1201.0,-0.0137
1200.0,-0.0143
1199.0,-0.0149
1198.0,-0.0155
1197.0,-0.0162
1196.0,-0.0169
1195.0,-0.0177
1194.0,-0.0186
1193.0,-0.0195
1192.0,-0.0204
1191.0,-0.0212
1190.0,-0.0221
1189.0,-0.0231
1188.0,-0.0241
1187.0,-0.0252
1186.0,-0.0263
1185.0,-0.0275
1184.0,-0.0286
1183.0,-0.0298
1182.0,-0.0311
1181.0,-0.0324
1180.0,-0.0337
1179.0,-0.035
1178.0,-0.0364
1177.0,-0.0378
1176.0,-0.0393
1175.0,-0.0409
1174.0,-0.0425
1173.0,-0.0442
1172.0,-0.0458
1171.0,-0.0474
1170.0,-0.049
1169.0,-0.0507
1168.0,-0.0524
1167.0,-0.0541
1166.0,-0.0558
1165.0,-0.0575
1164.0,-0.0591
1163.0,-0.0608
1162.0,-0.0624
1161.0,-0.064
1160.0,-0.0656
1159.0,-0.0672
1158.0,-0.0689
1157.0,-0.0706
1156.0,-0.0723
1155.0,-0.074
1154.0,-0.0757
1153.0,-0.0774
1152.0,-0.079
1151.0,-0.0807
1150.0,-0.0823
1149.0,-0.084
1148.0,-0.0857
1147.0,-0.0874
1146.0,-0.0891
1145.0,-0.0907
1144.0,-0.0923
1143.0,-0.0939
1142.0,-0.0955
1141.0,-0.0971
1140.0,-0.0987
1139.0,-0.1003
1138.0,-0.1018
1137.0,-0.1033
1136.0,-0.1047
1135.0,-0.1061
1134.0,-0.1073
1133.0,-0.1086
1132.0,-0.1099
1131.0,-0.1111
1130.0,-0.1124
1129.0,-0.1136
1128.0,-0.1148
1127.0,-0.1159
1126.0,-0.1168
1125.0,-0.1176
1124.0,-0.1185
1123.0,-0.1194
1122.0,-0.1201
1121.0,-0.1209
1120.0,-0.1217
1119.0,-0.1225
1118.0,-0.1232
1117.0,-0.124
1116.0,-0.1248
1115.0,-0.1254
1114.0,-0.1261
1113.0,-0.1268
1112.0,-0.1276
1111.0,-0.1283
1110.0,-0.1288
1109.0,-0.1294
1108.0,-0.1301
1107.0,-0.1306
1106.0,-0.1311
1105.0,-0.1315
1104.0,-0.132
1103.0,-0.1324
1102.0,-0.1327
1101.0,-0.1331
1100.0,-0.1335
1099.0,-0.1338
1098.0,-0.1341
1097.0,-0.1343
1096.0,-0.1346
1095.0,-0.1347
1094.0,-0.1347
1093.0,-0.1348
1092.0,-0.1349
1091.0,-0.1349
1090.0,-0.1347
1089.0,-0.1345
1088.0,-0.1343
1087.0,-0.134
1086.0,-0.1337
1085.0,-0.1333
1084.0,-0.1329
1083.0,-0.1323
1082.0,-0.1315
1081.0,-0.1306
1080.0,-0.1297
1079.0,-0.1286
1078.0,-0.1274
1077.0,-0.1261
1076.0,-0.1249
1075.0,-0.1236
1074.0,-0.1223
1073.0,-0.1209
1072.0,-0.1194
1071.0,-0.1176
1070.0,-0.1156
1069.0,-0.1136
1068.0,-0.1117
1067.0,-0.1098
1066.0,-0.1079
1065.0,-0.1058
1064.0,-0.1037
1063.0,-0.1014
1062.0,-0.099
1061.0,-0.0966
1060.0,-0.0941
1059.0,-0.0915
1058.0,-0.0889
1057.0,-0.0863
1056.0,-0.0837
1055.0,-0.0812
1054.0,-0.0787
1053.0,-0.0762
1052.0,-0.0739
1051.0,-0.0715
1050.0,-0.0692
1049.0,-0.0669
1048.0,-0.0647
1047.0,-0.0625
1046.0,-0.0605
1045.0,-0.0586
1044.0,-0.0569
1043.0,-0.0554
1042.0,-0.0539
1041.0,-0.0526
1040.0,-0.0512
1039.0,-0.05
1038.0,-0.0488
1037.0,-0.0476
1036.0,-0.0466
1035.0,-0.0455
1034.0,-0.0446
1033.0,-0.0436
1032.0,-0.0428
1031.0,-0.042
1030.0,-0.0412
1029.0,-0.0405
1028.0,-0.0398
1027.0,-0.0391
1026.0,-0.0385
1025.0,-0.0379
1024.0,-0.0373
1023.0,-0.0367
1022.0,-0.0362
1021.0,-0.0358
1020.0,-0.0355
1019.0,-0.0353
1018.0,-0.0351
1017.0,-0.0349
1016.0,-0.0349
1015.0,-0.0349
1014.0,-0.035
1013.0,-0.0352
1012.0,-0.0353
1011.0,-0.0355
1010.0,-0.0357
1009.0,-0.036
1008.0,-0.0363
1007.0,-0.0366
1006.0,-0.0369
1005.0,-0.0371
1004.0,-0.0373
1003.0,-0.0374
1002.0,-0.0373
1001.0,-0.0372
1000.0,-0.037
999.0,-0.0367
998.0,-0.0363
997.0,-0.0358
996.0,-0.0354
995.0,-0.0349
994.0,-0.0343
993.0,-0.0337
992.0,-0.0331
991.0,-0.0325
990.0,-0.032
989.0,-0.0316
988.0,-0.0311
987.0,-0.0307
986.0,-0.0304
985.0,-0.0301
984.0,-0.0298
983.0,-0.0295
982.0,-0.0292
981.0,-0.0289
980.0,-0.0286
979.0,-0.0283
978.0,-0.028
977.0,-0.0276
976.0,-0.0272
975.0,-0.0269
974.0,-0.0265
973.0,-0.0262
972.0,-0.026
971.0,-0.0258
970.0,-0.0255
969.0,-0.0253
968.0,-0.0252
967.0,-0.0252
966.0,-0.0251
965.0,-0.0249
964.0,-0.0248
963.0,-0.0246
962.0,-0.0245
961.0,-0.0244
960.0,-0.0243
959.0,-0.0243
958.0,-0.0243
957.0,-0.0243
956.0,-0.0242
955.0,-0.0241
954.0,-0.024
953.0,-0.0239
952.0,-0.0239
951.0,-0.0239
950.0,-0.0238
949.0,-0.0236
948.0,-0.0235
947.0,-0.0234
946.0,-0.0233
945.0,-0.0234
944.0,-0.0235
943.0,-0.0235
942.0,-0.0236
941.0,-0.0236
940.0,-0.0236
939.0,-0.0236
938.0,-0.0235
937.0,-0.0235
936.0,-0.0236
935.0,-0.0236
934.0,-0.0236
933.0,-0.0236
932.0,-0.0236
931.0,-0.0236
930.0,-0.0236
929.0,-0.0237
928.0,-0.0238
927.0,-0.0238
926.0,-0.0239
925.0,-0.0239
924.0,-0.0239
923.0,-0.024
922.0,-0.024
921.0,-0.024
920.0,-0.024
919.0,-0.024
918.0,-0.024
917.0,-0.0242
916.0,-0.0243
915.0,-0.0244
914.0,-0.0244
913.0,-0.0244
912.0,-0.0244
911.0,-0.0245
910.0,-0.0247
909.0,-0.0249
908.0,-0.0251
907.0,-0.0252
906.0,-0.0253
905.0,-0.0254
904.0,-0.0255
903.0,-0.0257
902.0,-0.0259
901.0,-0.026
900.0,-0.0261
899.0,-0.0262
898.0,-0.0263
897.0,-0.0264
896.0,-0.0267
895.0,-0.027
894.0,-0.0272
893.0,-0.0274
892.0,-0.0275
891.0,-0.0276
890.0,-0.0278
889.0,-0.028
888.0,-0.0283
887.0,-0.0285
886.0,-0.0286
885.0,-0.0288
884.0,-0.029
883.0,-0.0291
882.0,-0.0294
881.0,-0.0298
880.0,-0.0303
879.0,-0.0307
878.0,-0.0309
877.0,-0.0311
876.0,-0.0311
875.0,-0.0312
874.0,-0.0314
873.0,-0.0317
872.0,-0.0321
871.0,-0.0324
870.0,-0.0327
869.0,-0.033
868.0,-0.0333
867.0,-0.0336
866.0,-0.0339
865.0,-0.0343
864.0,-0.0348
863.0,-0.0352
862.0,-0.0355
861.0,-0.0358
860.0,-0.0361
859.0,-0.0363
858.0,-0.0365
857.0,-0.0366
856.0,-0.0369
855.0,-0.0372
854.0,-0.0376
853.0,-0.038
852.0,-0.0384
851.0,-0.0388
850.0,-0.0393
849.0,-0.0398
848.0,-0.0402
847.0,-0.0406
846.0,-0.0409
845.0,-0.0411
844.0,-0.0413
843.0,-0.0415
842.0,-0.0418
841.0,-0.0424
840.0,-0.0429
839.0,-0.0434
838.0,-0.0438
837.0,-0.0442
836.0,-0.0445
835.0,-0.0449
834.0,-0.0452
833.0,-0.0455
832.0,-0.0459
831.0,-0.0463
830.0,-0.0468
829.0,-0.0474
828.0,-0.0481
827.0,-0.0487
826.0,-0.0492
825.0,-0.0496
824.0,-0.05
823.0,-0.0505
822.0,-0.051
821.0,-0.0517
820.0,-0.0525
819.0,-0.0531
818.0,-0.0536
817.0,-0.0541
816.0,-0.0546
815.0,-0.0551
814.0,-0.0557
813.0,-0.0564
812.0,-0.0571
811.0,-0.0576
810.0,-0.0581
809.0,-0.0586
808.0,-0.0593
807.0,-0.0601
806.0,-0.061
805.0,-0.0618
804.0,-0.0626
803.0,-0.0633
802.0,-0.0639
801.0,-0.0645
800.0,-0.0651
799.0,-0.0657
798.0,-0.0664
797.0,-0.0671
796.0,-0.068
795.0,-0.0687
794.0,-0.0695
793.0,-0.0704
792.0,-0.0712
791.0,-0.0719
790.0,-0.0723
789.0,-0.0728
788.0,-0.0735
787.0,-0.0743
786.0,-0.0751
785.0,-0.076
784.0,-0.0769
783.0,-0.0776
782.0,-0.0783
781.0,-0.079
780.0,-0.0797
779.0,-0.0805
778.0,-0.0814
777.0,-0.0825
776.0,-0.0837
775.0,-0.0847
774.0,-0.0854
773.0,-0.0861
772.0,-0.0869
771.0,-0.0876
770.0,-0.0884
769.0,-0.0891
768.0,-0.0899
767.0,-0.0906
766.0,-0.0911
765.0,-0.0917
764.0,-0.0924
763.0,-0.0932
762.0,-0.094
761.0,-0.095
760.0,-0.096
759.0,-0.097
758.0,-0.0977
757.0,-0.0986
756.0,-0.0995
755.0,-0.1005
754.0,-0.1012
753.0,-0.1019
752.0,-0.1026
751.0,-0.1033
750.0,-0.1041
749.0,-0.1052
748.0,-0.1065
747.0,-0.1076
746.0,-0.1085
745.0,-0.1094
744.0,-0.1104
743.0,-0.1112
742.0,-0.1118
741.0,-0.1125
740.0,-0.1135
739.0,-0.1145
738.0,-0.1155
737.0,-0.1166
736.0,-0.1178
735.0,-0.1188
734.0,-0.1197
733.0,-0.1205
732.0,-0.1215
731.0,-0.1224
730.0,-0.1232
729.0,-0.1239
728.0,-0.1248
727.0,-0.1256
726.0,-0.1264
725.0,-0.1274
724.0,-0.1286
723.0,-0.1297
722.0,-0.1303
721.0,-0.1307
720.0,-0.1315
719.0,-0.1325
718.0,-0.1335
717.0,-0.1343
716.0,-0.1352
715.0,-0.136
714.0,-0.1368
713.0,-0.1379
712.0,-0.1391
711.0,-0.1401
710.0,-0.1408
709.0,-0.1415
708.0,-0.1423
707.0,-0.1431
706.0,-0.1439
705.0,-0.1452
704.0,-0.1468
703.0,-0.1482
702.0,-0.149
701.0,-0.1493
700.0,-0.1495
699.0,-0.1496
698.0,-0.1499
697.0,-0.1507
696.0,-0.1519
695.0,-0.1528
694.0,-0.1534
693.0,-0.1543
692.0,-0.1555
691.0,-0.1562
690.0,-0.1565
689.0,-0.1569
688.0,-0.158
687.0,-0.1592
686.0,-0.1597
685.0,-0.1597
684.0,-0.1591
683.0,-0.158
682.0,-0.1566
681.0,-0.1559
680.0,-0.1569
679.0,-0.1592
678.0,-0.1621
677.0,-0.1652
676.0,-0.1676
675.0,-0.1688
674.0,-0.1688
673.0,-0.1688
672.0,-0.1696
671.0,-0.1716
670.0,-0.1746
669.0,-0.1797
668.0,-0.1866
667.0,-0.1886
666.0,-0.1859
665.0,-0.1837
664.0,-0.1834
663.0,-0.1843
662.0,-0.1854
661.0,-0.1869
660.0,-0.1888
659.0,-0.1908
658.0,-0.1924
657.0,-0.1942
656.0,-0.1963
655.0,-0.198
654.0,-0.199
653.0,-0.2005
652.0,-0.2027
651.0,-0.2047
650.0,-0.2056
649.0,-0.2059
648.0,-0.2062
647.0,-0.2061
646.0,-0.2054
645.0,-0.205
644.0,-0.205
643.0,-0.2048
642.0,-0.2042
641.0,-0.2041
640.0,-0.2052
639.0,-0.2072
638.0,-0.2103
637.0,-0.215
636.0,-0.221
635.0,-0.2258
634.0,-0.2272
633.0,-0.2259
632.0,-0.2235
631.0,-0.2207
630.0,-0.2186
629.0,-0.2184
628.0,-0.2197
627.0,-0.2205
626.0,-0.2199
625.0,-0.2193
624.0,-0.2193
623.0,-0.2193
622.0,-0.2186
621.0,-0.2184
620.0,-0.2193
619.0,-0.2206
618.0,-0.2217
617.0,-0.2231
616.0,-0.2247
615.0,-0.2253
614.0,-0.2251
613.0,-0.2257
612.0,-0.2281
611.0,-0.2305
610.0,-0.2318
609.0,-0.2333
608.0,-0.2357
607.0,-0.2374
606.0,-0.2372
605.0,-0.2364
604.0,-0.237
603.0,-0.2386
602.0,-0.2409
601.0,-0.2454
600.0,-0.2528
