cm-1,A
4000.0,0.0014
3999.0,0.0015
3998.0,0.0015
3997.0,0.0015
3996.0,0.0014
3995.0,0.0014
3994.0,0.0014
3993.0,0.0015
3992.0,0.0015
3991.0,0.0015
3990.0,0.0014
3989.0,0.0014
3988.0,0.0013
3987.0,0.0013
3986.0,0.0014
3985.0,0.0015
3984.0,0.0016
3983.0,0.0016
3982.0,0.0016
3981.0,0.0015
3980.0,0.0015
3979.0,0.0015
3978.0,0.0015
3977.0,0.0015
3976.0,0.0015
3975.0,0.0015
3974.0,0.0015
3973.0,0.0015
3972.0,0.0016
3971.0,0.0016
3970.0,0.0016
3969.0,0.0016
3968.0,0.0016
3967.0,0.0016
3966.0,0.0016
3965.0,0.0016
3964.0,0.0016
3963.0,0.0016
3962.0,0.0017
3961.0,0.0017
3960.0,0.0017
3959.0,0.0017
3958.0,0.0016
3957.0,0.0016
3956.0,0.0017
3955.0,0.0018
3954.0,0.0018
3953.0,0.0018
3952.0,0.0018
3951.0,0.0018
3950.0,0.0018
3949.0,0.0018
3948.0,0.0018
3947.0,0.0018
3946.0,0.0018
3945.0,0.0017
3944.0,0.0016
3943.0,0.0016
3942.0,0.0016
3941.0,0.0016
3940.0,0.0016
3939.0,0.0015
3938.0,0.0015
3937.0,0.0016
3936.0,0.0017
3935.0,0.0017
3934.0,0.0017
3933.0,0.0017
3932.0,0.0017
3931.0,0.0017
3930.0,0.0017
3929.0,0.0018
3928.0,0.0018
3927.0,0.0018
3926.0,0.0017
3925.0,0.0016
3924.0,0.0017
3923.0,0.0017
3922.0,0.0018
3921.0,0.0018
3920.0,0.0018
3919.0,0.0019
3918.0,0.0019
3917.0,0.0019
3916.0,0.0019
3915.0,0.0019
3914.0,0.0019
3913.0,0.0018
3912.0,0.0018
3911.0,0.0018
3910.0,0.0019
3909.0,0.002
3908.0,0.002
3907.0,0.002
3906.0,0.0018
3905.0,0.0016
3904.0,0.0016
3903.0,0.0017
3902.0,0.0019
3901.0,0.002
3900.0,0.0021
3899.0,0.0021
3898.0,0.0021
3897.0,0.0021
3896.0,0.002
3895.0,0.002
3894.0,0.002
3893.0,0.0019
3892.0,0.0018
3891.0,0.0018
3890.0,0.0019
3889.0,0.002
3888.0,0.0019
3887.0,0.0018
3886.0,0.0018
3885.0,0.0021
3884.0,0.0024
3883.0,0.0025
3882.0,0.0023
3881.0,0.0022
3880.0,0.0022
3879.0,0.0022
3878.0,0.0022
3877.0,0.0022
3876.0,0.002
3875.0,0.002
3874.0,0.0022
3873.0,0.0025
3872.0,0.0024
3871.0,0.0021
3870.0,0.002
3869.0,0.0021
3868.0,0.0022
3867.0,0.0021
3866.0,0.002
3865.0,0.0019
3864.0,0.0021
3863.0,0.0022
3862.0,0.0021
3861.0,0.002
3860.0,0.0019
3859.0,0.0019
3858.0,0.002
3857.0,0.0024
3856.0,0.0024
3855.0,0.0023
3854.0,0.0023
3853.0,0.0026
3852.0,0.0027
3851.0,0.0026
3850.0,0.0024
3849.0,0.0022
3848.0,0.0021
3847.0,0.002
3846.0,0.002
3845.0,0.0019
3844.0,0.0019
3843.0,0.0021
3842.0,0.0023
3841.0,0.0024
3840.0,0.0024
3839.0,0.0023
3838.0,0.0023
3837.0,0.0023
3836.0,0.0023
3835.0,0.0022
3834.0,0.0021
3833.0,0.0019
3832.0,0.0018
3831.0,0.0019
3830.0,0.002
3829.0,0.002
3828.0,0.002
3827.0,0.0019
3826.0,0.002
3825.0,0.0023
3824.0,0.0023
3823.0,0.002
3822.0,0.0018
3821.0,0.002
3820.0,0.0023
3819.0,0.0024
3818.0,0.0023
3817.0,0.0021
3816.0,0.0021
3815.0,0.0022
3814.0,0.0021
3813.0,0.002
3812.0,0.0018
3811.0,0.0018
3810.0,0.0018
3809.0,0.0017
3808.0,0.0016
3807.0,0.0017
3806.0,0.0021
3805.0,0.0026
3804.0,0.0027
3803.0,0.0025
3802.0,0.0024
3801.0,0.0026
3800.0,0.0028
3799.0,0.0027
3798.0,0.0024
3797.0,0.0022
3796.0,0.0021
3795.0,0.0022
3794.0,0.0022
3793.0,0.0021
3792.0,0.0021
3791.0,0.0021
3790.0,0.0021
3789.0,0.0021
3788.0,0.0021
3787.0,0.002
3786.0,0.002
3785.0,0.002
3784.0,0.0021
3783.0,0.0022
3782.0,0.0022
3781.0,0.0021
3780.0,0.002
3779.0,0.002
3778.0,0.0021
3777.0,0.0021
3776.0,0.0021
3775.0,0.0021
3774.0,0.0021
3773.0,0.0022
3772.0,0.0022
3771.0,0.0021
3770.0,0.0022
3769.0,0.0022
3768.0,0.0022
3767.0,0.0021
3766.0,0.0019
3765.0,0.0019
3764.0,0.002
3763.0,0.0022
3762.0,0.0022
3761.0,0.0021
3760.0,0.0021
3759.0,0.002
3758.0,0.0019
3757.0,0.0019
3756.0,0.002
3755.0,0.0021
3754.0,0.0022
3753.0,0.0023
3752.0,0.0024
3751.0,0.0025
3750.0,0.0023
3749.0,0.0022
3748.0,0.0022
3747.0,0.0022
3746.0,0.002
3745.0,0.0018
3744.0,0.0018
3743.0,0.0019
3742.0,0.0018
3741.0,0.0017
3740.0,0.0018
3739.0,0.0019
3738.0,0.0019
3737.0,0.0017
3736.0,0.0016
3735.0,0.0015
3734.0,0.0014
3733.0,0.0013
3732.0,0.0012
3731.0,0.0012
3730.0,0.0013
3729.0,0.0013
3728.0,0.0012
3727.0,0.0013
3726.0,0.0014
3725.0,0.0015
3724.0,0.0014
3723.0,0.0014
3722.0,0.0014
3721.0,0.0015
3720.0,0.0016
3719.0,0.0016
3718.0,0.0016
3717.0,0.0017
3716.0,0.0018
3715.0,0.0019
3714.0,0.0018
3713.0,0.0018
3712.0,0.0018
3711.0,0.0018
3710.0,0.0018
3709.0,0.0016
3708.0,0.0014
3707.0,0.0013
3706.0,0.0013
3705.0,0.0015
3704.0,0.0017
3703.0,0.0018
3702.0,0.0018
3701.0,0.0018
3700.0,0.0017
3699.0,0.0016
3698.0,0.0015
3697.0,0.0016
3696.0,0.0017
3695.0,0.0018
3694.0,0.0018
3693.0,0.0019
3692.0,0.002
3691.0,0.0022
3690.0,0.0024
3689.0,0.0024
3688.0,0.0024
3687.0,0.0024
3686.0,0.0024
3685.0,0.0023
3684.0,0.0023
3683.0,0.0022
3682.0,0.0022
3681.0,0.0022
3680.0,0.0023
3679.0,0.0027
3678.0,0.0028
3677.0,0.0027
3676.0,0.0027
3675.0,0.0028
3674.0,0.003
3673.0,0.003
3672.0,0.0028
3671.0,0.0027
3670.0,0.003
3669.0,0.0033
3668.0,0.0033
3667.0,0.0032
3666.0,0.003
3665.0,0.003
3664.0,0.0029
3663.0,0.0029
3662.0,0.0029
3661.0,0.0029
3660.0,0.003
3659.0,0.003
3658.0,0.003
3657.0,0.003
3656.0,0.0029
3655.0,0.003
3654.0,0.0031
3653.0,0.0032
3652.0,0.0033
3651.0,0.0034
3650.0,0.0037
3649.0,0.0041
3648.0,0.0042
3647.0,0.0041
3646.0,0.004
3645.0,0.0038
3644.0,0.0037
3643.0,0.0037
3642.0,0.0037
3641.0,0.0038
3640.0,0.0037
3639.0,0.0036
3638.0,0.0036
3637.0,0.0037
3636.0,0.0037
3635.0,0.0037
3634.0,0.0037
3633.0,0.0037
3632.0,0.0038
3631.0,0.0038
3630.0,0.0039
3629.0,0.0045
3628.0,0.005
3627.0,0.0051
3626.0,0.005
3625.0,0.0049
3624.0,0.0049
3623.0,0.005
3622.0,0.0051
3621.0,0.0053
3620.0,0.0055
3619.0,0.0057
3618.0,0.0058
3617.0,0.0059
3616.0,0.0059
3615.0,0.0058
3614.0,0.0059
3613.0,0.0061
3612.0,0.0064
3611.0,0.0065
3610.0,0.0065
3609.0,0.0065
3608.0,0.0065
3607.0,0.0065
3606.0,0.0065
3605.0,0.0065
3604.0,0.0065
3603.0,0.0067
3602.0,0.0069
3601.0,0.0071
3600.0,0.0072
3599.0,0.0073
3598.0,0.0073
3597.0,0.0073
3596.0,0.0073
3595.0,0.0074
3594.0,0.0074
3593.0,0.0075
3592.0,0.0077
3591.0,0.0078
3590.0,0.008
3589.0,0.0081
3588.0,0.0084
3587.0,0.0087
3586.0,0.0088
3585.0,0.0087
3584.0,0.0087
3583.0,0.0088
3582.0,0.009
3581.0,0.0092
3580.0,0.0093
3579.0,0.0094
3578.0,0.0094
3577.0,0.0095
3576.0,0.0095
3575.0,0.0096
3574.0,0.0096
3573.0,0.0097
3572.0,0.0098
3571.0,0.01
3570.0,0.0102
3569.0,0.0104
3568.0,0.0108
3567.0,0.0114
3566.0,0.0119
3565.0,0.012
3564.0,0.012
3563.0,0.0119
3562.0,0.0119
3561.0,0.0119
3560.0,0.0121
3559.0,0.0123
3558.0,0.0125
3557.0,0.0126
3556.0,0.0126
3555.0,0.0127
3554.0,0.0129
3553.0,0.0131
3552.0,0.0134
3551.0,0.0136
3550.0,0.0138
3549.0,0.0139
3548.0,0.014
3547.0,0.0142
3546.0,0.0144
3545.0,0.0146
3544.0,0.0148
3543.0,0.0149
3542.0,0.0151
3541.0,0.0153
3540.0,0.0154
3539.0,0.0155
3538.0,0.0157
3537.0,0.0159
3536.0,0.0163
3535.0,0.0166
3534.0,0.0169
3533.0,0.0172
3532.0,0.0174
3531.0,0.0176
3530.0,0.0178
3529.0,0.0181
3528.0,0.0183
3527.0,0.0186
3526.0,0.0187
3525.0,0.0187
3524.0,0.0187
3523.0,0.0188
3522.0,0.019
3521.0,0.0193
3520.0,0.0196
3519.0,0.02
3518.0,0.0204
3517.0,0.0207
3516.0,0.0209
3515.0,0.0211
3514.0,0.0213
3513.0,0.0215
3512.0,0.0218
3511.0,0.0222
3510.0,0.0226
3509.0,0.0231
3508.0,0.0235
3507.0,0.0238
3506.0,0.0239
3505.0,0.0241
3504.0,0.0244
3503.0,0.0248
3502.0,0.0252
3501.0,0.0256
3500.0,0.0259
3499.0,0.0262
3498.0,0.0265
3497.0,0.0269
3496.0,0.0274
3495.0,0.0279
3494.0,0.0284
3493.0,0.0288
3492.0,0.0292
3491.0,0.0296
3490.0,0.03
3489.0,0.0304
3488.0,0.0309
3487.0,0.0314
3486.0,0.0319
3485.0,0.0324
3484.0,0.0328
3483.0,0.0332
3482.0,0.0337
3481.0,0.0341
3480.0,0.0347
3479.0,0.0352
3478.0,0.0358
3477.0,0.0364
3476.0,0.0368
3475.0,0.0372
3474.0,0.0377
3473.0,0.0383
3472.0,0.039
3471.0,0.0397
3470.0,0.0403
3469.0,0.0407
3468.0,0.0411
3467.0,0.0416
3466.0,0.0422
3465.0,0.0429
3464.0,0.0436
3463.0,0.0443
3462.0,0.0451
3461.0,0.0458
3460.0,0.0465
3459.0,0.0471
3458.0,0.0477
3457.0,0.0483
3456.0,0.0489
3455.0,0.0496
3454.0,0.0502
3453.0,0.0509
3452.0,0.0516
3451.0,0.0523
3450.0,0.0531
3449.0,0.054
3448.0,0.0549
3447.0,0.0557
3446.0,0.0565
3445.0,0.0571
3444.0,0.0577
3443.0,0.0585
3442.0,0.0593
3441.0,0.0602
3440.0,0.061
3439.0,0.0617
3438.0,0.0625
3437.0,0.0635
3436.0,0.0645
3435.0,0.0655
3434.0,0.0666
3433.0,0.0676
3432.0,0.0687
3431.0,0.0697
3430.0,0.0708
3429.0,0.0719
3428.0,0.0731
3427.0,0.0744
3426.0,0.0756
3425.0,0.0767
3424.0,0.0779
3423.0,0.079
3422.0,0.0801
3421.0,0.0813
3420.0,0.0826
3419.0,0.0838
3418.0,0.0849
3417.0,0.0859
3416.0,0.0868
3415.0,0.0878
3414.0,0.0889
3413.0,0.0901
3412.0,0.0913
3411.0,0.0924
3410.0,0.0934
3409.0,0.0945
3408.0,0.0956
3407.0,0.0966
3406.0,0.0976
3405.0,0.0985
3404.0,0.0994
3403.0,0.1003
3402.0,0.1012
3401.0,0.1019
3400.0,0.1027
3399.0,0.1036
3398.0,0.1046
3397.0,0.1056
3396.0,0.1066
3395.0,0.1073
3394.0,0.108
3393.0,0.1086
3392.0,0.1093
3391.0,0.11
3390.0,0.1105
3389.0,0.1109
3388.0,0.1113
3387.0,0.1118
3386.0,0.1121
3385.0,0.1123
3384.0,0.1122
3383.0,0.112
3382.0,0.1117
3381.0,0.1114
3380.0,0.1112
3379.0,0.1109
3378.0,0.1106
3377.0,0.1102
3376.0,0.1096
3375.0,0.109
3374.0,0.1083
3373.0,0.1074
3372.0,0.1066
3371.0,0.1057
3370.0,0.1048
3369.0,0.1038
3368.0,0.1027
3367.0,0.1015
3366.0,0.1003
3365.0,0.0992
3364.0,0.0981
3363.0,0.097
3362.0,0.096
3361.0,0.0951
3360.0,0.0941
3359.0,0.093
3358.0,0.0919
3357.0,0.0906
3356.0,0.0894
3355.0,0.0882
3354.0,0.087
3353.0,0.0859
3352.0,0.0848
3351.0,0.0837
3350.0,0.0826
3349.0,0.0816
3348.0,0.0806
3347.0,0.0795
3346.0,0.0783
3345.0,0.0771
3344.0,0.0759
3343.0,0.0747
3342.0,0.0734
3341.0,0.0723
3340.0,0.0712
3339.0,0.0702
3338.0,0.0693
3337.0,0.0683
3336.0,0.0673
3335.0,0.0664
3334.0,0.0654
3333.0,0.0645
3332.0,0.0635
3331.0,0.0626
3330.0,0.0617
3329.0,0.0608
3328.0,0.0599
3327.0,0.059
3326.0,0.0579
3325.0,0.0569
3324.0,0.0559
3323.0,0.055
3322.0,0.0543
3321.0,0.0535
3320.0,0.0528
3319.0,0.0519
3318.0,0.0511
3317.0,0.0504
3316.0,0.0496
3315.0,0.0489
3314.0,0.0483
3313.0,0.0476
3312.0,0.047
3311.0,0.0463
3310.0,0.0457
3309.0,0.045
3308.0,0.0442
3307.0,0.0435
3306.0,0.0429
3305.0,0.0424
3304.0,0.042
3303.0,0.0416
3302.0,0.0413
3301.0,0.0409
3300.0,0.0404
3299.0,0.0398
3298.0,0.0393
3297.0,0.0388
3296.0,0.0384
3295.0,0.038
3294.0,0.0376
3293.0,0.0371
3292.0,0.0366
3291.0,0.0362
3290.0,0.0359
3289.0,0.0356
3288.0,0.0354
3287.0,0.0351
3286.0,0.0347
3285.0,0.0344
3284.0,0.034
3283.0,0.0336
3282.0,0.0332
3281.0,0.0328
3280.0,0.0326
3279.0,0.0325
3278.0,0.0324
3277.0,0.0322
3276.0,0.0321
3275.0,0.0319
3274.0,0.0317
3273.0,0.0315
3272.0,0.0313
3271.0,0.0312
3270.0,0.031
3269.0,0.0308
3268.0,0.0307
3267.0,0.0307
3266.0,0.0308
3265.0,0.031
3264.0,0.0314
3263.0,0.0318
3262.0,0.0323
3261.0,0.0326
3260.0,0.0329
3259.0,0.0332
3258.0,0.0335
3257.0,0.034
3256.0,0.0344
3255.0,0.0349
3254.0,0.0353
3253.0,0.0356
3252.0,0.0358
3251.0,0.0361
3250.0,0.0363
3249.0,0.0365
3248.0,0.0366
3247.0,0.0367
3246.0,0.0367
3245.0,0.0367
3244.0,0.0367
3243.0,0.0366
3242.0,0.0362
3241.0,0.0358
3240.0,0.0354
3239.0,0.035
3238.0,0.0346
3237.0,0.0341
3236.0,0.0336
3235.0,0.0331
3234.0,0.0325
3233.0,0.0319
3232.0,0.0312
3231.0,0.0306
3230.0,0.0299
3229.0,0.0294
3228.0,0.0288
3227.0,0.0282
3226.0,0.0275
3225.0,0.0267
3224.0,0.0259
3223.0,0.0251
3222.0,0.0243
3221.0,0.0236
3220.0,0.0229
3219.0,0.0222
3218.0,0.0217
3217.0,0.0213
3216.0,0.0209
3215.0,0.0204
3214.0,0.0199
3213.0,0.0195
3212.0,0.0191
3211.0,0.0186
3210.0,0.0181
3209.0,0.0177
3208.0,0.0173
3207.0,0.0169
3206.0,0.0166
3205.0,0.0164
3204.0,0.016
3203.0,0.0155
3202.0,0.0151
3201.0,0.0148
3200.0,0.0146
3199.0,0.0145
3198.0,0.0144
3197.0,0.0143
3196.0,0.014
3195.0,0.0137
3194.0,0.0134
3193.0,0.0133
3192.0,0.0131
3191.0,0.0131
3190.0,0.0129
3189.0,0.0128
3188.0,0.0126
3187.0,0.0125
3186.0,0.0124
3185.0,0.0123
3184.0,0.0122
3183.0,0.012
3182.0,0.0118
3181.0,0.0116
3180.0,0.0114
3179.0,0.0114
3178.0,0.0113
3177.0,0.0113
3176.0,0.0111
3175.0,0.011
3174.0,0.0108
3173.0,0.0106
3172.0,0.0105
3171.0,0.0104
3170.0,0.0103
3169.0,0.0102
3168.0,0.0102
3167.0,0.0102
3166.0,0.0101
3165.0,0.01
3164.0,0.0099
3163.0,0.0097
3162.0,0.0096
3161.0,0.0096
3160.0,0.0095
3159.0,0.0095
3158.0,0.0094
3157.0,0.0094
3156.0,0.0094
3155.0,0.0093
3154.0,0.0093
3153.0,0.0092
3152.0,0.0091
3151.0,0.009
3150.0,0.0089
3149.0,0.0088
3148.0,0.0087
3147.0,0.0086
3146.0,0.0086
3145.0,0.0086
3144.0,0.0086
3143.0,0.0085
3142.0,0.0084
3141.0,0.0083
3140.0,0.0083
3139.0,0.0084
3138.0,0.0085
3137.0,0.0086
3136.0,0.0087
3135.0,0.0086
3134.0,0.0085
3133.0,0.0084
3132.0,0.0084
3131.0,0.0085
3130.0,0.0086
3129.0,0.0086
3128.0,0.0085
3127.0,0.0084
3126.0,0.0082
3125.0,0.0081
3124.0,0.0081
3123.0,0.0081
3122.0,0.0082
3121.0,0.0082
3120.0,0.0081
3119.0,0.0081
3118.0,0.0081
3117.0,0.0082
3116.0,0.0083
3115.0,0.0084
3114.0,0.0085
3113.0,0.0085
3112.0,0.0086
3111.0,0.0086
3110.0,0.0085
3109.0,0.0085
3108.0,0.0085
3107.0,0.0085
3106.0,0.0086
3105.0,0.0086
3104.0,0.0086
3103.0,0.0085
3102.0,0.0085
3101.0,0.0084
3100.0,0.0083
3099.0,0.0082
3098.0,0.0081
3097.0,0.0081
3096.0,0.0082
3095.0,0.0083
3094.0,0.0084
3093.0,0.0084
3092.0,0.0083
3091.0,0.0082
3090.0,0.0082
3089.0,0.0083
3088.0,0.0085
3087.0,0.0086
3086.0,0.0087
3085.0,0.0087
3084.0,0.0087
3083.0,0.0087
3082.0,0.0088
3081.0,0.0088
3080.0,0.0088
3079.0,0.0088
3078.0,0.0088
3077.0,0.0087
3076.0,0.0087
3075.0,0.0087
3074.0,0.0087
3073.0,0.0088
3072.0,0.0088
3071.0,0.0089
3070.0,0.009
3069.0,0.009
3068.0,0.009
3067.0,0.009
3066.0,0.0089
3065.0,0.0089
3064.0,0.0088
3063.0,0.0087
3062.0,0.0087
3061.0,0.0088
3060.0,0.0089
3059.0,0.009
3058.0,0.009
3057.0,0.0091
3056.0,0.0091
3055.0,0.0092
3054.0,0.0092
3053.0,0.0092
3052.0,0.0091
3051.0,0.009
3050.0,0.0088
3049.0,0.0087
3048.0,0.0086
3047.0,0.0085
3046.0,0.0084
3045.0,0.0083
3044.0,0.0082
3043.0,0.008
3042.0,0.0079
3041.0,0.0078
3040.0,0.0078
3039.0,0.0077
3038.0,0.0077
3037.0,0.0077
3036.0,0.0077
3035.0,0.0077
3034.0,0.0077
3033.0,0.0077
3032.0,0.0077
3031.0,0.0077
3030.0,0.0078
3029.0,0.0078
3028.0,0.0078
3027.0,0.0078
3026.0,0.0078
3025.0,0.0078
3024.0,0.0079
3023.0,0.008
3022.0,0.0081
3021.0,0.0082
3020.0,0.0083
3019.0,0.0084
3018.0,0.0084
3017.0,0.0085
3016.0,0.0086
3015.0,0.0087
3014.0,0.0088
3013.0,0.0088
3012.0,0.0088
3011.0,0.0089
3010.0,0.009
3009.0,0.0091
3008.0,0.0091
3007.0,0.0092
3006.0,0.0092
3005.0,0.0093
3004.0,0.0093
3003.0,0.0094
3002.0,0.0095
3001.0,0.0096
3000.0,0.0097
2999.0,0.0097
2998.0,0.0098
2997.0,0.0098
2996.0,0.01
2995.0,0.0101
2994.0,0.0102
2993.0,0.0102
2992.0,0.0102
2991.0,0.0103
2990.0,0.0104
2989.0,0.0105
2988.0,0.0107
2987.0,0.0109
2986.0,0.011
2985.0,0.0112
2984.0,0.0114
2983.0,0.0115
2982.0,0.0116
2981.0,0.0117
2980.0,0.0118
2979.0,0.0121
2978.0,0.0123
2977.0,0.0126
2976.0,0.0129
2975.0,0.0132
2974.0,0.0135
2973.0,0.0137
2972.0,0.014
2971.0,0.0143
2970.0,0.0146
2969.0,0.0148
2968.0,0.015
2967.0,0.0153
2966.0,0.0156
2965.0,0.0159
2964.0,0.0162
2963.0,0.0166
2962.0,0.0168
2961.0,0.017
2960.0,0.0171
2959.0,0.0171
2958.0,0.017
2957.0,0.017
2956.0,0.0169
2955.0,0.0168
2954.0,0.0167
2953.0,0.0166
2952.0,0.0164
2951.0,0.0161
2950.0,0.0158
2949.0,0.0155
2948.0,0.0152
2947.0,0.0149
2946.0,0.0146
2945.0,0.0144
2944.0,0.0141
2943.0,0.0138
2942.0,0.0135
2941.0,0.0132
2940.0,0.0129
2939.0,0.0127
2938.0,0.0125
2937.0,0.0125
2936.0,0.0124
2935.0,0.0124
2934.0,0.0123
2933.0,0.0122
2932.0,0.0121
2931.0,0.012
2930.0,0.0121
2929.0,0.0122
2928.0,0.0122
2927.0,0.0122
2926.0,0.0122
2925.0,0.0122
2924.0,0.0122
2923.0,0.0122
2922.0,0.0122
2921.0,0.0121
2920.0,0.012
2919.0,0.0119
2918.0,0.0118
2917.0,0.0117
2916.0,0.0116
2915.0,0.0115
2914.0,0.0115
2913.0,0.0114
2912.0,0.0114
2911.0,0.0114
2910.0,0.0114
2909.0,0.0114
2908.0,0.0114
2907.0,0.0115
2906.0,0.0114
2905.0,0.0114
2904.0,0.0114
2903.0,0.0113
2902.0,0.0114
2901.0,0.0114
2900.0,0.0115
2899.0,0.0115
2898.0,0.0116
2897.0,0.0116
2896.0,0.0117
2895.0,0.0117
2894.0,0.0118
2893.0,0.0118
2892.0,0.0118
2891.0,0.0118
2890.0,0.0117
2889.0,0.0116
2888.0,0.0116
2887.0,0.0116
2886.0,0.0116
2885.0,0.0116
2884.0,0.0116
2883.0,0.0116
2882.0,0.0116
2881.0,0.0115
2880.0,0.0115
2879.0,0.0114
2878.0,0.0112
2877.0,0.0111
2876.0,0.011
2875.0,0.011
2874.0,0.011
2873.0,0.011
2872.0,0.011
2871.0,0.011
2870.0,0.011
2869.0,0.0109
2868.0,0.0108
2867.0,0.0107
2866.0,0.0106
2865.0,0.0106
2864.0,0.0105
2863.0,0.0105
2862.0,0.0106
2861.0,0.0108
2860.0,0.011
2859.0,0.0111
2858.0,0.0111
2857.0,0.0111
2856.0,0.011
2855.0,0.011
2854.0,0.011
2853.0,0.011
2852.0,0.011
2851.0,0.0109
2850.0,0.0108
2849.0,0.0106
2848.0,0.0105
2847.0,0.0103
2846.0,0.0102
2845.0,0.01
2844.0,0.0099
2843.0,0.0098
2842.0,0.0097
2841.0,0.0096
2840.0,0.0095
2839.0,0.0095
2838.0,0.0094
2837.0,0.0093
2836.0,0.0093
2835.0,0.0093
2834.0,0.0093
2833.0,0.0093
2832.0,0.0093
2831.0,0.0092
2830.0,0.0091
2829.0,0.0091
2828.0,0.0091
2827.0,0.0091
2826.0,0.0091
2825.0,0.0091
2824.0,0.0092
2823.0,0.0092
2822.0,0.0091
2821.0,0.0091
2820.0,0.0092
2819.0,0.0092
2818.0,0.0091
2817.0,0.0091
2816.0,0.009
2815.0,0.009
2814.0,0.009
2813.0,0.0091
2812.0,0.0091
2811.0,0.009
2810.0,0.009
2809.0,0.009
2808.0,0.009
2807.0,0.009
2806.0,0.009
2805.0,0.009
2804.0,0.0089
2803.0,0.0088
2802.0,0.0088
2801.0,0.0088
2800.0,0.0088
2799.0,0.0089
2798.0,0.0089
2797.0,0.0089
2796.0,0.0089
2795.0,0.0089
2794.0,0.0088
2793.0,0.0088
2792.0,0.0088
2791.0,0.0087
2790.0,0.0087
2789.0,0.0087
2788.0,0.0087
2787.0,0.0087
2786.0,0.0088
2785.0,0.0089
2784.0,0.0089
2783.0,0.0088
2782.0,0.0088
2781.0,0.0087
2780.0,0.0086
2779.0,0.0086
2778.0,0.0086
2777.0,0.0086
2776.0,0.0087
2775.0,0.0087
2774.0,0.0087
2773.0,0.0087
2772.0,0.0086
2771.0,0.0086
2770.0,0.0086
2769.0,0.0087
2768.0,0.0087
2767.0,0.0087
2766.0,0.0087
2765.0,0.0087
2764.0,0.0087
2763.0,0.0087
2762.0,0.0087
2761.0,0.0087
2760.0,0.0087
2759.0,0.0087
2758.0,0.0087
2757.0,0.0087
2756.0,0.0088
2755.0,0.0088
2754.0,0.0087
2753.0,0.0087
2752.0,0.0087
2751.0,0.0087
2750.0,0.0086
2749.0,0.0086
2748.0,0.0085
2747.0,0.0085
2746.0,0.0085
2745.0,0.0085
2744.0,0.0086
2743.0,0.0086
2742.0,0.0087
2741.0,0.0086
2740.0,0.0085
2739.0,0.0085
2738.0,0.0084
2737.0,0.0085
2736.0,0.0085
2735.0,0.0085
2734.0,0.0086
2733.0,0.0086
2732.0,0.0085
2731.0,0.0085
2730.0,0.0084
2729.0,0.0084
2728.0,0.0084
2727.0,0.0084
2726.0,0.0084
2725.0,0.0084
2724.0,0.0084
2723.0,0.0084
2722.0,0.0083
2721.0,0.0083
2720.0,0.0083
2719.0,0.0083
2718.0,0.0083
2717.0,0.0083
2716.0,0.0083
2715.0,0.0082
2714.0,0.0081
2713.0,0.0081
2712.0,0.0081
2711.0,0.0081
2710.0,0.0081
2709.0,0.0081
2708.0,0.0081
2707.0,0.0081
2706.0,0.0081
2705.0,0.0081
2704.0,0.0082
2703.0,0.0081
2702.0,0.0081
2701.0,0.0081
2700.0,0.0081
2699.0,0.0081
2698.0,0.0081
2697.0,0.0081
2696.0,0.0081
2695.0,0.0081
2694.0,0.008
2693.0,0.008
2692.0,0.008
2691.0,0.008
2690.0,0.008
2689.0,0.0081
2688.0,0.0081
2687.0,0.0081
2686.0,0.0081
2685.0,0.008
2684.0,0.008
2683.0,0.008
2682.0,0.008
2681.0,0.008
2680.0,0.0081
2679.0,0.0081
2678.0,0.0081
2677.0,0.0082
2676.0,0.0082
2675.0,0.0082
2674.0,0.0081
2673.0,0.008
2672.0,0.0079
2671.0,0.0078
2670.0,0.0078
2669.0,0.0079
2668.0,0.0079
2667.0,0.008
2666.0,0.008
2665.0,0.0079
2664.0,0.0079
2663.0,0.0079
2662.0,0.008
2661.0,0.008
2660.0,0.008
2659.0,0.008
2658.0,0.008
2657.0,0.0079
2656.0,0.0079
2655.0,0.0079
2654.0,0.0079
2653.0,0.0079
2652.0,0.0079
2651.0,0.0079
2650.0,0.008
2649.0,0.008
2648.0,0.008
2647.0,0.008
2646.0,0.0079
2645.0,0.0078
2644.0,0.0077
2643.0,0.0077
2642.0,0.0078
2641.0,0.0078
2640.0,0.0079
2639.0,0.0079
2638.0,0.0079
2637.0,0.0078
2636.0,0.0078
2635.0,0.0078
2634.0,0.0078
2633.0,0.0079
2632.0,0.0079
2631.0,0.008
2630.0,0.0081
2629.0,0.0081
2628.0,0.0081
2627.0,0.008
2626.0,0.008
2625.0,0.0079
2624.0,0.0078
2623.0,0.0078
2622.0,0.0079
2621.0,0.0079
2620.0,0.0079
2619.0,0.008
2618.0,0.008
2617.0,0.0079
2616.0,0.0079
2615.0,0.0079
2614.0,0.0078
2613.0,0.0079
2612.0,0.0079
2611.0,0.0079
2610.0,0.0079
2609.0,0.008
2608.0,0.008
2607.0,0.008
2606.0,0.0081
2605.0,0.0081
2604.0,0.008
2603.0,0.008
2602.0,0.0079
2601.0,0.0079
2600.0,0.0078
2599.0,0.0078
2598.0,0.0079
2597.0,0.0079
2596.0,0.0079
2595.0,0.0079
2594.0,0.0079
2593.0,0.0079
2592.0,0.008
2591.0,0.0081
2590.0,0.0081
2589.0,0.008
2588.0,0.008
2587.0,0.0079
2586.0,0.008
2585.0,0.008
2584.0,0.0081
2583.0,0.0081
2582.0,0.0081
2581.0,0.0082
2580.0,0.0082
2579.0,0.0082
2578.0,0.0082
2577.0,0.0082
2576.0,0.0082
2575.0,0.0082
2574.0,0.0081
2573.0,0.0081
2572.0,0.008
2571.0,0.0081
2570.0,0.0081
2569.0,0.0081
2568.0,0.0081
2567.0,0.0081
2566.0,0.0081
2565.0,0.0081
2564.0,0.008
2563.0,0.008
2562.0,0.008
2561.0,0.008
2560.0,0.008
2559.0,0.008
2558.0,0.008
2557.0,0.0081
2556.0,0.0081
2555.0,0.0082
2554.0,0.0082
2553.0,0.0082
2552.0,0.0081
2551.0,0.0081
2550.0,0.0081
2549.0,0.0081
2548.0,0.0081
2547.0,0.0081
2546.0,0.0082
2545.0,0.0081
2544.0,0.0081
2543.0,0.0081
2542.0,0.0081
2541.0,0.008
2540.0,0.008
2539.0,0.008
2538.0,0.008
2537.0,0.0081
2536.0,0.0082
2535.0,0.0082
2534.0,0.0082
2533.0,0.0081
2532.0,0.0081
2531.0,0.008
2530.0,0.008
2529.0,0.008
2528.0,0.008
2527.0,0.008
2526.0,0.008
2525.0,0.0081
2524.0,0.0081
2523.0,0.0082
2522.0,0.0081
2521.0,0.0081
2520.0,0.0081
2519.0,0.0081
2518.0,0.0081
2517.0,0.008
2516.0,0.008
2515.0,0.008
2514.0,0.0079
2513.0,0.0078
2512.0,0.0078
2511.0,0.0078
2510.0,0.0079
2509.0,0.0079
2508.0,0.0079
2507.0,0.0079
2506.0,0.0079
2505.0,0.0079
2504.0,0.0079
2503.0,0.0079
2502.0,0.0079
2501.0,0.008
2500.0,0.008
2499.0,0.008
2498.0,0.008
2497.0,0.0079
2496.0,0.0079
2495.0,0.0078
2494.0,0.0078
2493.0,0.0078
2492.0,0.0078
2491.0,0.0078
2490.0,0.0077
2489.0,0.0077
2488.0,0.0077
2487.0,0.0077
2486.0,0.0077
2485.0,0.0077
2484.0,0.0077
2483.0,0.0077
2482.0,0.0077
2481.0,0.0076
2480.0,0.0076
2479.0,0.0075
2478.0,0.0075
2477.0,0.0076
2476.0,0.0076
2475.0,0.0075
2474.0,0.0075
2473.0,0.0075
2472.0,0.0075
2471.0,0.0074
2470.0,0.0074
2469.0,0.0073
2468.0,0.0073
2467.0,0.0074
2466.0,0.0075
2465.0,0.0075
2464.0,0.0076
2463.0,0.0076
2462.0,0.0075
2461.0,0.0075
2460.0,0.0074
2459.0,0.0074
2458.0,0.0074
2457.0,0.0073
2456.0,0.0073
2455.0,0.0073
2454.0,0.0074
2453.0,0.0074
2452.0,0.0074
2451.0,0.0074
2450.0,0.0074
2449.0,0.0074
2448.0,0.0073
2447.0,0.0073
2446.0,0.0073
2445.0,0.0073
2444.0,0.0073
2443.0,0.0073
2442.0,0.0074
2441.0,0.0074
2440.0,0.0074
2439.0,0.0074
2438.0,0.0075
2437.0,0.0075
2436.0,0.0074
2435.0,0.0074
2434.0,0.0074
2433.0,0.0074
2432.0,0.0074
2431.0,0.0074
2430.0,0.0074
2429.0,0.0074
2428.0,0.0075
2427.0,0.0075
2426.0,0.0075
2425.0,0.0075
2424.0,0.0075
2423.0,0.0075
2422.0,0.0075
2421.0,0.0076
2420.0,0.0076
2419.0,0.0076
2418.0,0.0076
2417.0,0.0076
2416.0,0.0076
2415.0,0.0076
2414.0,0.0077
2413.0,0.0077
2412.0,0.0078
2411.0,0.0079
2410.0,0.0079
2409.0,0.0078
2408.0,0.0078
2407.0,0.0078
2406.0,0.0078
2405.0,0.0078
2404.0,0.0077
2403.0,0.0077
2402.0,0.0078
2401.0,0.0079
2400.0,0.0079
2399.0,0.008
2398.0,0.008
2397.0,0.008
2396.0,0.0079
2395.0,0.0079
2394.0,0.008
2393.0,0.008
2392.0,0.0079
2391.0,0.0079
2390.0,0.0079
2389.0,0.008
2388.0,0.0081
2387.0,0.0082
2386.0,0.0081
2385.0,0.008
2384.0,0.0078
2383.0,0.0078
2382.0,0.0078
2381.0,0.0078
2380.0,0.0078
2379.0,0.0077
2378.0,0.0076
2377.0,0.0075
2376.0,0.0077
2375.0,0.0078
2374.0,0.0079
2373.0,0.0078
2372.0,0.0077
2371.0,0.0074
2370.0,0.0069
2369.0,0.0063
2368.0,0.0061
2367.0,0.0065
2366.0,0.0072
2365.0,0.0078
2364.0,0.0085
2363.0,0.009
2362.0,0.0091
2361.0,0.0086
2360.0,0.0083
2359.0,0.0082
2358.0,0.0078
2357.0,0.0068
2356.0,0.0056
2355.0,0.0048
2354.0,0.0049
2353.0,0.0058
2352.0,0.0067
2351.0,0.0069
2350.0,0.0062
2349.0,0.0051
2348.0,0.0044
2347.0,0.0045
2346.0,0.0054
2345.0,0.0063
2344.0,0.0067
2343.0,0.0065
2342.0,0.0062
2341.0,0.0058
2340.0,0.0057
2339.0,0.0059
2338.0,0.0061
2337.0,0.0061
2336.0,0.006
2335.0,0.0061
2334.0,0.0063
2333.0,0.0067
2332.0,0.0069
2331.0,0.007
2330.0,0.0069
2329.0,0.0069
2328.0,0.0068
2327.0,0.0067
2326.0,0.0066
2325.0,0.0068
2324.0,0.0071
2323.0,0.0075
2322.0,0.0076
2321.0,0.0075
2320.0,0.0074
2319.0,0.0075
2318.0,0.0075
2317.0,0.0075
2316.0,0.0074
2315.0,0.0074
2314.0,0.0075
2313.0,0.0077
2312.0,0.0078
2311.0,0.0079
2310.0,0.0079
2309.0,0.0079
2308.0,0.008
2307.0,0.0081
2306.0,0.0082
2305.0,0.0083
2304.0,0.0083
2303.0,0.0083
2302.0,0.0083
2301.0,0.0083
2300.0,0.0082
2299.0,0.0082
2298.0,0.0083
2297.0,0.0083
2296.0,0.0084
2295.0,0.0084
2294.0,0.0085
2293.0,0.0086
2292.0,0.0088
2291.0,0.009
2290.0,0.0092
2289.0,0.0093
2288.0,0.0094
2287.0,0.0096
2286.0,0.0097
2285.0,0.0098
2284.0,0.0097
2283.0,0.0097
2282.0,0.0096
2281.0,0.0095
2280.0,0.0095
2279.0,0.0095
2278.0,0.0095
2277.0,0.0095
2276.0,0.0095
2275.0,0.0096
2274.0,0.0096
2273.0,0.0096
2272.0,0.0097
2271.0,0.0097
2270.0,0.0097
2269.0,0.0097
2268.0,0.0097
2267.0,0.0097
2266.0,0.0097
2265.0,0.0097
2264.0,0.0097
2263.0,0.0097
2262.0,0.0097
2261.0,0.0096
2260.0,0.0096
2259.0,0.0096
2258.0,0.0096
2257.0,0.0096
2256.0,0.0097
2255.0,0.0097
2254.0,0.0097
2253.0,0.0098
2252.0,0.0098
2251.0,0.0098
2250.0,0.0098
2249.0,0.0098
2248.0,0.0098
2247.0,0.0098
2246.0,0.0097
2245.0,0.0097
2244.0,0.0096
2243.0,0.0096
2242.0,0.0096
2241.0,0.0096
2240.0,0.0096
2239.0,0.0096
2238.0,0.0096
2237.0,0.0096
2236.0,0.0095
2235.0,0.0095
2234.0,0.0096
2233.0,0.0095
2232.0,0.0095
2231.0,0.0095
2230.0,0.0095
2229.0,0.0095
2228.0,0.0094
2227.0,0.0094
2226.0,0.0093
2225.0,0.0092
2224.0,0.0092
2223.0,0.0092
2222.0,0.0092
2221.0,0.0093
2220.0,0.0093
2219.0,0.0093
2218.0,0.0092
2217.0,0.0091
2216.0,0.0091
2215.0,0.009
2214.0,0.0089
2213.0,0.0089
2212.0,0.0088
2211.0,0.0088
2210.0,0.0088
2209.0,0.0089
2208.0,0.0089
2207.0,0.0089
2206.0,0.0088
2205.0,0.0087
2204.0,0.0086
2203.0,0.0086
2202.0,0.0087
2201.0,0.0087
2200.0,0.0087
2199.0,0.0086
2198.0,0.0086
2197.0,0.0086
2196.0,0.0086
2195.0,0.0086
2194.0,0.0086
2193.0,0.0086
2192.0,0.0086
2191.0,0.0086
2190.0,0.0085
2189.0,0.0085
2188.0,0.0084
2187.0,0.0083
2186.0,0.0083
2185.0,0.0083
2184.0,0.0083
2183.0,0.0083
2182.0,0.0083
2181.0,0.0082
2180.0,0.0082
2179.0,0.0081
2178.0,0.0081
2177.0,0.0081
2176.0,0.0082
2175.0,0.0082
2174.0,0.0082
2173.0,0.0082
2172.0,0.0082
2171.0,0.0082
2170.0,0.0082
2169.0,0.0082
2168.0,0.0081
2167.0,0.0081
2166.0,0.008
2165.0,0.008
2164.0,0.0081
2163.0,0.0081
2162.0,0.0081
2161.0,0.0081
2160.0,0.0081
2159.0,0.0081
2158.0,0.0081
2157.0,0.0081
2156.0,0.0081
2155.0,0.0081
2154.0,0.0081
2153.0,0.008
2152.0,0.008
2151.0,0.0081
2150.0,0.0081
2149.0,0.0081
2148.0,0.0081
2147.0,0.0081
2146.0,0.0081
2145.0,0.0081
2144.0,0.0081
2143.0,0.0081
2142.0,0.0082
2141.0,0.0082
2140.0,0.0082
2139.0,0.0081
2138.0,0.0081
2137.0,0.0081
2136.0,0.0081
2135.0,0.0081
2134.0,0.0081
2133.0,0.008
2132.0,0.008
2131.0,0.008
2130.0,0.0079
2129.0,0.0079
2128.0,0.0078
2127.0,0.0078
2126.0,0.0079
2125.0,0.0079
2124.0,0.0079
2123.0,0.0079
2122.0,0.0079
2121.0,0.008
2120.0,0.0079
2119.0,0.008
2118.0,0.008
2117.0,0.0079
2116.0,0.0079
2115.0,0.0079
2114.0,0.0079
2113.0,0.0078
2112.0,0.0078
2111.0,0.0078
2110.0,0.0078
2109.0,0.0078
2108.0,0.0078
2107.0,0.0078
2106.0,0.0078
2105.0,0.0077
2104.0,0.0077
2103.0,0.0076
2102.0,0.0076
2101.0,0.0077
2100.0,0.0077
2099.0,0.0077
2098.0,0.0077
2097.0,0.0076
2096.0,0.0076
2095.0,0.0076
2094.0,0.0076
2093.0,0.0076
2092.0,0.0075
2091.0,0.0075
2090.0,0.0075
2089.0,0.0075
2088.0,0.0074
2087.0,0.0074
2086.0,0.0074
2085.0,0.0074
2084.0,0.0074
2083.0,0.0075
2082.0,0.0075
2081.0,0.0075
2080.0,0.0074
2079.0,0.0074
2078.0,0.0074
2077.0,0.0074
2076.0,0.0074
2075.0,0.0074
2074.0,0.0073
2073.0,0.0073
2072.0,0.0072
2071.0,0.0072
2070.0,0.0072
2069.0,0.0071
2068.0,0.0071
2067.0,0.007
2066.0,0.007
2065.0,0.007
2064.0,0.007
2063.0,0.0069
2062.0,0.0069
2061.0,0.0068
2060.0,0.0067
2059.0,0.0066
2058.0,0.0066
2057.0,0.0066
2056.0,0.0066
2055.0,0.0066
2054.0,0.0066
2053.0,0.0065
2052.0,0.0064
2051.0,0.0064
2050.0,0.0063
2049.0,0.0063
2048.0,0.0063
2047.0,0.0063
2046.0,0.0063
2045.0,0.0063
2044.0,0.0063
2043.0,0.0063
2042.0,0.0062
2041.0,0.0062
2040.0,0.0062
2039.0,0.0061
2038.0,0.0061
2037.0,0.0061
2036.0,0.0061
2035.0,0.0061
2034.0,0.0061
2033.0,0.0061
2032.0,0.0061
2031.0,0.0061
2030.0,0.0061
2029.0,0.006
2028.0,0.0059
2027.0,0.0058
2026.0,0.0058
2025.0,0.0058
2024.0,0.0058
2023.0,0.0059
2022.0,0.0059
2021.0,0.0059
2020.0,0.0059
2019.0,0.0059
2018.0,0.0059
2017.0,0.0059
2016.0,0.0058
2015.0,0.0058
2014.0,0.0058
2013.0,0.0057
2012.0,0.0058
2011.0,0.0058
2010.0,0.0058
2009.0,0.0058
2008.0,0.0059
2007.0,0.0059
2006.0,0.0059
2005.0,0.0059
2004.0,0.0059
2003.0,0.0059
2002.0,0.0059
2001.0,0.0059
2000.0,0.0059
1999.0,0.006
1998.0,0.006
1997.0,0.006
1996.0,0.0061
1995.0,0.0062
1994.0,0.0062
1993.0,0.0062
1992.0,0.0062
1991.0,0.0062
1990.0,0.0062
1989.0,0.0062
1988.0,0.0062
1987.0,0.0062
1986.0,0.0062
1985.0,0.0062
1984.0,0.0062
1983.0,0.0062
1982.0,0.0062
1981.0,0.0062
1980.0,0.0061
1979.0,0.0061
1978.0,0.0061
1977.0,0.0061
1976.0,0.0061
1975.0,0.0062
1974.0,0.0062
1973.0,0.0062
1972.0,0.0062
1971.0,0.0063
1970.0,0.0064
1969.0,0.0064
1968.0,0.0065
1967.0,0.0065
1966.0,0.0066
1965.0,0.0067
1964.0,0.0067
1963.0,0.0068
1962.0,0.0068
1961.0,0.0068
1960.0,0.0068
1959.0,0.0068
1958.0,0.0069
1957.0,0.0069
1956.0,0.007
1955.0,0.0071
1954.0,0.0072
1953.0,0.0072
1952.0,0.0072
1951.0,0.0073
1950.0,0.0073
1949.0,0.0073
1948.0,0.0073
1947.0,0.0073
1946.0,0.0073
1945.0,0.0073
1944.0,0.0072
1943.0,0.0071
1942.0,0.007
1941.0,0.0069
1940.0,0.0067
1939.0,0.0066
1938.0,0.0065
1937.0,0.0064
1936.0,0.0063
1935.0,0.0062
1934.0,0.0061
1933.0,0.006
1932.0,0.0059
1931.0,0.0058
1930.0,0.0058
1929.0,0.0057
1928.0,0.0056
1927.0,0.0057
1926.0,0.0057
1925.0,0.0058
1924.0,0.0057
1923.0,0.0056
1922.0,0.0055
1921.0,0.0054
1920.0,0.0053
1919.0,0.0051
1918.0,0.005
1917.0,0.0049
1916.0,0.0049
1915.0,0.0048
1914.0,0.0047
1913.0,0.0047
1912.0,0.0046
1911.0,0.0046
1910.0,0.0046
1909.0,0.0045
1908.0,0.0045
1907.0,0.0044
1906.0,0.0044
1905.0,0.0043
1904.0,0.0041
1903.0,0.0041
1902.0,0.004
1901.0,0.004
1900.0,0.0039
1899.0,0.004
1898.0,0.004
1897.0,0.004
1896.0,0.0039
1895.0,0.0038
1894.0,0.0037
1893.0,0.0037
1892.0,0.0037
1891.0,0.0037
1890.0,0.0036
1889.0,0.0035
1888.0,0.0034
1887.0,0.0033
1886.0,0.0033
1885.0,0.0032
1884.0,0.0031
1883.0,0.0031
1882.0,0.0031
1881.0,0.0031
1880.0,0.0031
1879.0,0.0031
1878.0,0.0031
1877.0,0.003
1876.0,0.003
1875.0,0.003
1874.0,0.003
1873.0,0.0031
1872.0,0.0032
1871.0,0.0032
1870.0,0.0032
1869.0,0.0031
1868.0,0.003
1867.0,0.003
1866.0,0.0029
1865.0,0.0028
1864.0,0.0028
1863.0,0.0027
1862.0,0.0027
1861.0,0.0026
1860.0,0.0026
1859.0,0.0025
1858.0,0.0025
1857.0,0.0024
1856.0,0.0024
1855.0,0.0024
1854.0,0.0025
1853.0,0.0025
1852.0,0.0025
1851.0,0.0025
1850.0,0.0025
1849.0,0.0026
1848.0,0.0027
1847.0,0.0028
1846.0,0.0028
1845.0,0.0027
1844.0,0.0025
1843.0,0.0023
1842.0,0.0023
1841.0,0.0022
1840.0,0.0021
1839.0,0.0021
1838.0,0.0021
1837.0,0.0021
1836.0,0.0021
1835.0,0.0021
1834.0,0.0023
1833.0,0.0024
1832.0,0.0025
1831.0,0.0024
1830.0,0.0024
1829.0,0.0023
1828.0,0.0023
1827.0,0.0023
1826.0,0.0023
1825.0,0.0021
1824.0,0.0019
1823.0,0.0018
1822.0,0.0017
1821.0,0.0017
1820.0,0.0016
1819.0,0.0016
1818.0,0.0015
1817.0,0.0014
1816.0,0.0013
1815.0,0.0012
1814.0,0.0012
1813.0,0.0011
1812.0,0.0009
1811.0,0.0008
1810.0,0.0008
1809.0,0.0006
1808.0,0.0005
1807.0,0.0004
1806.0,0.0004
1805.0,0.0004
1804.0,0.0005
1803.0,0.0005
1802.0,0.0003
1801.0,0.0001
1800.0,-0.0001
1799.0,-0.0002
1798.0,-0.0002
1797.0,-0.0003
1796.0,-0.0004
1795.0,-0.0004
1794.0,-0.0005
1793.0,-0.0008
1792.0,-0.0011
1791.0,-0.0011
1790.0,-0.0012
1789.0,-0.0012
1788.0,-0.0013
1787.0,-0.0013
1786.0,-0.0014
1785.0,-0.0016
1784.0,-0.0017
1783.0,-0.0017
1782.0,-0.0017
1781.0,-0.0018
1780.0,-0.0019
1779.0,-0.0019
1778.0,-0.002
1777.0,-0.002
1776.0,-0.0021
1775.0,-0.0021
1774.0,-0.0023
1773.0,-0.0027
1772.0,-0.0029
1771.0,-0.0028
1770.0,-0.0028
1769.0,-0.003
1768.0,-0.0032
1767.0,-0.0033
1766.0,-0.0033
1765.0,-0.0032
1764.0,-0.0032
1763.0,-0.0031
1762.0,-0.003
1761.0,-0.003
1760.0,-0.0029
1759.0,-0.0025
1758.0,-0.0022
1757.0,-0.0019
1756.0,-0.0014
1755.0,-0.0006
1754.0,0.0003
1753.0,0.0013
1752.0,0.0025
1751.0,0.0044
1750.0,0.0067
1749.0,0.0091
1748.0,0.012
1747.0,0.0154
1746.0,0.0193
1745.0,0.0237
1744.0,0.0291
1743.0,0.0351
1742.0,0.0413
1741.0,0.0486
1740.0,0.0576
1739.0,0.067
1738.0,0.0742
1737.0,0.0793
1736.0,0.0853
1735.0,0.0966
1734.0,0.1129
1733.0,0.126
1732.0,0.1345
1731.0,0.1428
1730.0,0.1524
1729.0,0.1625
1728.0,0.1718
1727.0,0.1804
1726.0,0.1892
1725.0,0.1988
1724.0,0.2093
1723.0,0.2193
1722.0,0.2271
1721.0,0.232
1720.0,0.2355
1719.0,0.2415
1718.0,0.2519
1717.0,0.2615
1716.0,0.2652
1715.0,0.2648
1714.0,0.2618
1713.0,0.256
1712.0,0.2474
1711.0,0.2373
1710.0,0.2261
1709.0,0.2143
1708.0,0.2017
1707.0,0.1882
1706.0,0.1744
1705.0,0.1622
1704.0,0.1525
1703.0,0.1441
1702.0,0.1356
1701.0,0.126
1700.0,0.1172
1699.0,0.1107
1698.0,0.1056
1697.0,0.1007
1696.0,0.096
1695.0,0.0919
1694.0,0.0886
1693.0,0.0857
1692.0,0.083
1691.0,0.0802
1690.0,0.0777
1689.0,0.0757
1688.0,0.0739
1687.0,0.072
1686.0,0.0698
1685.0,0.0685
1684.0,0.0682
1683.0,0.0674
1682.0,0.0658
1681.0,0.0642
1680.0,0.0626
1679.0,0.0611
1678.0,0.0595
1677.0,0.058
1676.0,0.0568
1675.0,0.0558
1674.0,0.0548
1673.0,0.0537
1672.0,0.0526
1671.0,0.0514
1670.0,0.0504
1669.0,0.0496
1668.0,0.0489
1667.0,0.0479
1666.0,0.0468
1665.0,0.0457
1664.0,0.0449
1663.0,0.0443
1662.0,0.0439
1661.0,0.0435
1660.0,0.0432
1659.0,0.0429
1658.0,0.0427
1657.0,0.0426
1656.0,0.0424
1655.0,0.0421
1654.0,0.0438
1653.0,0.0482
1652.0,0.0512
1651.0,0.0522
1650.0,0.053
1649.0,0.0543
1648.0,0.0574
1647.0,0.0626
1646.0,0.0673
1645.0,0.0701
1644.0,0.0723
1643.0,0.0746
1642.0,0.0773
1641.0,0.0803
1640.0,0.0833
1639.0,0.0856
1638.0,0.0871
1637.0,0.088
1636.0,0.0882
1635.0,0.0869
1634.0,0.0843
1633.0,0.0811
1632.0,0.0775
1631.0,0.0736
1630.0,0.0695
1629.0,0.0653
1628.0,0.0613
1627.0,0.0576
1626.0,0.0544
1625.0,0.0512
1624.0,0.0478
1623.0,0.0444
1622.0,0.042
1621.0,0.0403
1620.0,0.0389
1619.0,0.0375
1618.0,0.0365
1617.0,0.0363
1616.0,0.0364
1615.0,0.0363
1614.0,0.0358
1613.0,0.0351
1612.0,0.0343
1611.0,0.0333
1610.0,0.0324
1609.0,0.0315
1608.0,0.0306
1607.0,0.0297
1606.0,0.0289
1605.0,0.0281
1604.0,0.0275
1603.0,0.0268
1602.0,0.0262
1601.0,0.0256
1600.0,0.025
1599.0,0.0243
1598.0,0.0238
1597.0,0.0234
1596.0,0.0231
1595.0,0.0228
1594.0,0.0226
1593.0,0.0225
1592.0,0.0224
1591.0,0.0222
1590.0,0.0221
1589.0,0.0221
1588.0,0.0222
1587.0,0.0225
1586.0,0.0231
1585.0,0.0241
1584.0,0.0255
1583.0,0.0272
1582.0,0.0292
1581.0,0.0312
1580.0,0.0326
1579.0,0.0333
1578.0,0.0333
1577.0,0.0326
1576.0,0.0316
1575.0,0.0304
1574.0,0.0293
1573.0,0.0283
1572.0,0.0273
1571.0,0.0262
1570.0,0.0252
1569.0,0.0245
1568.0,0.0238
1567.0,0.0232
1566.0,0.0226
1565.0,0.0222
1564.0,0.0219
1563.0,0.0217
1562.0,0.0216
1561.0,0.0215
1560.0,0.0212
1559.0,0.0212
1558.0,0.0211
1557.0,0.0207
1556.0,0.0202
1555.0,0.0197
1554.0,0.0194
1553.0,0.0192
1552.0,0.0191
1551.0,0.0189
1550.0,0.0187
1549.0,0.0185
1548.0,0.0184
1547.0,0.0182
1546.0,0.0182
1545.0,0.0182
1544.0,0.0182
1543.0,0.0181
1542.0,0.0179
1541.0,0.0178
1540.0,0.018
1539.0,0.0179
1538.0,0.0177
1537.0,0.0177
1536.0,0.0176
1535.0,0.0176
1534.0,0.0178
1533.0,0.0181
1532.0,0.0182
1531.0,0.0181
1530.0,0.018
1529.0,0.018
1528.0,0.018
1527.0,0.018
1526.0,0.0179
1525.0,0.0178
1524.0,0.0177
1523.0,0.0174
1522.0,0.0172
1521.0,0.0171
1520.0,0.0169
1519.0,0.0167
1518.0,0.0164
1517.0,0.0163
1516.0,0.0162
1515.0,0.0161
1514.0,0.0161
1513.0,0.0164
1512.0,0.0171
1511.0,0.0181
1510.0,0.0192
1509.0,0.0208
1508.0,0.0244
1507.0,0.0304
1506.0,0.0342
1505.0,0.0342
1504.0,0.0328
1503.0,0.0305
1502.0,0.0279
1501.0,0.0251
1500.0,0.0225
1499.0,0.0202
1498.0,0.0181
1497.0,0.0165
1496.0,0.0154
1495.0,0.0146
1494.0,0.0142
1493.0,0.014
1492.0,0.014
1491.0,0.0138
1490.0,0.0137
1489.0,0.0137
1488.0,0.0136
1487.0,0.0134
1486.0,0.0133
1485.0,0.0133
1484.0,0.0135
1483.0,0.0138
1482.0,0.0141
1481.0,0.0146
1480.0,0.015
1479.0,0.0154
1478.0,0.0158
1477.0,0.0162
1476.0,0.0166
1475.0,0.0167
1474.0,0.0167
1473.0,0.017
1472.0,0.0173
1471.0,0.0174
1470.0,0.0176
1469.0,0.0179
1468.0,0.0184
1467.0,0.0192
1466.0,0.0203
1465.0,0.022
1464.0,0.0238
1463.0,0.0253
1462.0,0.0266
1461.0,0.0279
1460.0,0.0293
1459.0,0.0309
1458.0,0.0331
1457.0,0.0359
1456.0,0.0376
1455.0,0.0381
1454.0,0.0383
1453.0,0.0384
1452.0,0.0385
1451.0,0.0384
1450.0,0.0383
1449.0,0.0382
1448.0,0.0381
1447.0,0.038
1446.0,0.0379
1445.0,0.0378
1444.0,0.0377
1443.0,0.0376
1442.0,0.0375
1441.0,0.0374
1440.0,0.0372
1439.0,0.0367
1438.0,0.0358
1437.0,0.0344
1436.0,0.0328
1435.0,0.0311
1434.0,0.0295
1433.0,0.0278
1432.0,0.0261
1431.0,0.0242
1430.0,0.0223
1429.0,0.0207
1428.0,0.0194
1427.0,0.0184
1426.0,0.0177
1425.0,0.0171
1424.0,0.0167
1423.0,0.0166
1422.0,0.0167
1421.0,0.0172
1420.0,0.0185
1419.0,0.0209
1418.0,0.0242
1417.0,0.0281
1416.0,0.0331
1415.0,0.0395
1414.0,0.0476
1413.0,0.0573
1412.0,0.0678
1411.0,0.0773
1410.0,0.0839
1409.0,0.0871
1408.0,0.0868
1407.0,0.0834
1406.0,0.0776
1405.0,0.0709
1404.0,0.0647
1403.0,0.0596
1402.0,0.0556
1401.0,0.0521
1400.0,0.0489
1399.0,0.0459
1398.0,0.0434
1397.0,0.0413
1396.0,0.0393
1395.0,0.0372
1394.0,0.0351
1393.0,0.0333
1392.0,0.0319
1391.0,0.0307
1390.0,0.0296
1389.0,0.0286
1388.0,0.0277
1387.0,0.0269
1386.0,0.0263
1385.0,0.026
1384.0,0.0259
1383.0,0.0262
1382.0,0.0267
1381.0,0.0276
1380.0,0.0288
1379.0,0.0302
1378.0,0.0318
1377.0,0.0333
1376.0,0.035
1375.0,0.0369
1374.0,0.0389
1373.0,0.0405
1372.0,0.0415
1371.0,0.0419
1370.0,0.0418
1369.0,0.0411
1368.0,0.0396
1367.0,0.0375
1366.0,0.035
1365.0,0.0322
1364.0,0.029
1363.0,0.0256
1362.0,0.0224
1361.0,0.0199
1360.0,0.0181
1359.0,0.0167
1358.0,0.0156
1357.0,0.0147
1356.0,0.0141
1355.0,0.0136
1354.0,0.0133
1353.0,0.0132
1352.0,0.0134
1351.0,0.0138
1350.0,0.0144
1349.0,0.0153
1348.0,0.0164
1347.0,0.0177
1346.0,0.0193
1345.0,0.0211
1344.0,0.0229
1343.0,0.0246
1342.0,0.0261
1341.0,0.0272
1340.0,0.0276
1339.0,0.0272
1338.0,0.0258
1337.0,0.0238
1336.0,0.0215
1335.0,0.0192
1334.0,0.0171
1333.0,0.0152
1332.0,0.0137
1331.0,0.0127
1330.0,0.012
1329.0,0.0118
1328.0,0.012
1327.0,0.0124
1326.0,0.0131
1325.0,0.014
1324.0,0.0151
1323.0,0.0164
1322.0,0.0177
1321.0,0.0191
1320.0,0.0206
1319.0,0.0221
1318.0,0.0236
1317.0,0.0251
1316.0,0.0266
1315.0,0.0281
1314.0,0.0298
1313.0,0.0317
1312.0,0.0337
1311.0,0.0357
1310.0,0.0379
1309.0,0.0402
1308.0,0.0426
1307.0,0.0449
1306.0,0.0472
1305.0,0.0495
1304.0,0.0521
1303.0,0.0549
1302.0,0.0583
1301.0,0.0623
1300.0,0.0671
1299.0,0.0724
1298.0,0.0781
1297.0,0.0841
1296.0,0.0904
1295.0,0.0967
1294.0,0.1028
1293.0,0.1089
1292.0,0.1149
1291.0,0.1208
1290.0,0.1263
1289.0,0.1317
1288.0,0.1368
1287.0,0.1414
1286.0,0.1455
1285.0,0.1493
1284.0,0.1528
1283.0,0.1558
1282.0,0.1583
1281.0,0.1606
1280.0,0.1627
1279.0,0.1644
1278.0,0.166
1277.0,0.1678
1276.0,0.17
1275.0,0.1727
1274.0,0.1761
1273.0,0.1807
1272.0,0.1866
1271.0,0.1936
1270.0,0.2014
1269.0,0.21
1268.0,0.2192
1267.0,0.2287
1266.0,0.2381
1265.0,0.2474
1264.0,0.2562
1263.0,0.2641
1262.0,0.2708
1261.0,0.2766
1260.0,0.2814
1259.0,0.2847
1258.0,0.2869
1257.0,0.2885
1256.0,0.29
1255.0,0.2917
1254.0,0.2936
1253.0,0.2962
1252.0,0.2997
1251.0,0.3037
1250.0,0.308
1249.0,0.313
1248.0,0.3186
1247.0,0.3244
1246.0,0.33
1245.0,0.3355
1244.0,0.3407
1243.0,0.3449
1242.0,0.3478
1241.0,0.3495
1240.0,0.3497
1239.0,0.3477
1238.0,0.3433
1237.0,0.3367
1236.0,0.3281
1235.0,0.3174
1234.0,0.3051
1233.0,0.2921
1232.0,0.2789
1231.0,0.2657
1230.0,0.2528
1229.0,0.2406
1228.0,0.229
1227.0,0.218
1226.0,0.2075
1225.0,0.1976
1224.0,0.1884
1223.0,0.1797
1222.0,0.1715
1221.0,0.1639
1220.0,0.157
1219.0,0.1504
1218.0,0.1443
1217.0,0.1387
1216.0,0.1336
1215.0,0.1289
1214.0,0.1245
1213.0,0.1206
1212.0,0.1169
1211.0,0.1134
1210.0,0.1102
1209.0,0.1071
1208.0,0.1042
1207.0,0.1015
1206.0,0.0988
1205.0,0.0963
1204.0,0.0939
1203.0,0.0916
1202.0,0.0894
1201.0,0.0873
1200.0,0.0852
1199.0,0.0832
1198.0,0.0813
1197.0,0.0794
1196.0,0.0775
1195.0,0.0756
1194.0,0.0738
1193.0,0.0721
1192.0,0.0705
1191.0,0.069
1190.0,0.0676
1189.0,0.0664
1188.0,0.0653
1187.0,0.0643
1186.0,0.0636
1185.0,0.0633
1184.0,0.0633
1183.0,0.0637
1182.0,0.0644
1181.0,0.0654
1180.0,0.0665
1179.0,0.0676
1178.0,0.0686
1177.0,0.0695
1176.0,0.0701
1175.0,0.0703
1174.0,0.0701
1173.0,0.0693
1172.0,0.068
1171.0,0.0662
1170.0,0.0639
1169.0,0.0613
1168.0,0.0587
1167.0,0.0562
1166.0,0.054
1165.0,0.0521
1164.0,0.0505
1163.0,0.0492
1162.0,0.0481
1161.0,0.0472
1160.0,0.0465
1159.0,0.046
1158.0,0.0458
1157.0,0.0459
1156.0,0.0462
1155.0,0.0469
1154.0,0.0479
1153.0,0.0494
1152.0,0.0512
1151.0,0.0534
1150.0,0.0559
1149.0,0.0589
1148.0,0.0622
1147.0,0.066
1146.0,0.07
1145.0,0.0742
1144.0,0.0786
1143.0,0.0831
1142.0,0.0876
1141.0,0.092
1140.0,0.0962
1139.0,0.1002
1138.0,0.1038
1137.0,0.1072
1136.0,0.1104
1135.0,0.1135
1134.0,0.1164
1133.0,0.1193
1132.0,0.1224
1131.0,0.1258
1130.0,0.1296
1129.0,0.134
1128.0,0.1391
1127.0,0.1446
1126.0,0.1507
1125.0,0.1573
1124.0,0.1642
1123.0,0.1712
1122.0,0.1779
1121.0,0.1841
1120.0,0.1895
1119.0,0.1935
1118.0,0.196
1117.0,0.1969
1116.0,0.1964
1115.0,0.1945
1114.0,0.1917
1113.0,0.1889
1112.0,0.1869
1111.0,0.1863
1110.0,0.1876
1109.0,0.1912
1108.0,0.1971
1107.0,0.2047
1106.0,0.2137
1105.0,0.224
1104.0,0.2352
1103.0,0.247
1102.0,0.2589
1101.0,0.2709
1100.0,0.2825
1099.0,0.2932
1098.0,0.3025
1097.0,0.3105
1096.0,0.3171
1095.0,0.3218
1094.0,0.3245
1093.0,0.3255
1092.0,0.325
1091.0,0.3227
1090.0,0.3188
1089.0,0.3138
1088.0,0.3083
1087.0,0.3019
1086.0,0.2949
1085.0,0.2874
1084.0,0.2795
1083.0,0.2709
1082.0,0.2617
1081.0,0.252
1080.0,0.242
1079.0,0.2317
1078.0,0.2212
1077.0,0.211
1076.0,0.2014
1075.0,0.1921
1074.0,0.1834
1073.0,0.1753
1072.0,0.1679
1071.0,0.1611
1070.0,0.1549
1069.0,0.1494
1068.0,0.1444
1067.0,0.1399
1066.0,0.1356
1065.0,0.1318
1064.0,0.1284
1063.0,0.1254
1062.0,0.1226
1061.0,0.1204
1060.0,0.1186
1059.0,0.1172
1058.0,0.1162
1057.0,0.1158
1056.0,0.1161
1055.0,0.1168
1054.0,0.1179
1053.0,0.1194
1052.0,0.1213
1051.0,0.1233
1050.0,0.1256
1049.0,0.128
1048.0,0.1306
1047.0,0.133
1046.0,0.1351
1045.0,0.137
1044.0,0.1385
1043.0,0.1396
1042.0,0.1402
1041.0,0.1402
1040.0,0.1399
1039.0,0.1391
1038.0,0.138
1037.0,0.1367
1036.0,0.1353
1035.0,0.1338
1034.0,0.1324
1033.0,0.1311
1032.0,0.1299
1031.0,0.1286
1030.0,0.1272
1029.0,0.1259
1028.0,0.1249
1027.0,0.1242
1026.0,0.1243
1025.0,0.1258
1024.0,0.1293
1023.0,0.1356
1022.0,0.1455
1021.0,0.1589
1020.0,0.1749
1019.0,0.1916
1018.0,0.2059
1017.0,0.2146
1016.0,0.2154
1015.0,0.2083
1014.0,0.1954
1013.0,0.1802
1012.0,0.1658
1011.0,0.1536
1010.0,0.1438
1009.0,0.136
1008.0,0.1296
1007.0,0.1244
1006.0,0.12
1005.0,0.1165
1004.0,0.1135
1003.0,0.111
1002.0,0.1088
1001.0,0.1069
1000.0,0.1052
999.0,0.1036
998.0,0.1021
997.0,0.1008
996.0,0.0997
995.0,0.0987
994.0,0.0978
993.0,0.0969
992.0,0.0962
991.0,0.0956
990.0,0.095
989.0,0.0944
988.0,0.094
987.0,0.0936
986.0,0.0932
985.0,0.0929
984.0,0.0927
983.0,0.0926
982.0,0.0925
981.0,0.0925
980.0,0.0926
979.0,0.0927
978.0,0.0928
977.0,0.0928
976.0,0.0928
975.0,0.0927
974.0,0.0925
973.0,0.0922
972.0,0.092
971.0,0.0916
970.0,0.091
969.0,0.0904
968.0,0.0897
967.0,0.0889
966.0,0.088
965.0,0.087
964.0,0.0861
963.0,0.0852
962.0,0.0842
961.0,0.0834
960.0,0.0827
959.0,0.0821
958.0,0.0814
957.0,0.0807
956.0,0.0801
955.0,0.0795
954.0,0.079
953.0,0.0785
952.0,0.0781
951.0,0.0778
950.0,0.0773
949.0,0.0769
948.0,0.0766
947.0,0.0763
946.0,0.0759
945.0,0.0756
944.0,0.0752
943.0,0.0748
942.0,0.0745
941.0,0.0743
940.0,0.0741
939.0,0.0738
938.0,0.0736
937.0,0.0734
936.0,0.0731
935.0,0.0728
934.0,0.0726
933.0,0.0723
932.0,0.0721
931.0,0.0718
930.0,0.0715
929.0,0.0712
928.0,0.0709
927.0,0.0705
926.0,0.0701
925.0,0.0696
924.0,0.0693
923.0,0.0689
922.0,0.0685
921.0,0.0683
920.0,0.0681
919.0,0.068
918.0,0.0679
917.0,0.0678
916.0,0.0678
915.0,0.0679
914.0,0.0681
913.0,0.0685
912.0,0.0691
911.0,0.07
910.0,0.071
909.0,0.0722
908.0,0.0737
907.0,0.0754
906.0,0.0772
905.0,0.0792
904.0,0.0812
903.0,0.083
902.0,0.0848
901.0,0.0863
900.0,0.0877
899.0,0.0889
898.0,0.0897
897.0,0.0903
896.0,0.0908
895.0,0.091
894.0,0.0911
893.0,0.0912
892.0,0.0913
891.0,0.0914
890.0,0.0915
889.0,0.0919
888.0,0.0924
887.0,0.0931
886.0,0.0941
885.0,0.0954
884.0,0.0972
883.0,0.0994
882.0,0.1021
881.0,0.1054
880.0,0.1093
879.0,0.1137
878.0,0.1184
877.0,0.1234
876.0,0.1282
875.0,0.1325
874.0,0.1357
873.0,0.1375
872.0,0.1376
871.0,0.1358
870.0,0.1323
869.0,0.1279
868.0,0.123
867.0,0.1182
866.0,0.1137
865.0,0.1097
864.0,0.1062
863.0,0.1033
862.0,0.1008
861.0,0.0989
860.0,0.0975
859.0,0.0963
858.0,0.0955
857.0,0.0949
856.0,0.0948
855.0,0.0948
854.0,0.0947
853.0,0.0945
852.0,0.0943
851.0,0.0942
850.0,0.0941
849.0,0.0942
848.0,0.0943
847.0,0.0943
846.0,0.0943
845.0,0.0941
844.0,0.094
843.0,0.0938
842.0,0.0937
841.0,0.0936
840.0,0.0936
839.0,0.0934
838.0,0.093
837.0,0.0926
836.0,0.0922
835.0,0.0916
834.0,0.0908
833.0,0.0899
832.0,0.0891
831.0,0.0883
830.0,0.0876
829.0,0.0871
828.0,0.0866
827.0,0.0861
826.0,0.0856
825.0,0.0851
824.0,0.0847
823.0,0.0843
822.0,0.0838
821.0,0.0835
820.0,0.0833
819.0,0.0832
818.0,0.0831
817.0,0.0831
816.0,0.0831
815.0,0.0831
814.0,0.0831
813.0,0.0831
812.0,0.0832
811.0,0.0833
810.0,0.0832
809.0,0.0832
808.0,0.0832
807.0,0.083
806.0,0.0825
805.0,0.082
804.0,0.0814
803.0,0.0809
802.0,0.0805
801.0,0.0801
800.0,0.08
799.0,0.0804
798.0,0.0817
797.0,0.0839
796.0,0.0869
795.0,0.0899
794.0,0.0922
793.0,0.0933
792.0,0.0932
791.0,0.0919
790.0,0.0899
789.0,0.0876
788.0,0.0854
787.0,0.0831
786.0,0.0809
785.0,0.0788
784.0,0.077
783.0,0.0754
782.0,0.074
781.0,0.0728
780.0,0.0717
779.0,0.0706
778.0,0.0695
777.0,0.0686
776.0,0.0677
775.0,0.0669
774.0,0.066
773.0,0.065
772.0,0.0641
771.0,0.0631
770.0,0.062
769.0,0.0611
768.0,0.0603
767.0,0.0595
766.0,0.0584
765.0,0.0573
764.0,0.0562
763.0,0.0551
762.0,0.054
761.0,0.053
760.0,0.0522
759.0,0.0514
758.0,0.0505
757.0,0.0495
756.0,0.0485
755.0,0.0473
754.0,0.046
753.0,0.0449
752.0,0.0439
751.0,0.0431
750.0,0.0421
749.0,0.0411
748.0,0.04
747.0,0.039
746.0,0.0383
745.0,0.0382
744.0,0.0392
743.0,0.0415
742.0,0.0457
741.0,0.0522
740.0,0.0613
739.0,0.0729
738.0,0.0868
737.0,0.1024
736.0,0.1193
735.0,0.1368
734.0,0.1549
733.0,0.174
732.0,0.1943
731.0,0.2162
730.0,0.2401
729.0,0.2666
728.0,0.2955
727.0,0.3248
726.0,0.3512
725.0,0.3699
724.0,0.3768
723.0,0.3695
722.0,0.3498
721.0,0.3225
720.0,0.2933
719.0,0.2664
718.0,0.2437
717.0,0.2253
716.0,0.2104
715.0,0.1988
714.0,0.1897
713.0,0.1826
712.0,0.1769
711.0,0.1719
710.0,0.1676
709.0,0.1639
708.0,0.1607
707.0,0.1577
706.0,0.155
705.0,0.1524
704.0,0.1499
703.0,0.1472
702.0,0.1443
701.0,0.1416
700.0,0.139
699.0,0.1362
698.0,0.1331
697.0,0.1301
696.0,0.1275
695.0,0.1253
694.0,0.1236
693.0,0.1222
692.0,0.1211
691.0,0.1199
690.0,0.1183
689.0,0.1165
688.0,0.1148
687.0,0.1134
686.0,0.1126
685.0,0.1126
684.0,0.1133
683.0,0.1141
682.0,0.1145
681.0,0.115
680.0,0.1155
679.0,0.1157
678.0,0.1153
677.0,0.1147
676.0,0.1142
675.0,0.114
674.0,0.1139
673.0,0.1136
672.0,0.113
671.0,0.1122
670.0,0.1114
669.0,0.1124
668.0,0.1154
667.0,0.1159
666.0,0.1135
665.0,0.1113
664.0,0.1101
663.0,0.1098
662.0,0.1097
661.0,0.1096
660.0,0.1098
659.0,0.1101
658.0,0.1105
657.0,0.1112
656.0,0.1118
655.0,0.112
654.0,0.1118
653.0,0.1121
652.0,0.1131
651.0,0.1139
650.0,0.1142
649.0,0.1143
648.0,0.1145
647.0,0.1147
646.0,0.1145
645.0,0.1144
644.0,0.1149
643.0,0.116
642.0,0.1172
641.0,0.1186
640.0,0.1202
639.0,0.1221
638.0,0.1245
637.0,0.1279
636.0,0.1321
635.0,0.1359
634.0,0.1377
633.0,0.1376
632.0,0.1361
631.0,0.1334
630.0,0.1299
629.0,0.1268
628.0,0.1249
627.0,0.1239
626.0,0.1235
625.0,0.1234
624.0,0.1233
623.0,0.1229
622.0,0.1226
621.0,0.1226
620.0,0.123
619.0,0.1228
618.0,0.1221
617.0,0.1215
616.0,0.1218
615.0,0.1218
614.0,0.1208
613.0,0.1194
612.0,0.1184
611.0,0.1176
610.0,0.1162
609.0,0.1145
608.0,0.1132
607.0,0.1126
606.0,0.1123
605.0,0.112
604.0,0.1119
603.0,0.1118
602.0,0.1118
601.0,0.1122
600.0,0.1134
