cm-1,A
4000.0,0.0104
3999.0,0.0104
3998.0,0.0103
3997.0,0.0103
3996.0,0.0104
3995.0,0.0104
3994.0,0.0104
3993.0,0.0104
3992.0,0.0105
3991.0,0.0105
3990.0,0.0105
3989.0,0.0105
3988.0,0.0105
3987.0,0.0105
3986.0,0.0105
3985.0,0.0104
3984.0,0.0104
3983.0,0.0104
3982.0,0.0104
3981.0,0.0105
3980.0,0.0105
3979.0,0.0105
3978.0,0.0106
3977.0,0.0106
3976.0,0.0106
3975.0,0.0105
3974.0,0.0104
3973.0,0.0104
3972.0,0.0104
3971.0,0.0104
3970.0,0.0104
3969.0,0.0105
3968.0,0.0105
3967.0,0.0106
3966.0,0.0106
3965.0,0.0106
3964.0,0.0105
3963.0,0.0106
3962.0,0.0106
3961.0,0.0106
3960.0,0.0106
3959.0,0.0106
3958.0,0.0106
3957.0,0.0105
3956.0,0.0105
3955.0,0.0105
3954.0,0.0104
3953.0,0.0104
3952.0,0.0104
3951.0,0.0105
3950.0,0.0106
3949.0,0.0107
3948.0,0.0107
3947.0,0.0107
3946.0,0.0106
3945.0,0.0106
3944.0,0.0105
3943.0,0.0104
3942.0,0.0105
3941.0,0.0105
3940.0,0.0106
3939.0,0.0107
3938.0,0.0107
3937.0,0.0107
3936.0,0.0107
3935.0,0.0107
3934.0,0.0107
3933.0,0.0107
3932.0,0.0107
3931.0,0.0106
3930.0,0.0106
3929.0,0.0106
3928.0,0.0105
3927.0,0.0106
3926.0,0.0106
3925.0,0.0107
3924.0,0.0107
3923.0,0.0109
3922.0,0.011
3921.0,0.0111
3920.0,0.0111
3919.0,0.0111
3918.0,0.0111
3917.0,0.011
3916.0,0.011
3915.0,0.0109
3914.0,0.011
3913.0,0.011
3912.0,0.0111
3911.0,0.011
3910.0,0.0109
3909.0,0.0108
3908.0,0.0107
3907.0,0.0106
3906.0,0.0106
3905.0,0.0105
3904.0,0.0105
3903.0,0.0107
3902.0,0.0109
3901.0,0.0112
3900.0,0.0113
3899.0,0.0112
3898.0,0.0111
3897.0,0.0111
3896.0,0.0111
3895.0,0.011
3894.0,0.0109
3893.0,0.0109
3892.0,0.0109
3891.0,0.0108
3890.0,0.0108
3889.0,0.0108
3888.0,0.0109
3887.0,0.011
3886.0,0.0109
3885.0,0.0108
3884.0,0.0108
3883.0,0.0109
3882.0,0.011
3881.0,0.011
3880.0,0.0109
3879.0,0.0109
3878.0,0.0109
3877.0,0.0109
3876.0,0.0109
3875.0,0.0108
3874.0,0.0107
3873.0,0.0106
3872.0,0.0107
3871.0,0.0109
3870.0,0.0108
3869.0,0.0107
3868.0,0.0108
3867.0,0.011
3866.0,0.0112
3865.0,0.0113
3864.0,0.0113
3863.0,0.0113
3862.0,0.0113
3861.0,0.0113
3860.0,0.0113
3859.0,0.0112
3858.0,0.011
3857.0,0.0109
3856.0,0.0108
3855.0,0.0111
3854.0,0.0114
3853.0,0.0113
3852.0,0.0112
3851.0,0.0113
3850.0,0.0115
3849.0,0.0115
3848.0,0.0115
3847.0,0.0114
3846.0,0.0114
3845.0,0.0114
3844.0,0.0112
3843.0,0.0111
3842.0,0.0109
3841.0,0.0109
3840.0,0.011
3839.0,0.0111
3838.0,0.0112
3837.0,0.0112
3836.0,0.0113
3835.0,0.0114
3834.0,0.0115
3833.0,0.0115
3832.0,0.0115
3831.0,0.0115
3830.0,0.0114
3829.0,0.0114
3828.0,0.0114
3827.0,0.0113
3826.0,0.0112
3825.0,0.0111
3824.0,0.0111
3823.0,0.0112
3822.0,0.0113
3821.0,0.0112
3820.0,0.011
3819.0,0.011
3818.0,0.0111
3817.0,0.0113
3816.0,0.0113
3815.0,0.0113
3814.0,0.0114
3813.0,0.0116
3812.0,0.0116
3811.0,0.0115
3810.0,0.0114
3809.0,0.0114
3808.0,0.0114
3807.0,0.0113
3806.0,0.0111
3805.0,0.0112
3804.0,0.0115
3803.0,0.0118
3802.0,0.0119
3801.0,0.0117
3800.0,0.0115
3799.0,0.0115
3798.0,0.0117
3797.0,0.0117
3796.0,0.0116
3795.0,0.0116
3794.0,0.0117
3793.0,0.0118
3792.0,0.0119
3791.0,0.0119
3790.0,0.0119
3789.0,0.0118
3788.0,0.0117
3787.0,0.0117
3786.0,0.0117
3785.0,0.0117
3784.0,0.0117
3783.0,0.0117
3782.0,0.0117
3781.0,0.0117
3780.0,0.0117
3779.0,0.0117
3778.0,0.0118
3777.0,0.0119
3776.0,0.0119
3775.0,0.0119
3774.0,0.0119
3773.0,0.0119
3772.0,0.0119
3771.0,0.0119
3770.0,0.0118
3769.0,0.0117
3768.0,0.0117
3767.0,0.0118
3766.0,0.0119
3765.0,0.0119
3764.0,0.0119
3763.0,0.0119
3762.0,0.012
3761.0,0.012
3760.0,0.012
3759.0,0.0119
3758.0,0.0118
3757.0,0.0116
3756.0,0.0116
3755.0,0.0116
3754.0,0.0116
3753.0,0.0117
3752.0,0.0118
3751.0,0.0117
3750.0,0.0116
3749.0,0.0115
3748.0,0.0116
3747.0,0.0118
3746.0,0.0121
3745.0,0.012
3744.0,0.0116
3743.0,0.0114
3742.0,0.0116
3741.0,0.0118
3740.0,0.0117
3739.0,0.0114
3738.0,0.0113
3737.0,0.0114
3736.0,0.0114
3735.0,0.0114
3734.0,0.0114
3733.0,0.0114
3732.0,0.0114
3731.0,0.0114
3730.0,0.0114
3729.0,0.0114
3728.0,0.0114
3727.0,0.0113
3726.0,0.0112
3725.0,0.0111
3724.0,0.011
3723.0,0.0111
3722.0,0.0112
3721.0,0.0113
3720.0,0.0114
3719.0,0.0116
3718.0,0.0117
3717.0,0.0117
3716.0,0.0117
3715.0,0.0117
3714.0,0.0117
3713.0,0.0118
3712.0,0.0118
3711.0,0.0118
3710.0,0.0118
3709.0,0.0118
3708.0,0.0118
3707.0,0.0118
3706.0,0.0117
3705.0,0.0117
3704.0,0.0116
3703.0,0.0116
3702.0,0.0116
3701.0,0.0116
3700.0,0.0116
3699.0,0.0117
3698.0,0.0118
3697.0,0.0117
3696.0,0.0116
3695.0,0.0115
3694.0,0.0115
3693.0,0.0114
3692.0,0.0115
3691.0,0.0116
3690.0,0.0118
3689.0,0.0118
3688.0,0.0119
3687.0,0.0122
3686.0,0.0125
3685.0,0.0127
3684.0,0.0128
3683.0,0.0127
3682.0,0.0126
3681.0,0.0124
3680.0,0.0123
3679.0,0.0121
3678.0,0.0121
3677.0,0.0124
3676.0,0.0126
3675.0,0.0124
3674.0,0.0123
3673.0,0.0124
3672.0,0.0126
3671.0,0.0128
3670.0,0.0128
3669.0,0.0128
3668.0,0.0129
3667.0,0.0131
3666.0,0.0133
3665.0,0.0134
3664.0,0.0134
3663.0,0.0134
3662.0,0.0134
3661.0,0.0132
3660.0,0.0131
3659.0,0.013
3658.0,0.013
3657.0,0.013
3656.0,0.0129
3655.0,0.0129
3654.0,0.013
3653.0,0.013
3652.0,0.013
3651.0,0.0131
3650.0,0.0133
3649.0,0.0134
3648.0,0.0134
3647.0,0.0135
3646.0,0.0136
3645.0,0.0138
3644.0,0.0139
3643.0,0.0138
3642.0,0.0138
3641.0,0.0137
3640.0,0.0137
3639.0,0.0137
3638.0,0.0137
3637.0,0.0137
3636.0,0.0136
3635.0,0.0135
3634.0,0.0134
3633.0,0.0132
3632.0,0.0132
3631.0,0.0133
3630.0,0.0136
3629.0,0.0138
3628.0,0.0138
3627.0,0.0138
3626.0,0.014
3625.0,0.014
3624.0,0.0139
3623.0,0.0136
3622.0,0.0134
3621.0,0.0133
3620.0,0.0133
3619.0,0.0135
3618.0,0.0137
3617.0,0.0139
3616.0,0.0141
3615.0,0.0141
3614.0,0.014
3613.0,0.0139
3612.0,0.0138
3611.0,0.0138
3610.0,0.0139
3609.0,0.014
3608.0,0.0141
3607.0,0.0141
3606.0,0.0142
3605.0,0.0142
3604.0,0.0143
3603.0,0.0143
3602.0,0.0143
3601.0,0.0142
3600.0,0.0142
3599.0,0.0141
3598.0,0.014
3597.0,0.0139
3596.0,0.0138
3595.0,0.0139
3594.0,0.0139
3593.0,0.014
3592.0,0.014
3591.0,0.014
3590.0,0.0141
3589.0,0.0142
3588.0,0.0144
3587.0,0.0145
3586.0,0.0145
3585.0,0.0146
3584.0,0.0147
3583.0,0.0148
3582.0,0.0148
3581.0,0.0148
3580.0,0.0149
3579.0,0.0149
3578.0,0.015
3577.0,0.015
3576.0,0.015
3575.0,0.015
3574.0,0.0151
3573.0,0.0151
3572.0,0.0151
3571.0,0.015
3570.0,0.0149
3569.0,0.0148
3568.0,0.0149
3567.0,0.015
3566.0,0.015
3565.0,0.0151
3564.0,0.0152
3563.0,0.0154
3562.0,0.0155
3561.0,0.0156
3560.0,0.0157
3559.0,0.0157
3558.0,0.0158
3557.0,0.0158
3556.0,0.0157
3555.0,0.0157
3554.0,0.0158
3553.0,0.0159
3552.0,0.016
3551.0,0.016
3550.0,0.016
3549.0,0.016
3548.0,0.0159
3547.0,0.0157
3546.0,0.0157
3545.0,0.0157
3544.0,0.0158
3543.0,0.016
3542.0,0.0161
3541.0,0.0162
3540.0,0.0162
3539.0,0.0162
3538.0,0.0161
3537.0,0.0161
3536.0,0.016
3535.0,0.016
3534.0,0.016
3533.0,0.016
3532.0,0.016
3531.0,0.016
3530.0,0.016
3529.0,0.0159
3528.0,0.0159
3527.0,0.0159
3526.0,0.0159
3525.0,0.0159
3524.0,0.016
3523.0,0.016
3522.0,0.016
3521.0,0.0159
3520.0,0.016
3519.0,0.0161
3518.0,0.0162
3517.0,0.0162
3516.0,0.0161
3515.0,0.016
3514.0,0.016
3513.0,0.016
3512.0,0.0161
3511.0,0.0162
3510.0,0.0162
3509.0,0.0162
3508.0,0.0162
3507.0,0.0161
3506.0,0.0161
3505.0,0.0161
3504.0,0.0161
3503.0,0.0161
3502.0,0.0161
3501.0,0.016
3500.0,0.016
3499.0,0.016
3498.0,0.016
3497.0,0.0161
3496.0,0.0161
3495.0,0.0161
3494.0,0.0161
3493.0,0.016
3492.0,0.0161
3491.0,0.0161
3490.0,0.0162
3489.0,0.0162
3488.0,0.0162
3487.0,0.0161
3486.0,0.0161
3485.0,0.0161
3484.0,0.0161
3483.0,0.0161
3482.0,0.0161
3481.0,0.0162
3480.0,0.0162
3479.0,0.0163
3478.0,0.0164
3477.0,0.0164
3476.0,0.0163
3475.0,0.0162
3474.0,0.0161
3473.0,0.0161
3472.0,0.0161
3471.0,0.0162
3470.0,0.0162
3469.0,0.0163
3468.0,0.0163
3467.0,0.0163
3466.0,0.0164
3465.0,0.0164
3464.0,0.0165
3463.0,0.0165
3462.0,0.0166
3461.0,0.0166
3460.0,0.0166
3459.0,0.0166
3458.0,0.0167
3457.0,0.0167
3456.0,0.0168
3455.0,0.0169
3454.0,0.017
3453.0,0.017
3452.0,0.0169
3451.0,0.0169
3450.0,0.0168
3449.0,0.0168
3448.0,0.0169
3447.0,0.0171
3446.0,0.0172
3445.0,0.0173
3444.0,0.0173
3443.0,0.0174
3442.0,0.0174
3441.0,0.0174
3440.0,0.0175
3439.0,0.0176
3438.0,0.0178
3437.0,0.0178
3436.0,0.0179
3435.0,0.0179
3434.0,0.018
3433.0,0.018
3432.0,0.0181
3431.0,0.0182
3430.0,0.0183
3429.0,0.0182
3428.0,0.0182
3427.0,0.0181
3426.0,0.0182
3425.0,0.0182
3424.0,0.0182
3423.0,0.0182
3422.0,0.0181
3421.0,0.018
3420.0,0.0179
3419.0,0.0178
3418.0,0.0178
3417.0,0.0177
3416.0,0.0177
3415.0,0.0177
3414.0,0.0176
3413.0,0.0176
3412.0,0.0176
3411.0,0.0175
3410.0,0.0175
3409.0,0.0174
3408.0,0.0174
3407.0,0.0174
3406.0,0.0173
3405.0,0.0172
3404.0,0.0171
3403.0,0.0171
3402.0,0.017
3401.0,0.0169
3400.0,0.0168
3399.0,0.0168
3398.0,0.0168
3397.0,0.0168
3396.0,0.0168
3395.0,0.0168
3394.0,0.0167
3393.0,0.0167
3392.0,0.0167
3391.0,0.0167
3390.0,0.0167
3389.0,0.0167
3388.0,0.0168
3387.0,0.0168
3386.0,0.0168
3385.0,0.0167
3384.0,0.0167
3383.0,0.0166
3382.0,0.0166
3381.0,0.0167
3380.0,0.0166
3379.0,0.0166
3378.0,0.0166
3377.0,0.0166
3376.0,0.0166
3375.0,0.0167
3374.0,0.0167
3373.0,0.0166
3372.0,0.0165
3371.0,0.0164
3370.0,0.0164
3369.0,0.0164
3368.0,0.0164
3367.0,0.0164
3366.0,0.0164
3365.0,0.0164
3364.0,0.0165
3363.0,0.0165
3362.0,0.0165
3361.0,0.0164
3360.0,0.0164
3359.0,0.0164
3358.0,0.0164
3357.0,0.0164
3356.0,0.0165
3355.0,0.0166
3354.0,0.0166
3353.0,0.0167
3352.0,0.0167
3351.0,0.0167
3350.0,0.0166
3349.0,0.0165
3348.0,0.0165
3347.0,0.0165
3346.0,0.0166
3345.0,0.0166
3344.0,0.0166
3343.0,0.0166
3342.0,0.0166
3341.0,0.0166
3340.0,0.0166
3339.0,0.0166
3338.0,0.0166
3337.0,0.0166
3336.0,0.0167
3335.0,0.0167
3334.0,0.0167
3333.0,0.0166
3332.0,0.0166
3331.0,0.0165
3330.0,0.0164
3329.0,0.0164
3328.0,0.0163
3327.0,0.0163
3326.0,0.0163
3325.0,0.0163
3324.0,0.0164
3323.0,0.0164
3322.0,0.0165
3321.0,0.0165
3320.0,0.0164
3319.0,0.0164
3318.0,0.0163
3317.0,0.0162
3316.0,0.0162
3315.0,0.0162
3314.0,0.0163
3313.0,0.0163
3312.0,0.0164
3311.0,0.0165
3310.0,0.0165
3309.0,0.0165
3308.0,0.0164
3307.0,0.0162
3306.0,0.0161
3305.0,0.0161
3304.0,0.0162
3303.0,0.0163
3302.0,0.0164
3301.0,0.0165
3300.0,0.0164
3299.0,0.0164
3298.0,0.0164
3297.0,0.0163
3296.0,0.0162
3295.0,0.0161
3294.0,0.0161
3293.0,0.0161
3292.0,0.0162
3291.0,0.0162
3290.0,0.0162
3289.0,0.0162
3288.0,0.0161
3287.0,0.0161
3286.0,0.0161
3285.0,0.016
3284.0,0.0161
3283.0,0.0161
3282.0,0.0162
3281.0,0.0162
3280.0,0.0162
3279.0,0.0162
3278.0,0.0162
3277.0,0.0162
3276.0,0.0162
3275.0,0.0161
3274.0,0.016
3273.0,0.0159
3272.0,0.0159
3271.0,0.0159
3270.0,0.0159
3269.0,0.0159
3268.0,0.016
3267.0,0.016
3266.0,0.016
3265.0,0.0159
3264.0,0.0159
3263.0,0.0159
3262.0,0.0159
3261.0,0.0158
3260.0,0.0157
3259.0,0.0157
3258.0,0.0157
3257.0,0.0158
3256.0,0.0158
3255.0,0.0159
3254.0,0.0159
3253.0,0.0159
3252.0,0.0159
3251.0,0.0159
3250.0,0.0159
3249.0,0.0159
3248.0,0.016
3247.0,0.0159
3246.0,0.0159
3245.0,0.0158
3244.0,0.0157
3243.0,0.0157
3242.0,0.0158
3241.0,0.0159
3240.0,0.016
3239.0,0.016
3238.0,0.0161
3237.0,0.016
3236.0,0.0159
3235.0,0.0158
3234.0,0.0158
3233.0,0.0158
3232.0,0.0159
3231.0,0.0159
3230.0,0.0159
3229.0,0.0159
3228.0,0.0159
3227.0,0.0159
3226.0,0.0158
3225.0,0.0158
3224.0,0.0158
3223.0,0.0159
3222.0,0.0159
3221.0,0.0158
3220.0,0.0157
3219.0,0.0155
3218.0,0.0155
3217.0,0.0155
3216.0,0.0155
3215.0,0.0155
3214.0,0.0156
3213.0,0.0156
3212.0,0.0156
3211.0,0.0156
3210.0,0.0156
3209.0,0.0156
3208.0,0.0156
3207.0,0.0156
3206.0,0.0156
3205.0,0.0155
3204.0,0.0154
3203.0,0.0154
3202.0,0.0153
3201.0,0.0153
3200.0,0.0154
3199.0,0.0154
3198.0,0.0154
3197.0,0.0154
3196.0,0.0154
3195.0,0.0153
3194.0,0.0153
3193.0,0.0153
3192.0,0.0153
3191.0,0.0154
3190.0,0.0154
3189.0,0.0154
3188.0,0.0154
3187.0,0.0153
3186.0,0.0152
3185.0,0.0151
3184.0,0.015
3183.0,0.015
3182.0,0.015
3181.0,0.015
3180.0,0.0151
3179.0,0.0151
3178.0,0.0152
3177.0,0.0152
3176.0,0.0152
3175.0,0.0152
3174.0,0.0152
3173.0,0.0151
3172.0,0.015
3171.0,0.015
3170.0,0.015
3169.0,0.015
3168.0,0.0151
3167.0,0.0152
3166.0,0.0152
3165.0,0.0153
3164.0,0.0154
3163.0,0.0154
3162.0,0.0153
3161.0,0.0152
3160.0,0.0151
3159.0,0.0151
3158.0,0.015
3157.0,0.015
3156.0,0.015
3155.0,0.0151
3154.0,0.0152
3153.0,0.0152
3152.0,0.0153
3151.0,0.0153
3150.0,0.0153
3149.0,0.0153
3148.0,0.0152
3147.0,0.0152
3146.0,0.0152
3145.0,0.0152
3144.0,0.0152
3143.0,0.0152
3142.0,0.0152
3141.0,0.0153
3140.0,0.0154
3139.0,0.0154
3138.0,0.0153
3137.0,0.0151
3136.0,0.015
3135.0,0.015
3134.0,0.0151
3133.0,0.0152
3132.0,0.0153
3131.0,0.0153
3130.0,0.0153
3129.0,0.0154
3128.0,0.0154
3127.0,0.0154
3126.0,0.0155
3125.0,0.0155
3124.0,0.0154
3123.0,0.0153
3122.0,0.0153
3121.0,0.0153
3120.0,0.0153
3119.0,0.0154
3118.0,0.0154
3117.0,0.0153
3116.0,0.0153
3115.0,0.0154
3114.0,0.0154
3113.0,0.0155
3112.0,0.0155
3111.0,0.0156
3110.0,0.0157
3109.0,0.0157
3108.0,0.0157
3107.0,0.0158
3106.0,0.0159
3105.0,0.0159
3104.0,0.016
3103.0,0.016
3102.0,0.016
3101.0,0.016
3100.0,0.016
3099.0,0.0159
3098.0,0.0158
3097.0,0.0158
3096.0,0.0158
3095.0,0.0158
3094.0,0.0158
3093.0,0.0158
3092.0,0.0157
3091.0,0.0158
3090.0,0.0159
3089.0,0.016
3088.0,0.016
3087.0,0.0161
3086.0,0.0162
3085.0,0.0162
3084.0,0.0163
3083.0,0.0163
3082.0,0.0164
3081.0,0.0164
3080.0,0.0164
3079.0,0.0164
3078.0,0.0164
3077.0,0.0164
3076.0,0.0164
3075.0,0.0163
3074.0,0.0163
3073.0,0.0163
3072.0,0.0164
3071.0,0.0164
3070.0,0.0164
3069.0,0.0164
3068.0,0.0164
3067.0,0.0163
3066.0,0.0163
3065.0,0.0164
3064.0,0.0164
3063.0,0.0164
3062.0,0.0164
3061.0,0.0165
3060.0,0.0165
3059.0,0.0165
3058.0,0.0166
3057.0,0.0167
3056.0,0.0167
3055.0,0.0167
3054.0,0.0167
3053.0,0.0166
3052.0,0.0165
3051.0,0.0163
3050.0,0.0162
3049.0,0.016
3048.0,0.016
3047.0,0.0159
3046.0,0.0158
3045.0,0.0157
3044.0,0.0156
3043.0,0.0155
3042.0,0.0155
3041.0,0.0154
3040.0,0.0154
3039.0,0.0153
3038.0,0.0153
3037.0,0.0152
3036.0,0.0152
3035.0,0.0152
3034.0,0.0151
3033.0,0.0151
3032.0,0.015
3031.0,0.015
3030.0,0.015
3029.0,0.0151
3028.0,0.0151
3027.0,0.0152
3026.0,0.0152
3025.0,0.0152
3024.0,0.0152
3023.0,0.0153
3022.0,0.0153
3021.0,0.0154
3020.0,0.0154
3019.0,0.0155
3018.0,0.0155
3017.0,0.0156
3016.0,0.0157
3015.0,0.0158
3014.0,0.0159
3013.0,0.016
3012.0,0.016
3011.0,0.0161
3010.0,0.0161
3009.0,0.0162
3008.0,0.0163
3007.0,0.0164
3006.0,0.0165
3005.0,0.0165
3004.0,0.0166
3003.0,0.0167
3002.0,0.0169
3001.0,0.017
3000.0,0.0171
2999.0,0.0172
2998.0,0.0172
2997.0,0.0172
2996.0,0.0173
2995.0,0.0174
2994.0,0.0175
2993.0,0.0176
2992.0,0.0177
2991.0,0.0178
2990.0,0.0179
2989.0,0.018
2988.0,0.0182
2987.0,0.0183
2986.0,0.0185
2985.0,0.0187
2984.0,0.0189
2983.0,0.0191
2982.0,0.0192
2981.0,0.0194
2980.0,0.0195
2979.0,0.0197
2978.0,0.0199
2977.0,0.0202
2976.0,0.0204
2975.0,0.0206
2974.0,0.0209
2973.0,0.0211
2972.0,0.0214
2971.0,0.0217
2970.0,0.0221
2969.0,0.0225
2968.0,0.0228
2967.0,0.0231
2966.0,0.0234
2965.0,0.0237
2964.0,0.0239
2963.0,0.0242
2962.0,0.0244
2961.0,0.0245
2960.0,0.0247
2959.0,0.0248
2958.0,0.0249
2957.0,0.025
2956.0,0.025
2955.0,0.0249
2954.0,0.0247
2953.0,0.0245
2952.0,0.0242
2951.0,0.024
2950.0,0.0238
2949.0,0.0236
2948.0,0.0233
2947.0,0.0229
2946.0,0.0225
2945.0,0.0222
2944.0,0.0218
2943.0,0.0215
2942.0,0.0212
2941.0,0.0209
2940.0,0.0205
2939.0,0.0202
2938.0,0.0198
2937.0,0.0196
2936.0,0.0193
2935.0,0.0191
2934.0,0.0189
2933.0,0.0187
2932.0,0.0186
2931.0,0.0185
2930.0,0.0185
2929.0,0.0185
2928.0,0.0184
2927.0,0.0184
2926.0,0.0182
2925.0,0.0181
2924.0,0.018
2923.0,0.0179
2922.0,0.0178
2921.0,0.0178
2920.0,0.0179
2919.0,0.0179
2918.0,0.018
2917.0,0.018
2916.0,0.018
2915.0,0.0179
2914.0,0.0179
2913.0,0.0179
2912.0,0.0179
2911.0,0.018
2910.0,0.018
2909.0,0.0181
2908.0,0.0181
2907.0,0.0182
2906.0,0.0182
2905.0,0.0183
2904.0,0.0182
2903.0,0.0182
2902.0,0.0182
2901.0,0.0182
2900.0,0.0182
2899.0,0.0184
2898.0,0.0184
2897.0,0.0185
2896.0,0.0186
2895.0,0.0186
2894.0,0.0187
2893.0,0.0187
2892.0,0.0187
2891.0,0.0187
2890.0,0.0188
2889.0,0.0188
2888.0,0.0189
2887.0,0.0189
2886.0,0.0188
2885.0,0.0187
2884.0,0.0187
2883.0,0.0186
2882.0,0.0186
2881.0,0.0186
2880.0,0.0185
2879.0,0.0184
2878.0,0.0183
2877.0,0.0182
2876.0,0.0182
2875.0,0.0182
2874.0,0.0182
2873.0,0.0182
2872.0,0.0182
2871.0,0.0181
2870.0,0.018
2869.0,0.0179
2868.0,0.0178
2867.0,0.0178
2866.0,0.0178
2865.0,0.0179
2864.0,0.0179
2863.0,0.0179
2862.0,0.0179
2861.0,0.0179
2860.0,0.0178
2859.0,0.0178
2858.0,0.0177
2857.0,0.0177
2856.0,0.0177
2855.0,0.0177
2854.0,0.0177
2853.0,0.0176
2852.0,0.0175
2851.0,0.0174
2850.0,0.0173
2849.0,0.0172
2848.0,0.0171
2847.0,0.017
2846.0,0.0169
2845.0,0.0168
2844.0,0.0167
2843.0,0.0167
2842.0,0.0166
2841.0,0.0165
2840.0,0.0165
2839.0,0.0164
2838.0,0.0163
2837.0,0.0163
2836.0,0.0162
2835.0,0.0162
2834.0,0.0162
2833.0,0.0162
2832.0,0.0162
2831.0,0.0161
2830.0,0.0161
2829.0,0.0162
2828.0,0.0162
2827.0,0.0162
2826.0,0.0162
2825.0,0.0161
2824.0,0.016
2823.0,0.0159
2822.0,0.0158
2821.0,0.0158
2820.0,0.0158
2819.0,0.0158
2818.0,0.0158
2817.0,0.0158
2816.0,0.0157
2815.0,0.0156
2814.0,0.0156
2813.0,0.0156
2812.0,0.0157
2811.0,0.0158
2810.0,0.0159
2809.0,0.0159
2808.0,0.0159
2807.0,0.0159
2806.0,0.0159
2805.0,0.0159
2804.0,0.0159
2803.0,0.0159
2802.0,0.0158
2801.0,0.0156
2800.0,0.0156
2799.0,0.0156
2798.0,0.0156
2797.0,0.0156
2796.0,0.0156
2795.0,0.0156
2794.0,0.0156
2793.0,0.0155
2792.0,0.0155
2791.0,0.0155
2790.0,0.0155
2789.0,0.0155
2788.0,0.0156
2787.0,0.0156
2786.0,0.0156
2785.0,0.0155
2784.0,0.0155
2783.0,0.0154
2782.0,0.0154
2781.0,0.0154
2780.0,0.0154
2779.0,0.0154
2778.0,0.0155
2777.0,0.0155
2776.0,0.0155
2775.0,0.0154
2774.0,0.0153
2773.0,0.0152
2772.0,0.0152
2771.0,0.0152
2770.0,0.0153
2769.0,0.0153
2768.0,0.0153
2767.0,0.0153
2766.0,0.0153
2765.0,0.0154
2764.0,0.0154
2763.0,0.0154
2762.0,0.0154
2761.0,0.0153
2760.0,0.0153
2759.0,0.0152
2758.0,0.0152
2757.0,0.0152
2756.0,0.0151
2755.0,0.0151
2754.0,0.0151
2753.0,0.0151
2752.0,0.0151
2751.0,0.0151
2750.0,0.0151
2749.0,0.0152
2748.0,0.0152
2747.0,0.0152
2746.0,0.0151
2745.0,0.0151
2744.0,0.0152
2743.0,0.0152
2742.0,0.0152
2741.0,0.0152
2740.0,0.0151
2739.0,0.0151
2738.0,0.0151
2737.0,0.0151
2736.0,0.0151
2735.0,0.0152
2734.0,0.0152
2733.0,0.0152
2732.0,0.0151
2731.0,0.0151
2730.0,0.0151
2729.0,0.0151
2728.0,0.015
2727.0,0.015
2726.0,0.015
2725.0,0.015
2724.0,0.0149
2723.0,0.0149
2722.0,0.0149
2721.0,0.0149
2720.0,0.0149
2719.0,0.0149
2718.0,0.0149
2717.0,0.015
2716.0,0.0149
2715.0,0.0149
2714.0,0.0148
2713.0,0.0147
2712.0,0.0147
2711.0,0.0147
2710.0,0.0147
2709.0,0.0147
2708.0,0.0147
2707.0,0.0147
2706.0,0.0147
2705.0,0.0148
2704.0,0.0148
2703.0,0.0148
2702.0,0.0147
2701.0,0.0146
2700.0,0.0145
2699.0,0.0145
2698.0,0.0146
2697.0,0.0146
2696.0,0.0146
2695.0,0.0147
2694.0,0.0147
2693.0,0.0148
2692.0,0.0148
2691.0,0.0148
2690.0,0.0147
2689.0,0.0147
2688.0,0.0146
2687.0,0.0146
2686.0,0.0146
2685.0,0.0145
2684.0,0.0145
2683.0,0.0144
2682.0,0.0144
2681.0,0.0143
2680.0,0.0143
2679.0,0.0144
2678.0,0.0145
2677.0,0.0145
2676.0,0.0145
2675.0,0.0145
2674.0,0.0145
2673.0,0.0145
2672.0,0.0145
2671.0,0.0145
2670.0,0.0145
2669.0,0.0144
2668.0,0.0144
2667.0,0.0143
2666.0,0.0143
2665.0,0.0144
2664.0,0.0144
2663.0,0.0143
2662.0,0.0143
2661.0,0.0143
2660.0,0.0144
2659.0,0.0144
2658.0,0.0144
2657.0,0.0144
2656.0,0.0144
2655.0,0.0144
2654.0,0.0144
2653.0,0.0145
2652.0,0.0145
2651.0,0.0145
2650.0,0.0145
2649.0,0.0144
2648.0,0.0144
2647.0,0.0143
2646.0,0.0143
2645.0,0.0143
2644.0,0.0143
2643.0,0.0143
2642.0,0.0143
2641.0,0.0144
2640.0,0.0144
2639.0,0.0143
2638.0,0.0143
2637.0,0.0143
2636.0,0.0143
2635.0,0.0144
2634.0,0.0144
2633.0,0.0144
2632.0,0.0144
2631.0,0.0145
2630.0,0.0144
2629.0,0.0144
2628.0,0.0143
2627.0,0.0143
2626.0,0.0143
2625.0,0.0144
2624.0,0.0144
2623.0,0.0144
2622.0,0.0144
2621.0,0.0143
2620.0,0.0143
2619.0,0.0144
2618.0,0.0144
2617.0,0.0144
2616.0,0.0144
2615.0,0.0143
2614.0,0.0143
2613.0,0.0143
2612.0,0.0143
2611.0,0.0142
2610.0,0.0142
2609.0,0.0142
2608.0,0.0143
2607.0,0.0143
2606.0,0.0143
2605.0,0.0143
2604.0,0.0143
2603.0,0.0143
2602.0,0.0142
2601.0,0.0142
2600.0,0.0142
2599.0,0.0142
2598.0,0.0143
2597.0,0.0143
2596.0,0.0142
2595.0,0.0142
2594.0,0.0142
2593.0,0.0141
2592.0,0.0141
2591.0,0.0141
2590.0,0.0142
2589.0,0.0142
2588.0,0.0142
2587.0,0.0143
2586.0,0.0143
2585.0,0.0143
2584.0,0.0143
2583.0,0.0143
2582.0,0.0143
2581.0,0.0143
2580.0,0.0143
2579.0,0.0143
2578.0,0.0143
2577.0,0.0143
2576.0,0.0142
2575.0,0.0142
2574.0,0.0142
2573.0,0.0143
2572.0,0.0143
2571.0,0.0144
2570.0,0.0144
2569.0,0.0143
2568.0,0.0143
2567.0,0.0142
2566.0,0.0142
2565.0,0.0142
2564.0,0.0142
2563.0,0.0142
2562.0,0.0142
2561.0,0.0143
2560.0,0.0143
2559.0,0.0143
2558.0,0.0143
2557.0,0.0143
2556.0,0.0143
2555.0,0.0143
2554.0,0.0143
2553.0,0.0143
2552.0,0.0143
2551.0,0.0144
2550.0,0.0144
2549.0,0.0144
2548.0,0.0143
2547.0,0.0142
2546.0,0.0142
2545.0,0.0142
2544.0,0.0142
2543.0,0.0142
2542.0,0.0142
2541.0,0.0141
2540.0,0.0141
2539.0,0.0141
2538.0,0.0141
2537.0,0.0142
2536.0,0.0142
2535.0,0.0142
2534.0,0.0142
2533.0,0.0143
2532.0,0.0143
2531.0,0.0144
2530.0,0.0144
2529.0,0.0143
2528.0,0.0142
2527.0,0.0141
2526.0,0.0141
2525.0,0.014
2524.0,0.014
2523.0,0.014
2522.0,0.014
2521.0,0.014
2520.0,0.014
2519.0,0.014
2518.0,0.014
2517.0,0.014
2516.0,0.014
2515.0,0.0141
2514.0,0.0141
2513.0,0.0141
2512.0,0.0142
2511.0,0.0142
2510.0,0.0142
2509.0,0.0142
2508.0,0.0142
2507.0,0.0141
2506.0,0.0141
2505.0,0.014
2504.0,0.014
2503.0,0.0141
2502.0,0.0141
2501.0,0.0141
2500.0,0.014
2499.0,0.014
2498.0,0.014
2497.0,0.014
2496.0,0.0139
2495.0,0.0139
2494.0,0.0138
2493.0,0.0138
2492.0,0.0138
2491.0,0.0138
2490.0,0.0137
2489.0,0.0137
2488.0,0.0136
2487.0,0.0136
2486.0,0.0136
2485.0,0.0136
2484.0,0.0136
2483.0,0.0136
2482.0,0.0136
2481.0,0.0136
2480.0,0.0135
2479.0,0.0135
2478.0,0.0134
2477.0,0.0134
2476.0,0.0134
2475.0,0.0134
2474.0,0.0134
2473.0,0.0134
2472.0,0.0134
2471.0,0.0134
2470.0,0.0133
2469.0,0.0134
2468.0,0.0134
2467.0,0.0134
2466.0,0.0134
2465.0,0.0133
2464.0,0.0133
2463.0,0.0133
2462.0,0.0133
2461.0,0.0132
2460.0,0.0132
2459.0,0.0131
2458.0,0.0131
2457.0,0.0132
2456.0,0.0132
2455.0,0.0132
2454.0,0.0131
2453.0,0.0131
2452.0,0.0131
2451.0,0.0131
2450.0,0.0131
2449.0,0.0131
2448.0,0.0131
2447.0,0.0131
2446.0,0.0131
2445.0,0.0131
2444.0,0.0131
2443.0,0.013
2442.0,0.013
2441.0,0.013
2440.0,0.0129
2439.0,0.013
2438.0,0.013
2437.0,0.013
2436.0,0.013
2435.0,0.013
2434.0,0.0129
2433.0,0.0129
2432.0,0.0129
2431.0,0.0129
2430.0,0.013
2429.0,0.013
2428.0,0.0131
2427.0,0.0132
2426.0,0.0132
2425.0,0.0132
2424.0,0.0133
2423.0,0.0133
2422.0,0.0133
2421.0,0.0133
2420.0,0.0132
2419.0,0.0132
2418.0,0.0132
2417.0,0.0132
2416.0,0.0132
2415.0,0.0132
2414.0,0.0132
2413.0,0.0132
2412.0,0.0132
2411.0,0.0133
2410.0,0.0133
2409.0,0.0132
2408.0,0.0132
2407.0,0.0133
2406.0,0.0133
2405.0,0.0133
2404.0,0.0134
2403.0,0.0134
2402.0,0.0134
2401.0,0.0134
2400.0,0.0133
2399.0,0.0133
2398.0,0.0133
2397.0,0.0132
2396.0,0.0133
2395.0,0.0133
2394.0,0.0134
2393.0,0.0134
2392.0,0.0134
2391.0,0.0134
2390.0,0.0134
2389.0,0.0133
2388.0,0.0132
2387.0,0.0132
2386.0,0.013
2385.0,0.0128
2384.0,0.0126
2383.0,0.0123
2382.0,0.012
2381.0,0.0116
2380.0,0.0112
2379.0,0.0107
2378.0,0.0103
2377.0,0.0101
2376.0,0.0101
2375.0,0.0103
2374.0,0.0104
2373.0,0.0104
2372.0,0.0103
2371.0,0.0102
2370.0,0.0102
2369.0,0.0101
2368.0,0.01
2367.0,0.0105
2366.0,0.0115
2365.0,0.0125
2364.0,0.0129
2363.0,0.0124
2362.0,0.0108
2361.0,0.0088
2360.0,0.0074
2359.0,0.0074
2358.0,0.0082
2357.0,0.0087
2356.0,0.0088
2355.0,0.0086
2354.0,0.0084
2353.0,0.008
2352.0,0.0075
2351.0,0.0069
2350.0,0.0064
2349.0,0.0061
2348.0,0.0061
2347.0,0.0065
2346.0,0.0069
2345.0,0.0071
2344.0,0.0072
2343.0,0.0072
2342.0,0.0072
2341.0,0.0069
2340.0,0.0065
2339.0,0.0061
2338.0,0.0058
2337.0,0.0054
2336.0,0.0053
2335.0,0.0055
2334.0,0.0058
2333.0,0.0063
2332.0,0.0068
2331.0,0.0071
2330.0,0.0072
2329.0,0.007
2328.0,0.0069
2327.0,0.0069
2326.0,0.007
2325.0,0.0071
2324.0,0.0074
2323.0,0.0078
2322.0,0.008
2321.0,0.0082
2320.0,0.0084
2319.0,0.0086
2318.0,0.0088
2317.0,0.009
2316.0,0.009
2315.0,0.0091
2314.0,0.0091
2313.0,0.009
2312.0,0.0089
2311.0,0.0089
2310.0,0.009
2309.0,0.0092
2308.0,0.0094
2307.0,0.0095
2306.0,0.0095
2305.0,0.0096
2304.0,0.0097
2303.0,0.0099
2302.0,0.0102
2301.0,0.0104
2300.0,0.0105
2299.0,0.0107
2298.0,0.0108
2297.0,0.0109
2296.0,0.011
2295.0,0.0112
2294.0,0.0113
2293.0,0.0114
2292.0,0.0115
2291.0,0.0116
2290.0,0.0116
2289.0,0.0117
2288.0,0.0117
2287.0,0.0118
2286.0,0.0119
2285.0,0.012
2284.0,0.0121
2283.0,0.0121
2282.0,0.0121
2281.0,0.0121
2280.0,0.0121
2279.0,0.012
2278.0,0.012
2277.0,0.0119
2276.0,0.0118
2275.0,0.0118
2274.0,0.0118
2273.0,0.0118
2272.0,0.0117
2271.0,0.0116
2270.0,0.0115
2269.0,0.0115
2268.0,0.0115
2267.0,0.0115
2266.0,0.0115
2265.0,0.0115
2264.0,0.0116
2263.0,0.0116
2262.0,0.0116
2261.0,0.0116
2260.0,0.0116
2259.0,0.0116
2258.0,0.0116
2257.0,0.0116
2256.0,0.0116
2255.0,0.0116
2254.0,0.0116
2253.0,0.0117
2252.0,0.0117
2251.0,0.0117
2250.0,0.0116
2249.0,0.0116
2248.0,0.0116
2247.0,0.0116
2246.0,0.0116
2245.0,0.0117
2244.0,0.0117
2243.0,0.0116
2242.0,0.0116
2241.0,0.0115
2240.0,0.0115
2239.0,0.0115
2238.0,0.0115
2237.0,0.0114
2236.0,0.0114
2235.0,0.0115
2234.0,0.0115
2233.0,0.0116
2232.0,0.0115
2231.0,0.0115
2230.0,0.0114
2229.0,0.0114
2228.0,0.0114
2227.0,0.0114
2226.0,0.0115
2225.0,0.0115
2224.0,0.0115
2223.0,0.0115
2222.0,0.0114
2221.0,0.0113
2220.0,0.0113
2219.0,0.0112
2218.0,0.0112
2217.0,0.0112
2216.0,0.0112
2215.0,0.0112
2214.0,0.0112
2213.0,0.0112
2212.0,0.0112
2211.0,0.0112
2210.0,0.0112
2209.0,0.0112
2208.0,0.0112
2207.0,0.0112
2206.0,0.0111
2205.0,0.0111
2204.0,0.0111
2203.0,0.0111
2202.0,0.0112
2201.0,0.0112
2200.0,0.0112
2199.0,0.0111
2198.0,0.0111
2197.0,0.011
2196.0,0.011
2195.0,0.011
2194.0,0.011
2193.0,0.011
2192.0,0.0109
2191.0,0.0109
2190.0,0.0109
2189.0,0.0109
2188.0,0.0109
2187.0,0.0109
2186.0,0.0109
2185.0,0.0109
2184.0,0.0108
2183.0,0.0108
2182.0,0.0108
2181.0,0.0108
2180.0,0.0108
2179.0,0.0108
2178.0,0.0108
2177.0,0.0108
2176.0,0.0108
2175.0,0.0109
2174.0,0.0109
2173.0,0.0109
2172.0,0.0109
2171.0,0.0109
2170.0,0.0109
2169.0,0.0109
2168.0,0.0109
2167.0,0.0109
2166.0,0.0109
2165.0,0.0109
2164.0,0.0109
2163.0,0.011
2162.0,0.011
2161.0,0.011
2160.0,0.0109
2159.0,0.0109
2158.0,0.0108
2157.0,0.0109
2156.0,0.0109
2155.0,0.0109
2154.0,0.0109
2153.0,0.0109
2152.0,0.0109
2151.0,0.0109
2150.0,0.0109
2149.0,0.0109
2148.0,0.0109
2147.0,0.011
2146.0,0.011
2145.0,0.011
2144.0,0.0111
2143.0,0.0111
2142.0,0.0111
2141.0,0.011
2140.0,0.011
2139.0,0.011
2138.0,0.011
2137.0,0.011
2136.0,0.011
2135.0,0.0109
2134.0,0.0109
2133.0,0.0109
2132.0,0.0109
2131.0,0.0109
2130.0,0.0109
2129.0,0.0109
2128.0,0.0109
2127.0,0.011
2126.0,0.011
2125.0,0.011
2124.0,0.011
2123.0,0.011
2122.0,0.011
2121.0,0.0109
2120.0,0.0109
2119.0,0.0109
2118.0,0.0109
2117.0,0.0108
2116.0,0.0109
2115.0,0.0109
2114.0,0.0109
2113.0,0.0108
2112.0,0.0108
2111.0,0.0108
2110.0,0.0108
2109.0,0.0108
2108.0,0.0107
2107.0,0.0107
2106.0,0.0106
2105.0,0.0107
2104.0,0.0107
2103.0,0.0107
2102.0,0.0108
2101.0,0.0107
2100.0,0.0107
2099.0,0.0106
2098.0,0.0106
2097.0,0.0105
2096.0,0.0105
2095.0,0.0105
2094.0,0.0105
2093.0,0.0105
2092.0,0.0105
2091.0,0.0105
2090.0,0.0105
2089.0,0.0105
2088.0,0.0105
2087.0,0.0105
2086.0,0.0104
2085.0,0.0104
2084.0,0.0103
2083.0,0.0103
2082.0,0.0103
2081.0,0.0102
2080.0,0.0102
2079.0,0.0102
2078.0,0.0101
2077.0,0.01
2076.0,0.01
2075.0,0.0099
2074.0,0.0099
2073.0,0.0099
2072.0,0.0099
2071.0,0.0099
2070.0,0.0099
2069.0,0.0099
2068.0,0.0098
2067.0,0.0098
2066.0,0.0097
2065.0,0.0097
2064.0,0.0097
2063.0,0.0097
2062.0,0.0096
2061.0,0.0096
2060.0,0.0095
2059.0,0.0094
2058.0,0.0094
2057.0,0.0093
2056.0,0.0093
2055.0,0.0092
2054.0,0.0092
2053.0,0.0092
2052.0,0.0091
2051.0,0.0091
2050.0,0.0091
2049.0,0.0091
2048.0,0.0091
2047.0,0.009
2046.0,0.009
2045.0,0.009
2044.0,0.0089
2043.0,0.0088
2042.0,0.0088
2041.0,0.0088
2040.0,0.0088
2039.0,0.0088
2038.0,0.0087
2037.0,0.0086
2036.0,0.0085
2035.0,0.0085
2034.0,0.0086
2033.0,0.0086
2032.0,0.0086
2031.0,0.0086
2030.0,0.0086
2029.0,0.0086
2028.0,0.0085
2027.0,0.0085
2026.0,0.0085
2025.0,0.0085
2024.0,0.0085
2023.0,0.0085
2022.0,0.0084
2021.0,0.0084
2020.0,0.0083
2019.0,0.0084
2018.0,0.0085
2017.0,0.0086
2016.0,0.0087
2015.0,0.0087
2014.0,0.0087
2013.0,0.0086
2012.0,0.0085
2011.0,0.0085
2010.0,0.0085
2009.0,0.0085
2008.0,0.0085
2007.0,0.0085
2006.0,0.0085
2005.0,0.0085
2004.0,0.0085
2003.0,0.0085
2002.0,0.0085
2001.0,0.0085
2000.0,0.0085
1999.0,0.0085
1998.0,0.0085
1997.0,0.0085
1996.0,0.0085
1995.0,0.0085
1994.0,0.0086
1993.0,0.0086
1992.0,0.0086
1991.0,0.0087
1990.0,0.0087
1989.0,0.0087
1988.0,0.0088
1987.0,0.0088
1986.0,0.0088
1985.0,0.0087
1984.0,0.0086
1983.0,0.0086
1982.0,0.0086
1981.0,0.0086
1980.0,0.0086
1979.0,0.0087
1978.0,0.0087
1977.0,0.0087
1976.0,0.0087
1975.0,0.0087
1974.0,0.0087
1973.0,0.0087
1972.0,0.0088
1971.0,0.0088
1970.0,0.0088
1969.0,0.0088
1968.0,0.0089
1967.0,0.0089
1966.0,0.009
1965.0,0.0091
1964.0,0.0092
1963.0,0.0092
1962.0,0.0093
1961.0,0.0093
1960.0,0.0093
1959.0,0.0093
1958.0,0.0094
1957.0,0.0095
1956.0,0.0095
1955.0,0.0096
1954.0,0.0097
1953.0,0.0097
1952.0,0.0097
1951.0,0.0098
1950.0,0.0098
1949.0,0.0098
1948.0,0.0098
1947.0,0.0098
1946.0,0.0097
1945.0,0.0096
1944.0,0.0095
1943.0,0.0094
1942.0,0.0093
1941.0,0.0092
1940.0,0.0091
1939.0,0.0089
1938.0,0.0088
1937.0,0.0086
1936.0,0.0086
1935.0,0.0085
1934.0,0.0084
1933.0,0.0082
1932.0,0.0081
1931.0,0.008
1930.0,0.0079
1929.0,0.0078
1928.0,0.0077
1927.0,0.0076
1926.0,0.0075
1925.0,0.0075
1924.0,0.0074
1923.0,0.0073
1922.0,0.0073
1921.0,0.0071
1920.0,0.007
1919.0,0.0069
1918.0,0.0069
1917.0,0.0068
1916.0,0.0067
1915.0,0.0066
1914.0,0.0064
1913.0,0.0063
1912.0,0.0063
1911.0,0.0063
1910.0,0.0062
1909.0,0.0061
1908.0,0.006
1907.0,0.0059
1906.0,0.0058
1905.0,0.0057
1904.0,0.0056
1903.0,0.0055
1902.0,0.0054
1901.0,0.0053
1900.0,0.0052
1899.0,0.0051
1898.0,0.0051
1897.0,0.005
1896.0,0.0049
1895.0,0.0048
1894.0,0.0047
1893.0,0.0046
1892.0,0.0045
1891.0,0.0045
1890.0,0.0044
1889.0,0.0043
1888.0,0.0042
1887.0,0.0041
1886.0,0.004
1885.0,0.0038
1884.0,0.0037
1883.0,0.0036
1882.0,0.0036
1881.0,0.0035
1880.0,0.0035
1879.0,0.0034
1878.0,0.0034
1877.0,0.0033
1876.0,0.0032
1875.0,0.0031
1874.0,0.003
1873.0,0.003
1872.0,0.0029
1871.0,0.0028
1870.0,0.0028
1869.0,0.0027
1868.0,0.0027
1867.0,0.0026
1866.0,0.0026
1865.0,0.0025
1864.0,0.0024
1863.0,0.0024
1862.0,0.0024
1861.0,0.0023
1860.0,0.0023
1859.0,0.0022
1858.0,0.0021
1857.0,0.0021
1856.0,0.002
1855.0,0.002
1854.0,0.002
1853.0,0.0019
1852.0,0.0019
1851.0,0.0018
1850.0,0.0019
1849.0,0.0019
1848.0,0.0019
1847.0,0.0019
1846.0,0.0019
1845.0,0.0018
1844.0,0.0017
1843.0,0.0018
1842.0,0.0019
1841.0,0.0019
1840.0,0.0019
1839.0,0.0019
1838.0,0.0019
1837.0,0.0018
1836.0,0.0018
1835.0,0.0018
1834.0,0.0018
1833.0,0.0018
1832.0,0.0018
1831.0,0.0018
1830.0,0.0018
1829.0,0.0017
1828.0,0.0017
1827.0,0.0017
1826.0,0.0017
1825.0,0.0016
1824.0,0.0016
1823.0,0.0015
1822.0,0.0014
1821.0,0.0012
1820.0,0.0011
1819.0,0.001
1818.0,0.0009
1817.0,0.0008
1816.0,0.0007
1815.0,0.0005
1814.0,0.0004
1813.0,0.0002
1812.0,0.0001
1811.0,-0.0001
1810.0,-0.0002
1809.0,-0.0004
1808.0,-0.0005
1807.0,-0.0006
1806.0,-0.0007
1805.0,-0.0008
1804.0,-0.001
1803.0,-0.0011
1802.0,-0.0012
1801.0,-0.0014
1800.0,-0.0016
1799.0,-0.0018
1798.0,-0.002
1797.0,-0.0021
1796.0,-0.0022
1795.0,-0.0023
1794.0,-0.0024
1793.0,-0.0026
1792.0,-0.0028
1791.0,-0.0029
1790.0,-0.003
1789.0,-0.003
1788.0,-0.0031
1787.0,-0.0032
1786.0,-0.0033
1785.0,-0.0034
1784.0,-0.0036
1783.0,-0.0037
1782.0,-0.0038
1781.0,-0.004
1780.0,-0.0041
1779.0,-0.0041
1778.0,-0.0041
1777.0,-0.0041
1776.0,-0.0041
1775.0,-0.004
1774.0,-0.004
1773.0,-0.0042
1772.0,-0.0044
1771.0,-0.0043
1770.0,-0.0041
1769.0,-0.0039
1768.0,-0.0039
1767.0,-0.0038
1766.0,-0.0037
1765.0,-0.0035
1764.0,-0.0033
1763.0,-0.003
1762.0,-0.0025
1761.0,-0.0021
1760.0,-0.0017
1759.0,-0.001
1758.0,-0.0003
1757.0,0.0005
1756.0,0.0013
1755.0,0.0023
1754.0,0.0034
1753.0,0.0045
1752.0,0.0059
1751.0,0.0079
1750.0,0.0105
1749.0,0.0133
1748.0,0.0165
1747.0,0.0201
1746.0,0.0241
1745.0,0.0287
1744.0,0.0341
1743.0,0.0402
1742.0,0.0467
1741.0,0.0542
1740.0,0.0635
1739.0,0.0733
1738.0,0.0811
1737.0,0.0872
1736.0,0.0939
1735.0,0.1056
1734.0,0.1218
1733.0,0.1349
1732.0,0.1439
1731.0,0.1528
1730.0,0.1628
1729.0,0.1732
1728.0,0.1827
1727.0,0.1917
1726.0,0.2008
1725.0,0.2103
1724.0,0.2204
1723.0,0.23
1722.0,0.238
1721.0,0.2438
1720.0,0.2485
1719.0,0.2544
1718.0,0.2628
1717.0,0.2697
1716.0,0.2724
1715.0,0.2725
1714.0,0.2707
1713.0,0.2666
1712.0,0.2601
1711.0,0.2519
1710.0,0.2425
1709.0,0.2323
1708.0,0.2211
1707.0,0.2083
1706.0,0.1943
1705.0,0.1817
1704.0,0.1723
1703.0,0.1648
1702.0,0.1567
1701.0,0.1461
1700.0,0.1355
1699.0,0.1284
1698.0,0.1236
1697.0,0.1185
1696.0,0.1123
1695.0,0.1069
1694.0,0.1033
1693.0,0.1005
1692.0,0.0978
1691.0,0.0947
1690.0,0.0917
1689.0,0.0892
1688.0,0.0873
1687.0,0.0853
1686.0,0.083
1685.0,0.0808
1684.0,0.0791
1683.0,0.0777
1682.0,0.0765
1681.0,0.0752
1680.0,0.0736
1679.0,0.072
1678.0,0.0703
1677.0,0.0686
1676.0,0.0668
1675.0,0.0651
1674.0,0.0637
1673.0,0.0625
1672.0,0.0613
1671.0,0.0599
1670.0,0.0583
1669.0,0.0571
1668.0,0.056
1667.0,0.055
1666.0,0.0539
1665.0,0.0528
1664.0,0.0515
1663.0,0.0503
1662.0,0.0492
1661.0,0.0483
1660.0,0.0475
1659.0,0.0465
1658.0,0.0456
1657.0,0.0447
1656.0,0.0438
1655.0,0.0428
1654.0,0.042
1653.0,0.0416
1652.0,0.041
1651.0,0.0407
1650.0,0.0404
1649.0,0.0399
1648.0,0.0394
1647.0,0.039
1646.0,0.0386
1645.0,0.0382
1644.0,0.0379
1643.0,0.0375
1642.0,0.0371
1641.0,0.0367
1640.0,0.0362
1639.0,0.0357
1638.0,0.0351
1637.0,0.0347
1636.0,0.0346
1635.0,0.0344
1634.0,0.0342
1633.0,0.0341
1632.0,0.0339
1631.0,0.0335
1630.0,0.0331
1629.0,0.0328
1628.0,0.0325
1627.0,0.0323
1626.0,0.032
1625.0,0.0317
1624.0,0.0315
1623.0,0.0313
1622.0,0.0312
1621.0,0.0312
1620.0,0.0311
1619.0,0.0311
1618.0,0.0314
1617.0,0.0323
1616.0,0.0332
1615.0,0.0337
1614.0,0.0337
1613.0,0.0336
1612.0,0.0332
1611.0,0.0327
1610.0,0.0322
1609.0,0.0316
1608.0,0.031
1607.0,0.0303
1606.0,0.0296
1605.0,0.0289
1604.0,0.0283
1603.0,0.0277
1602.0,0.0271
1601.0,0.0265
1600.0,0.026
1599.0,0.0254
1598.0,0.025
1597.0,0.0246
1596.0,0.0243
1595.0,0.024
1594.0,0.0238
1593.0,0.0237
1592.0,0.0236
1591.0,0.0235
1590.0,0.0234
1589.0,0.0234
1588.0,0.0235
1587.0,0.0239
1586.0,0.0245
1585.0,0.0255
1584.0,0.027
1583.0,0.0289
1582.0,0.0311
1581.0,0.0332
1580.0,0.0349
1579.0,0.036
1578.0,0.0362
1577.0,0.0355
1576.0,0.0341
1575.0,0.0326
1574.0,0.0314
1573.0,0.0303
1572.0,0.0291
1571.0,0.0277
1570.0,0.0264
1569.0,0.0254
1568.0,0.0248
1567.0,0.0243
1566.0,0.0237
1565.0,0.0231
1564.0,0.0227
1563.0,0.0222
1562.0,0.0217
1561.0,0.021
1560.0,0.0206
1559.0,0.0207
1558.0,0.0203
1557.0,0.02
1556.0,0.0199
1555.0,0.0197
1554.0,0.0194
1553.0,0.0191
1552.0,0.019
1551.0,0.0188
1550.0,0.0187
1549.0,0.0185
1548.0,0.0182
1547.0,0.0179
1546.0,0.0176
1545.0,0.0174
1544.0,0.0174
1543.0,0.0172
1542.0,0.0169
1541.0,0.0168
1540.0,0.0167
1539.0,0.0164
1538.0,0.0162
1537.0,0.0162
1536.0,0.0162
1535.0,0.0162
1534.0,0.0163
1533.0,0.0165
1532.0,0.0166
1531.0,0.0166
1530.0,0.0166
1529.0,0.0166
1528.0,0.0166
1527.0,0.0166
1526.0,0.0165
1525.0,0.0164
1524.0,0.0162
1523.0,0.0159
1522.0,0.0158
1521.0,0.0156
1520.0,0.0153
1519.0,0.0151
1518.0,0.015
1517.0,0.015
1516.0,0.015
1515.0,0.015
1514.0,0.0151
1513.0,0.0154
1512.0,0.016
1511.0,0.0167
1510.0,0.0178
1509.0,0.0194
1508.0,0.0235
1507.0,0.0305
1506.0,0.0352
1505.0,0.0359
1504.0,0.0349
1503.0,0.0328
1502.0,0.0299
1501.0,0.0267
1500.0,0.0234
1499.0,0.0205
1498.0,0.018
1497.0,0.016
1496.0,0.0145
1495.0,0.0134
1494.0,0.0127
1493.0,0.0122
1492.0,0.0118
1491.0,0.0115
1490.0,0.0113
1489.0,0.0112
1488.0,0.0111
1487.0,0.0109
1486.0,0.0108
1485.0,0.0107
1484.0,0.0108
1483.0,0.0108
1482.0,0.011
1481.0,0.0112
1480.0,0.0115
1479.0,0.0116
1478.0,0.0117
1477.0,0.0119
1476.0,0.0122
1475.0,0.0123
1474.0,0.0125
1473.0,0.0129
1472.0,0.0134
1471.0,0.0137
1470.0,0.0141
1469.0,0.0146
1468.0,0.0152
1467.0,0.0161
1466.0,0.0174
1465.0,0.0194
1464.0,0.0216
1463.0,0.0233
1462.0,0.0248
1461.0,0.0263
1460.0,0.0279
1459.0,0.0297
1458.0,0.0324
1457.0,0.0356
1456.0,0.0376
1455.0,0.0385
1454.0,0.039
1453.0,0.0392
1452.0,0.0393
1451.0,0.0391
1450.0,0.0389
1449.0,0.0386
1448.0,0.0384
1447.0,0.0381
1446.0,0.0379
1445.0,0.0378
1444.0,0.0377
1443.0,0.0375
1442.0,0.0372
1441.0,0.0369
1440.0,0.0364
1439.0,0.0357
1438.0,0.0345
1437.0,0.0328
1436.0,0.0308
1435.0,0.0288
1434.0,0.027
1433.0,0.025
1432.0,0.0228
1431.0,0.0205
1430.0,0.0183
1429.0,0.0164
1428.0,0.0149
1427.0,0.0138
1426.0,0.013
1425.0,0.0123
1424.0,0.0118
1423.0,0.0117
1422.0,0.0118
1421.0,0.0123
1420.0,0.0137
1419.0,0.0166
1418.0,0.0206
1417.0,0.0253
1416.0,0.031
1415.0,0.0381
1414.0,0.047
1413.0,0.0576
1412.0,0.0693
1411.0,0.0801
1410.0,0.0879
1409.0,0.0921
1408.0,0.0925
1407.0,0.0893
1406.0,0.0834
1405.0,0.0764
1404.0,0.0698
1403.0,0.0644
1402.0,0.06
1401.0,0.0562
1400.0,0.0524
1399.0,0.0489
1398.0,0.0459
1397.0,0.0436
1396.0,0.0413
1395.0,0.039
1394.0,0.0367
1393.0,0.0348
1392.0,0.0332
1391.0,0.0318
1390.0,0.0303
1389.0,0.029
1388.0,0.0278
1387.0,0.0268
1386.0,0.0261
1385.0,0.0258
1384.0,0.0257
1383.0,0.026
1382.0,0.0266
1381.0,0.0275
1380.0,0.0287
1379.0,0.0303
1378.0,0.032
1377.0,0.0338
1376.0,0.0359
1375.0,0.0382
1374.0,0.0407
1373.0,0.0426
1372.0,0.044
1371.0,0.0446
1370.0,0.0445
1369.0,0.0436
1368.0,0.0419
1367.0,0.0393
1366.0,0.0363
1365.0,0.0328
1364.0,0.0289
1363.0,0.0248
1362.0,0.021
1361.0,0.0181
1360.0,0.0159
1359.0,0.0142
1358.0,0.0128
1357.0,0.0118
1356.0,0.011
1355.0,0.0105
1354.0,0.0102
1353.0,0.0101
1352.0,0.0102
1351.0,0.0106
1350.0,0.0112
1349.0,0.0121
1348.0,0.0133
1347.0,0.0147
1346.0,0.0164
1345.0,0.0182
1344.0,0.0201
1343.0,0.0217
1342.0,0.0231
1341.0,0.0242
1340.0,0.0247
1339.0,0.0243
1338.0,0.023
1337.0,0.0211
1336.0,0.019
1335.0,0.0168
1334.0,0.0148
1333.0,0.0133
1332.0,0.0122
1331.0,0.0117
1330.0,0.0115
1329.0,0.0118
1328.0,0.0124
1327.0,0.0132
1326.0,0.0143
1325.0,0.0156
1324.0,0.0171
1323.0,0.0186
1322.0,0.0203
1321.0,0.022
1320.0,0.0237
1319.0,0.0255
1318.0,0.0271
1317.0,0.0288
1316.0,0.0304
1315.0,0.0322
1314.0,0.0342
1313.0,0.0363
1312.0,0.0386
1311.0,0.041
1310.0,0.0434
1309.0,0.046
1308.0,0.0488
1307.0,0.0514
1306.0,0.054
1305.0,0.0565
1304.0,0.0593
1303.0,0.0624
1302.0,0.066
1301.0,0.0703
1300.0,0.0755
1299.0,0.0812
1298.0,0.0873
1297.0,0.0938
1296.0,0.1005
1295.0,0.1072
1294.0,0.1137
1293.0,0.1201
1292.0,0.1264
1291.0,0.1325
1290.0,0.1382
1289.0,0.1437
1288.0,0.1489
1287.0,0.1537
1286.0,0.1579
1285.0,0.1616
1284.0,0.1651
1283.0,0.168
1282.0,0.1704
1281.0,0.1725
1280.0,0.1744
1279.0,0.176
1278.0,0.1774
1277.0,0.1791
1276.0,0.1813
1275.0,0.184
1274.0,0.1874
1273.0,0.1921
1272.0,0.1981
1271.0,0.2053
1270.0,0.2133
1269.0,0.2222
1268.0,0.2316
1267.0,0.2412
1266.0,0.2505
1265.0,0.2595
1264.0,0.268
1263.0,0.2755
1262.0,0.2818
1261.0,0.287
1260.0,0.291
1259.0,0.2935
1258.0,0.2947
1257.0,0.2953
1256.0,0.2959
1255.0,0.2966
1254.0,0.2974
1253.0,0.2991
1252.0,0.3017
1251.0,0.3049
1250.0,0.3086
1249.0,0.3129
1248.0,0.3178
1247.0,0.3229
1246.0,0.3279
1245.0,0.3329
1244.0,0.3379
1243.0,0.3422
1242.0,0.3455
1241.0,0.3477
1240.0,0.3487
1239.0,0.3478
1238.0,0.3447
1237.0,0.3397
1236.0,0.3329
1235.0,0.3239
1234.0,0.3133
1233.0,0.3017
1232.0,0.2898
1231.0,0.2777
1230.0,0.2657
1229.0,0.2543
1228.0,0.2435
1227.0,0.2329
1226.0,0.2227
1225.0,0.213
1224.0,0.2039
1223.0,0.1952
1222.0,0.1869
1221.0,0.1792
1220.0,0.172
1219.0,0.1652
1218.0,0.1587
1217.0,0.1527
1216.0,0.1471
1215.0,0.1419
1214.0,0.137
1213.0,0.1326
1212.0,0.1284
1211.0,0.1245
1210.0,0.1209
1209.0,0.1174
1208.0,0.1143
1207.0,0.1112
1206.0,0.1083
1205.0,0.1056
1204.0,0.1031
1203.0,0.1006
1202.0,0.0983
1201.0,0.096
1200.0,0.0939
1199.0,0.0918
1198.0,0.0897
1197.0,0.0877
1196.0,0.0857
1195.0,0.0838
1194.0,0.0819
1193.0,0.0802
1192.0,0.0785
1191.0,0.0769
1190.0,0.0755
1189.0,0.0742
1188.0,0.0731
1187.0,0.0722
1186.0,0.0716
1185.0,0.0712
1184.0,0.0711
1183.0,0.0714
1182.0,0.0721
1181.0,0.0731
1180.0,0.0744
1179.0,0.0757
1178.0,0.077
1177.0,0.0781
1176.0,0.079
1175.0,0.0794
1174.0,0.0793
1173.0,0.0786
1172.0,0.0772
1171.0,0.0752
1170.0,0.0726
1169.0,0.0697
1168.0,0.0667
1167.0,0.0638
1166.0,0.0611
1165.0,0.0587
1164.0,0.0568
1163.0,0.0552
1162.0,0.0538
1161.0,0.0526
1160.0,0.0517
1159.0,0.0511
1158.0,0.0507
1157.0,0.0506
1156.0,0.0509
1155.0,0.0515
1154.0,0.0526
1153.0,0.0543
1152.0,0.0564
1151.0,0.059
1150.0,0.062
1149.0,0.0655
1148.0,0.0694
1147.0,0.0738
1146.0,0.0785
1145.0,0.0835
1144.0,0.0887
1143.0,0.0939
1142.0,0.099
1141.0,0.1039
1140.0,0.1085
1139.0,0.1128
1138.0,0.1167
1137.0,0.1204
1136.0,0.1238
1135.0,0.127
1134.0,0.1301
1133.0,0.1332
1132.0,0.1364
1131.0,0.1398
1130.0,0.1435
1129.0,0.1479
1128.0,0.153
1127.0,0.1588
1126.0,0.1653
1125.0,0.1724
1124.0,0.1799
1123.0,0.1875
1122.0,0.1948
1121.0,0.2014
1120.0,0.2072
1119.0,0.2115
1118.0,0.2141
1117.0,0.2149
1116.0,0.2141
1115.0,0.2118
1114.0,0.2085
1113.0,0.2051
1112.0,0.2026
1111.0,0.2014
1110.0,0.2023
1109.0,0.2057
1108.0,0.2115
1107.0,0.2193
1106.0,0.2286
1105.0,0.2392
1104.0,0.2509
1103.0,0.2633
1102.0,0.2758
1101.0,0.2883
1100.0,0.3004
1099.0,0.3114
1098.0,0.3208
1097.0,0.3289
1096.0,0.3356
1095.0,0.3403
1094.0,0.3429
1093.0,0.3437
1092.0,0.3428
1091.0,0.34
1090.0,0.3355
1089.0,0.33
1088.0,0.3237
1087.0,0.3168
1086.0,0.3093
1085.0,0.3016
1084.0,0.2938
1083.0,0.2855
1082.0,0.2764
1081.0,0.267
1080.0,0.2572
1079.0,0.247
1078.0,0.2365
1077.0,0.2262
1076.0,0.2162
1075.0,0.2065
1074.0,0.1971
1073.0,0.1883
1072.0,0.1803
1071.0,0.1728
1070.0,0.1658
1069.0,0.1594
1068.0,0.1537
1067.0,0.1484
1066.0,0.1435
1065.0,0.1392
1064.0,0.1353
1063.0,0.1318
1062.0,0.1287
1061.0,0.126
1060.0,0.1239
1059.0,0.1222
1058.0,0.1211
1057.0,0.1207
1056.0,0.1211
1055.0,0.122
1054.0,0.1234
1053.0,0.1253
1052.0,0.1278
1051.0,0.1306
1050.0,0.1336
1049.0,0.1366
1048.0,0.1396
1047.0,0.1425
1046.0,0.145
1045.0,0.1474
1044.0,0.1493
1043.0,0.1506
1042.0,0.1512
1041.0,0.1512
1040.0,0.1507
1039.0,0.1497
1038.0,0.1483
1037.0,0.1467
1036.0,0.1451
1035.0,0.1434
1034.0,0.1416
1033.0,0.1399
1032.0,0.1383
1031.0,0.1366
1030.0,0.1348
1029.0,0.1331
1028.0,0.1315
1027.0,0.1303
1026.0,0.1297
1025.0,0.1305
1024.0,0.1334
1023.0,0.1393
1022.0,0.1489
1021.0,0.1624
1020.0,0.1793
1019.0,0.1974
1018.0,0.2136
1017.0,0.2243
1016.0,0.2269
1015.0,0.2205
1014.0,0.2073
1013.0,0.1911
1012.0,0.1753
1011.0,0.1616
1010.0,0.1504
1009.0,0.1414
1008.0,0.1341
1007.0,0.1279
1006.0,0.1228
1005.0,0.1186
1004.0,0.1152
1003.0,0.1123
1002.0,0.1098
1001.0,0.1075
1000.0,0.1055
999.0,0.1036
998.0,0.1019
997.0,0.1003
996.0,0.0989
995.0,0.0977
994.0,0.0966
993.0,0.0956
992.0,0.0948
991.0,0.094
990.0,0.0933
989.0,0.0928
988.0,0.0923
987.0,0.092
986.0,0.0916
985.0,0.0913
984.0,0.091
983.0,0.0909
982.0,0.0907
981.0,0.0907
980.0,0.0907
979.0,0.0907
978.0,0.0906
977.0,0.0906
976.0,0.0906
975.0,0.0906
974.0,0.0904
973.0,0.0902
972.0,0.0898
971.0,0.0893
970.0,0.0886
969.0,0.0878
968.0,0.087
967.0,0.0861
966.0,0.085
965.0,0.0839
964.0,0.0827
963.0,0.0815
962.0,0.0804
961.0,0.0795
960.0,0.0787
959.0,0.0778
958.0,0.077
957.0,0.0761
956.0,0.0754
955.0,0.0748
954.0,0.0743
953.0,0.0738
952.0,0.0733
951.0,0.0729
950.0,0.0724
949.0,0.0719
948.0,0.0715
947.0,0.0711
946.0,0.0708
945.0,0.0705
944.0,0.0703
943.0,0.0701
942.0,0.0698
941.0,0.0695
940.0,0.0692
939.0,0.0689
938.0,0.0687
937.0,0.0685
936.0,0.0683
935.0,0.0681
934.0,0.0679
933.0,0.0676
932.0,0.0674
931.0,0.0672
930.0,0.0669
929.0,0.0665
928.0,0.0661
927.0,0.0656
926.0,0.0651
925.0,0.0646
924.0,0.0643
923.0,0.0639
922.0,0.0636
921.0,0.0633
920.0,0.063
919.0,0.0628
918.0,0.0627
917.0,0.0626
916.0,0.0627
915.0,0.0629
914.0,0.0633
913.0,0.0638
912.0,0.0646
911.0,0.0655
910.0,0.0667
909.0,0.0684
908.0,0.0704
907.0,0.0728
906.0,0.0752
905.0,0.0778
904.0,0.0805
903.0,0.0831
902.0,0.0855
901.0,0.0877
900.0,0.0895
899.0,0.0909
898.0,0.0919
897.0,0.0926
896.0,0.0932
895.0,0.0936
894.0,0.0937
893.0,0.0938
892.0,0.0938
891.0,0.0939
890.0,0.0942
889.0,0.0947
888.0,0.0955
887.0,0.0966
886.0,0.0979
885.0,0.0995
884.0,0.1014
883.0,0.1038
882.0,0.1067
881.0,0.1105
880.0,0.1149
879.0,0.1199
878.0,0.1252
877.0,0.1307
876.0,0.1362
875.0,0.1411
874.0,0.1448
873.0,0.147
872.0,0.1471
871.0,0.145
870.0,0.1407
869.0,0.135
868.0,0.1287
867.0,0.1222
866.0,0.1161
865.0,0.1108
864.0,0.1063
863.0,0.1027
862.0,0.0998
861.0,0.0975
860.0,0.0959
859.0,0.0946
858.0,0.0936
857.0,0.0931
856.0,0.0929
855.0,0.0929
854.0,0.0929
853.0,0.0928
852.0,0.0928
851.0,0.0927
850.0,0.0926
849.0,0.0926
848.0,0.0926
847.0,0.0927
846.0,0.0928
845.0,0.093
844.0,0.0932
843.0,0.0934
842.0,0.0935
841.0,0.0935
840.0,0.0935
839.0,0.0932
838.0,0.0926
837.0,0.0917
836.0,0.0908
835.0,0.0899
834.0,0.0889
833.0,0.088
832.0,0.0872
831.0,0.0864
830.0,0.0855
829.0,0.0848
828.0,0.0841
827.0,0.0833
826.0,0.0823
825.0,0.0814
824.0,0.0808
823.0,0.0803
822.0,0.08
821.0,0.0797
820.0,0.0795
819.0,0.0792
818.0,0.079
817.0,0.079
816.0,0.0791
815.0,0.0793
814.0,0.0795
813.0,0.0796
812.0,0.0796
811.0,0.0796
810.0,0.0794
809.0,0.0792
808.0,0.079
807.0,0.0788
806.0,0.0786
805.0,0.0783
804.0,0.0779
803.0,0.0773
802.0,0.0764
801.0,0.0757
800.0,0.0754
799.0,0.0759
798.0,0.0777
797.0,0.0807
796.0,0.0845
795.0,0.088
794.0,0.0906
793.0,0.0916
792.0,0.0911
791.0,0.0891
790.0,0.0862
789.0,0.083
788.0,0.0798
787.0,0.0766
786.0,0.0736
785.0,0.0709
784.0,0.0686
783.0,0.0666
782.0,0.0649
781.0,0.0636
780.0,0.0625
779.0,0.0613
778.0,0.06
777.0,0.0587
776.0,0.0575
775.0,0.0563
774.0,0.0553
773.0,0.0544
772.0,0.0536
771.0,0.0527
770.0,0.0516
769.0,0.0505
768.0,0.0494
767.0,0.0484
766.0,0.0474
765.0,0.0464
764.0,0.0454
763.0,0.0443
762.0,0.0432
761.0,0.0422
760.0,0.041
759.0,0.0398
758.0,0.0385
757.0,0.0372
756.0,0.036
755.0,0.0348
754.0,0.0336
753.0,0.0326
752.0,0.0316
751.0,0.0307
750.0,0.0298
749.0,0.0291
748.0,0.0286
747.0,0.0285
746.0,0.0289
745.0,0.0303
744.0,0.033
743.0,0.0373
742.0,0.0439
741.0,0.0533
740.0,0.0657
739.0,0.0808
738.0,0.0982
737.0,0.1177
736.0,0.1387
735.0,0.1604
734.0,0.1824
733.0,0.2052
732.0,0.2296
731.0,0.2558
730.0,0.2844
729.0,0.3162
728.0,0.351
727.0,0.3863
726.0,0.4177
725.0,0.4397
724.0,0.4472
723.0,0.4374
722.0,0.4116
721.0,0.3752
720.0,0.3356
719.0,0.2993
718.0,0.2692
717.0,0.245
716.0,0.2256
715.0,0.2101
714.0,0.198
713.0,0.1887
712.0,0.1817
711.0,0.176
710.0,0.171
709.0,0.1664
708.0,0.1622
707.0,0.158
706.0,0.154
705.0,0.1501
704.0,0.1466
703.0,0.1431
702.0,0.1394
701.0,0.1353
700.0,0.131
699.0,0.1264
698.0,0.122
697.0,0.1181
696.0,0.1151
695.0,0.1126
694.0,0.1103
693.0,0.1083
692.0,0.1065
691.0,0.1046
690.0,0.1026
689.0,0.1006
688.0,0.0991
687.0,0.0983
686.0,0.098
685.0,0.0981
684.0,0.0984
683.0,0.0989
682.0,0.0994
681.0,0.0995
680.0,0.0989
679.0,0.0976
678.0,0.0959
677.0,0.0945
676.0,0.0936
675.0,0.0928
674.0,0.0922
673.0,0.0917
672.0,0.0911
671.0,0.09
670.0,0.0883
669.0,0.086
668.0,0.0841
667.0,0.0838
666.0,0.0836
665.0,0.083
664.0,0.0828
663.0,0.0828
662.0,0.0826
661.0,0.082
660.0,0.0816
659.0,0.0814
658.0,0.0809
657.0,0.0803
656.0,0.0796
655.0,0.0789
654.0,0.0783
653.0,0.0781
652.0,0.0785
651.0,0.0791
650.0,0.0794
649.0,0.0791
648.0,0.0786
647.0,0.0784
646.0,0.0783
645.0,0.078
644.0,0.0772
643.0,0.0762
642.0,0.0753
641.0,0.0753
640.0,0.0763
639.0,0.0779
638.0,0.0794
637.0,0.0809
636.0,0.0827
635.0,0.0847
634.0,0.0867
633.0,0.0881
632.0,0.0881
631.0,0.0862
630.0,0.0832
629.0,0.0804
628.0,0.0788
627.0,0.0783
626.0,0.0786
625.0,0.0789
624.0,0.0785
623.0,0.0775
622.0,0.0764
621.0,0.076
620.0,0.076
619.0,0.076
618.0,0.0756
617.0,0.0754
616.0,0.0758
615.0,0.0766
614.0,0.0771
613.0,0.0773
612.0,0.0772
611.0,0.077
610.0,0.0766
609.0,0.0764
608.0,0.0766
607.0,0.0767
606.0,0.0765
605.0,0.0763
604.0,0.076
603.0,0.0755
602.0,0.0747
601.0,0.074
600.0,0.0736
