cm-1,A
4000.0,0.0089
3999.0,0.0089
3998.0,0.0089
3997.0,0.0089
3996.0,0.0088
3995.0,0.0087
3994.0,0.0087
3993.0,0.0087
3992.0,0.0087
3991.0,0.0087
3990.0,0.0087
3989.0,0.0087
3988.0,0.0087
3987.0,0.0087
3986.0,0.0087
3985.0,0.0087
3984.0,0.0088
3983.0,0.0088
3982.0,0.0088
3981.0,0.0088
3980.0,0.0088
3979.0,0.0088
3978.0,0.0089
3977.0,0.0089
3976.0,0.0089
3975.0,0.0089
3974.0,0.0089
3973.0,0.0089
3972.0,0.0089
3971.0,0.0089
3970.0,0.0089
3969.0,0.0089
3968.0,0.009
3967.0,0.009
3966.0,0.0089
3965.0,0.0089
3964.0,0.0089
3963.0,0.0089
3962.0,0.0089
3961.0,0.0089
3960.0,0.0089
3959.0,0.0088
3958.0,0.0088
3957.0,0.0089
3956.0,0.0089
3955.0,0.0089
3954.0,0.0089
3953.0,0.0089
3952.0,0.0089
3951.0,0.0089
3950.0,0.0089
3949.0,0.0089
3948.0,0.0088
3947.0,0.0088
3946.0,0.0089
3945.0,0.0089
3944.0,0.0089
3943.0,0.0089
3942.0,0.0088
3941.0,0.0088
3940.0,0.0087
3939.0,0.0087
3938.0,0.0087
3937.0,0.0087
3936.0,0.0088
3935.0,0.0088
3934.0,0.0088
3933.0,0.0089
3932.0,0.0089
3931.0,0.0089
3930.0,0.0089
3929.0,0.0088
3928.0,0.0088
3927.0,0.0088
3926.0,0.0088
3925.0,0.0088
3924.0,0.0088
3923.0,0.0087
3922.0,0.0087
3921.0,0.0088
3920.0,0.0089
3919.0,0.009
3918.0,0.0091
3917.0,0.0091
3916.0,0.009
3915.0,0.009
3914.0,0.009
3913.0,0.0091
3912.0,0.0091
3911.0,0.0091
3910.0,0.0091
3909.0,0.009
3908.0,0.0089
3907.0,0.0089
3906.0,0.0089
3905.0,0.009
3904.0,0.0091
3903.0,0.0091
3902.0,0.009
3901.0,0.009
3900.0,0.009
3899.0,0.009
3898.0,0.009
3897.0,0.009
3896.0,0.009
3895.0,0.009
3894.0,0.009
3893.0,0.009
3892.0,0.009
3891.0,0.009
3890.0,0.0089
3889.0,0.0089
3888.0,0.009
3887.0,0.009
3886.0,0.0089
3885.0,0.0088
3884.0,0.0088
3883.0,0.0089
3882.0,0.009
3881.0,0.009
3880.0,0.009
3879.0,0.0089
3878.0,0.0089
3877.0,0.009
3876.0,0.0091
3875.0,0.009
3874.0,0.0089
3873.0,0.0088
3872.0,0.0088
3871.0,0.0089
3870.0,0.0089
3869.0,0.0088
3868.0,0.0088
3867.0,0.0089
3866.0,0.009
3865.0,0.009
3864.0,0.009
3863.0,0.009
3862.0,0.0089
3861.0,0.0089
3860.0,0.0089
3859.0,0.0088
3858.0,0.0087
3857.0,0.0085
3856.0,0.0083
3855.0,0.0084
3854.0,0.0086
3853.0,0.0086
3852.0,0.0086
3851.0,0.0088
3850.0,0.009
3849.0,0.0092
3848.0,0.0092
3847.0,0.0092
3846.0,0.0092
3845.0,0.0091
3844.0,0.0089
3843.0,0.0087
3842.0,0.0085
3841.0,0.0084
3840.0,0.0085
3839.0,0.0087
3838.0,0.0088
3837.0,0.0089
3836.0,0.0088
3835.0,0.0089
3834.0,0.009
3833.0,0.0091
3832.0,0.0091
3831.0,0.0092
3830.0,0.0092
3829.0,0.0093
3828.0,0.0093
3827.0,0.0092
3826.0,0.0091
3825.0,0.009
3824.0,0.0088
3823.0,0.0087
3822.0,0.0086
3821.0,0.0085
3820.0,0.0084
3819.0,0.0085
3818.0,0.0087
3817.0,0.0089
3816.0,0.0089
3815.0,0.0089
3814.0,0.0091
3813.0,0.0093
3812.0,0.0094
3811.0,0.0094
3810.0,0.0093
3809.0,0.0093
3808.0,0.0093
3807.0,0.0092
3806.0,0.009
3805.0,0.0089
3804.0,0.0088
3803.0,0.0089
3802.0,0.009
3801.0,0.009
3800.0,0.009
3799.0,0.0091
3798.0,0.0092
3797.0,0.0093
3796.0,0.0093
3795.0,0.0093
3794.0,0.0094
3793.0,0.0094
3792.0,0.0094
3791.0,0.0094
3790.0,0.0094
3789.0,0.0094
3788.0,0.0094
3787.0,0.0094
3786.0,0.0094
3785.0,0.0093
3784.0,0.0092
3783.0,0.0091
3782.0,0.0091
3781.0,0.0091
3780.0,0.0091
3779.0,0.0091
3778.0,0.0091
3777.0,0.0091
3776.0,0.0092
3775.0,0.0092
3774.0,0.0092
3773.0,0.0092
3772.0,0.0093
3771.0,0.0094
3770.0,0.0094
3769.0,0.0093
3768.0,0.0093
3767.0,0.0093
3766.0,0.0093
3765.0,0.0093
3764.0,0.0093
3763.0,0.0093
3762.0,0.0093
3761.0,0.0093
3760.0,0.0092
3759.0,0.0091
3758.0,0.009
3757.0,0.009
3756.0,0.0089
3755.0,0.0089
3754.0,0.0087
3753.0,0.0086
3752.0,0.0086
3751.0,0.0087
3750.0,0.0088
3749.0,0.0088
3748.0,0.0089
3747.0,0.0091
3746.0,0.0093
3745.0,0.0095
3744.0,0.0095
3743.0,0.0096
3742.0,0.0097
3741.0,0.0098
3740.0,0.0098
3739.0,0.0097
3738.0,0.0096
3737.0,0.0096
3736.0,0.0096
3735.0,0.0097
3734.0,0.0097
3733.0,0.0098
3732.0,0.0098
3731.0,0.0099
3730.0,0.0099
3729.0,0.01
3728.0,0.0101
3727.0,0.0101
3726.0,0.0101
3725.0,0.0101
3724.0,0.0101
3723.0,0.0101
3722.0,0.0101
3721.0,0.01
3720.0,0.01
3719.0,0.0099
3718.0,0.0099
3717.0,0.0098
3716.0,0.0098
3715.0,0.0097
3714.0,0.0097
3713.0,0.0097
3712.0,0.0098
3711.0,0.0099
3710.0,0.0099
3709.0,0.0099
3708.0,0.01
3707.0,0.01
3706.0,0.0101
3705.0,0.0101
3704.0,0.0101
3703.0,0.0102
3702.0,0.0102
3701.0,0.0102
3700.0,0.0102
3699.0,0.0103
3698.0,0.0104
3697.0,0.0104
3696.0,0.0104
3695.0,0.0104
3694.0,0.0103
3693.0,0.0102
3692.0,0.01
3691.0,0.0099
3690.0,0.0099
3689.0,0.0099
3688.0,0.0099
3687.0,0.01
3686.0,0.0103
3685.0,0.0105
3684.0,0.0107
3683.0,0.0107
3682.0,0.0106
3681.0,0.0105
3680.0,0.0103
3679.0,0.0102
3678.0,0.0102
3677.0,0.0102
3676.0,0.0102
3675.0,0.0099
3674.0,0.0097
3673.0,0.0097
3672.0,0.0098
3671.0,0.01
3670.0,0.0101
3669.0,0.0101
3668.0,0.0101
3667.0,0.0102
3666.0,0.0104
3665.0,0.0105
3664.0,0.0105
3663.0,0.0106
3662.0,0.0106
3661.0,0.0107
3660.0,0.0107
3659.0,0.0107
3658.0,0.0107
3657.0,0.0107
3656.0,0.0106
3655.0,0.0104
3654.0,0.0103
3653.0,0.0102
3652.0,0.0102
3651.0,0.0104
3650.0,0.0108
3649.0,0.0109
3648.0,0.0108
3647.0,0.0106
3646.0,0.0106
3645.0,0.0107
3644.0,0.0108
3643.0,0.011
3642.0,0.0111
3641.0,0.0112
3640.0,0.0113
3639.0,0.0113
3638.0,0.0113
3637.0,0.0113
3636.0,0.0113
3635.0,0.0113
3634.0,0.0112
3633.0,0.0111
3632.0,0.011
3631.0,0.0111
3630.0,0.0113
3629.0,0.0115
3628.0,0.0115
3627.0,0.0115
3626.0,0.0116
3625.0,0.0117
3624.0,0.0117
3623.0,0.0116
3622.0,0.0116
3621.0,0.0115
3620.0,0.0115
3619.0,0.0115
3618.0,0.0115
3617.0,0.0114
3616.0,0.0115
3615.0,0.0115
3614.0,0.0115
3613.0,0.0115
3612.0,0.0115
3611.0,0.0117
3610.0,0.0119
3609.0,0.0122
3608.0,0.0124
3607.0,0.0124
3606.0,0.0123
3605.0,0.0122
3604.0,0.0122
3603.0,0.0122
3602.0,0.0121
3601.0,0.0121
3600.0,0.0121
3599.0,0.0121
3598.0,0.0122
3597.0,0.0122
3596.0,0.0123
3595.0,0.0123
3594.0,0.0123
3593.0,0.0123
3592.0,0.0123
3591.0,0.0123
3590.0,0.0123
3589.0,0.0124
3588.0,0.0124
3587.0,0.0124
3586.0,0.0122
3585.0,0.0121
3584.0,0.0121
3583.0,0.0121
3582.0,0.0122
3581.0,0.0123
3580.0,0.0123
3579.0,0.0123
3578.0,0.0122
3577.0,0.0121
3576.0,0.012
3575.0,0.0119
3574.0,0.0119
3573.0,0.0119
3572.0,0.0119
3571.0,0.0119
3570.0,0.0118
3569.0,0.0119
3568.0,0.0121
3567.0,0.0123
3566.0,0.0124
3565.0,0.0124
3564.0,0.0125
3563.0,0.0125
3562.0,0.0125
3561.0,0.0125
3560.0,0.0125
3559.0,0.0124
3558.0,0.0123
3557.0,0.0123
3556.0,0.0122
3555.0,0.0122
3554.0,0.0123
3553.0,0.0125
3552.0,0.0127
3551.0,0.0127
3550.0,0.0128
3549.0,0.0128
3548.0,0.0128
3547.0,0.0128
3546.0,0.0129
3545.0,0.0129
3544.0,0.0128
3543.0,0.0128
3542.0,0.0128
3541.0,0.0128
3540.0,0.0128
3539.0,0.0129
3538.0,0.013
3537.0,0.013
3536.0,0.0129
3535.0,0.0129
3534.0,0.0129
3533.0,0.0129
3532.0,0.0129
3531.0,0.013
3530.0,0.0129
3529.0,0.0129
3528.0,0.0129
3527.0,0.0129
3526.0,0.013
3525.0,0.013
3524.0,0.0131
3523.0,0.0132
3522.0,0.0132
3521.0,0.0132
3520.0,0.0133
3519.0,0.0133
3518.0,0.0133
3517.0,0.0133
3516.0,0.0132
3515.0,0.0132
3514.0,0.0132
3513.0,0.0132
3512.0,0.0133
3511.0,0.0133
3510.0,0.0133
3509.0,0.0133
3508.0,0.0133
3507.0,0.0133
3506.0,0.0134
3505.0,0.0135
3504.0,0.0135
3503.0,0.0135
3502.0,0.0134
3501.0,0.0133
3500.0,0.0132
3499.0,0.0133
3498.0,0.0134
3497.0,0.0135
3496.0,0.0136
3495.0,0.0136
3494.0,0.0135
3493.0,0.0134
3492.0,0.0133
3491.0,0.0132
3490.0,0.0133
3489.0,0.0133
3488.0,0.0134
3487.0,0.0134
3486.0,0.0134
3485.0,0.0134
3484.0,0.0134
3483.0,0.0135
3482.0,0.0135
3481.0,0.0136
3480.0,0.0136
3479.0,0.0136
3478.0,0.0136
3477.0,0.0137
3476.0,0.0137
3475.0,0.0137
3474.0,0.0137
3473.0,0.0137
3472.0,0.0137
3471.0,0.0138
3470.0,0.0138
3469.0,0.0138
3468.0,0.0137
3467.0,0.0136
3466.0,0.0135
3465.0,0.0136
3464.0,0.0137
3463.0,0.0138
3462.0,0.0139
3461.0,0.0139
3460.0,0.0139
3459.0,0.0138
3458.0,0.0137
3457.0,0.0137
3456.0,0.0137
3455.0,0.0138
3454.0,0.0139
3453.0,0.014
3452.0,0.014
3451.0,0.014
3450.0,0.014
3449.0,0.014
3448.0,0.014
3447.0,0.0139
3446.0,0.0139
3445.0,0.0138
3444.0,0.0138
3443.0,0.0139
3442.0,0.014
3441.0,0.0141
3440.0,0.0141
3439.0,0.0141
3438.0,0.0141
3437.0,0.0141
3436.0,0.0142
3435.0,0.0142
3434.0,0.0141
3433.0,0.014
3432.0,0.014
3431.0,0.014
3430.0,0.0141
3429.0,0.0141
3428.0,0.0141
3427.0,0.0141
3426.0,0.0141
3425.0,0.0141
3424.0,0.0141
3423.0,0.0141
3422.0,0.0141
3421.0,0.0141
3420.0,0.0141
3419.0,0.0141
3418.0,0.0142
3417.0,0.0142
3416.0,0.0142
3415.0,0.0141
3414.0,0.0141
3413.0,0.014
3412.0,0.0139
3411.0,0.0138
3410.0,0.0138
3409.0,0.0137
3408.0,0.0138
3407.0,0.014
3406.0,0.0141
3405.0,0.0141
3404.0,0.0141
3403.0,0.0141
3402.0,0.0141
3401.0,0.014
3400.0,0.014
3399.0,0.0139
3398.0,0.0139
3397.0,0.0138
3396.0,0.0139
3395.0,0.0139
3394.0,0.0139
3393.0,0.014
3392.0,0.014
3391.0,0.014
3390.0,0.0141
3389.0,0.0141
3388.0,0.014
3387.0,0.014
3386.0,0.0141
3385.0,0.0141
3384.0,0.0142
3383.0,0.0142
3382.0,0.0142
3381.0,0.0142
3380.0,0.0142
3379.0,0.0142
3378.0,0.0142
3377.0,0.0141
3376.0,0.0139
3375.0,0.0138
3374.0,0.0138
3373.0,0.0138
3372.0,0.0138
3371.0,0.0138
3370.0,0.0138
3369.0,0.0139
3368.0,0.0139
3367.0,0.0139
3366.0,0.0139
3365.0,0.0139
3364.0,0.0139
3363.0,0.0139
3362.0,0.014
3361.0,0.014
3360.0,0.0141
3359.0,0.0141
3358.0,0.014
3357.0,0.014
3356.0,0.014
3355.0,0.0139
3354.0,0.0138
3353.0,0.0137
3352.0,0.0136
3351.0,0.0136
3350.0,0.0137
3349.0,0.0137
3348.0,0.0137
3347.0,0.0136
3346.0,0.0135
3345.0,0.0135
3344.0,0.0134
3343.0,0.0134
3342.0,0.0134
3341.0,0.0135
3340.0,0.0135
3339.0,0.0136
3338.0,0.0137
3337.0,0.0137
3336.0,0.0137
3335.0,0.0137
3334.0,0.0137
3333.0,0.0137
3332.0,0.0137
3331.0,0.0136
3330.0,0.0135
3329.0,0.0135
3328.0,0.0135
3327.0,0.0136
3326.0,0.0136
3325.0,0.0136
3324.0,0.0134
3323.0,0.0133
3322.0,0.0131
3321.0,0.0131
3320.0,0.0131
3319.0,0.0132
3318.0,0.0133
3317.0,0.0133
3316.0,0.0134
3315.0,0.0134
3314.0,0.0133
3313.0,0.0133
3312.0,0.0132
3311.0,0.0132
3310.0,0.0133
3309.0,0.0133
3308.0,0.0133
3307.0,0.0132
3306.0,0.0132
3305.0,0.0131
3304.0,0.0132
3303.0,0.0132
3302.0,0.0132
3301.0,0.0132
3300.0,0.0131
3299.0,0.013
3298.0,0.013
3297.0,0.013
3296.0,0.0131
3295.0,0.0131
3294.0,0.0131
3293.0,0.0131
3292.0,0.013
3291.0,0.013
3290.0,0.0129
3289.0,0.0129
3288.0,0.0128
3287.0,0.0128
3286.0,0.0128
3285.0,0.0129
3284.0,0.0129
3283.0,0.013
3282.0,0.013
3281.0,0.0129
3280.0,0.0128
3279.0,0.0128
3278.0,0.0128
3277.0,0.0127
3276.0,0.0127
3275.0,0.0126
3274.0,0.0126
3273.0,0.0125
3272.0,0.0125
3271.0,0.0126
3270.0,0.0126
3269.0,0.0127
3268.0,0.0126
3267.0,0.0125
3266.0,0.0125
3265.0,0.0125
3264.0,0.0126
3263.0,0.0127
3262.0,0.0127
3261.0,0.0126
3260.0,0.0126
3259.0,0.0125
3258.0,0.0125
3257.0,0.0125
3256.0,0.0125
3255.0,0.0125
3254.0,0.0124
3253.0,0.0123
3252.0,0.0122
3251.0,0.0122
3250.0,0.0122
3249.0,0.0123
3248.0,0.0123
3247.0,0.0123
3246.0,0.0122
3245.0,0.0121
3244.0,0.0121
3243.0,0.0121
3242.0,0.0122
3241.0,0.0123
3240.0,0.0122
3239.0,0.0121
3238.0,0.012
3237.0,0.0119
3236.0,0.0119
3235.0,0.012
3234.0,0.012
3233.0,0.012
3232.0,0.0119
3231.0,0.0119
3230.0,0.0118
3229.0,0.0118
3228.0,0.0118
3227.0,0.0117
3226.0,0.0117
3225.0,0.0117
3224.0,0.0116
3223.0,0.0116
3222.0,0.0115
3221.0,0.0115
3220.0,0.0115
3219.0,0.0115
3218.0,0.0115
3217.0,0.0115
3216.0,0.0115
3215.0,0.0115
3214.0,0.0115
3213.0,0.0115
3212.0,0.0115
3211.0,0.0114
3210.0,0.0114
3209.0,0.0114
3208.0,0.0114
3207.0,0.0114
3206.0,0.0113
3205.0,0.0112
3204.0,0.0112
3203.0,0.0112
3202.0,0.0113
3201.0,0.0114
3200.0,0.0114
3199.0,0.0114
3198.0,0.0112
3197.0,0.0111
3196.0,0.0111
3195.0,0.0111
3194.0,0.0111
3193.0,0.0111
3192.0,0.011
3191.0,0.0109
3190.0,0.0108
3189.0,0.0109
3188.0,0.0109
3187.0,0.011
3186.0,0.011
3185.0,0.0109
3184.0,0.0108
3183.0,0.0107
3182.0,0.0106
3181.0,0.0106
3180.0,0.0106
3179.0,0.0106
3178.0,0.0106
3177.0,0.0106
3176.0,0.0106
3175.0,0.0105
3174.0,0.0105
3173.0,0.0104
3172.0,0.0103
3171.0,0.0103
3170.0,0.0104
3169.0,0.0104
3168.0,0.0104
3167.0,0.0104
3166.0,0.0104
3165.0,0.0104
3164.0,0.0103
3163.0,0.0103
3162.0,0.0102
3161.0,0.0101
3160.0,0.0101
3159.0,0.01
3158.0,0.01
3157.0,0.0099
3156.0,0.0099
3155.0,0.0099
3154.0,0.0099
3153.0,0.0099
3152.0,0.0099
3151.0,0.0099
3150.0,0.0099
3149.0,0.0098
3148.0,0.0097
3147.0,0.0096
3146.0,0.0096
3145.0,0.0096
3144.0,0.0096
3143.0,0.0096
3142.0,0.0096
3141.0,0.0095
3140.0,0.0094
3139.0,0.0093
3138.0,0.0092
3137.0,0.0092
3136.0,0.0091
3135.0,0.0091
3134.0,0.009
3133.0,0.009
3132.0,0.009
3131.0,0.0091
3130.0,0.0091
3129.0,0.0091
3128.0,0.0091
3127.0,0.0091
3126.0,0.0091
3125.0,0.0091
3124.0,0.009
3123.0,0.009
3122.0,0.0089
3121.0,0.0089
3120.0,0.0088
3119.0,0.0087
3118.0,0.0087
3117.0,0.0087
3116.0,0.0087
3115.0,0.0088
3114.0,0.0088
3113.0,0.0088
3112.0,0.0087
3111.0,0.0087
3110.0,0.0086
3109.0,0.0086
3108.0,0.0085
3107.0,0.0085
3106.0,0.0084
3105.0,0.0084
3104.0,0.0085
3103.0,0.0085
3102.0,0.0086
3101.0,0.0085
3100.0,0.0085
3099.0,0.0085
3098.0,0.0084
3097.0,0.0084
3096.0,0.0084
3095.0,0.0084
3094.0,0.0085
3093.0,0.0085
3092.0,0.0085
3091.0,0.0085
3090.0,0.0085
3089.0,0.0084
3088.0,0.0084
3087.0,0.0083
3086.0,0.0083
3085.0,0.0083
3084.0,0.0083
3083.0,0.0082
3082.0,0.0081
3081.0,0.0081
3080.0,0.008
3079.0,0.0079
3078.0,0.0079
3077.0,0.0079
3076.0,0.0079
3075.0,0.0079
3074.0,0.0079
3073.0,0.0078
3072.0,0.0079
3071.0,0.0079
3070.0,0.0079
3069.0,0.008
3068.0,0.0079
3067.0,0.0078
3066.0,0.0078
3065.0,0.0077
3064.0,0.0076
3063.0,0.0075
3062.0,0.0074
3061.0,0.0074
3060.0,0.0074
3059.0,0.0074
3058.0,0.0074
3057.0,0.0074
3056.0,0.0074
3055.0,0.0074
3054.0,0.0074
3053.0,0.0073
3052.0,0.0073
3051.0,0.0073
3050.0,0.0072
3049.0,0.0072
3048.0,0.0071
3047.0,0.007
3046.0,0.0069
3045.0,0.0069
3044.0,0.007
3043.0,0.007
3042.0,0.007
3041.0,0.007
3040.0,0.007
3039.0,0.007
3038.0,0.0069
3037.0,0.0069
3036.0,0.0069
3035.0,0.0069
3034.0,0.0069
3033.0,0.0068
3032.0,0.0067
3031.0,0.0066
3030.0,0.0065
3029.0,0.0065
3028.0,0.0065
3027.0,0.0065
3026.0,0.0065
3025.0,0.0065
3024.0,0.0064
3023.0,0.0064
3022.0,0.0063
3021.0,0.0063
3020.0,0.0062
3019.0,0.0062
3018.0,0.0062
3017.0,0.0061
3016.0,0.0061
3015.0,0.006
3014.0,0.006
3013.0,0.0059
3012.0,0.0059
3011.0,0.0059
3010.0,0.0059
3009.0,0.0059
3008.0,0.0058
3007.0,0.0057
3006.0,0.0057
3005.0,0.0056
3004.0,0.0056
3003.0,0.0056
3002.0,0.0055
3001.0,0.0055
3000.0,0.0054
2999.0,0.0054
2998.0,0.0054
2997.0,0.0055
2996.0,0.0055
2995.0,0.0055
2994.0,0.0055
2993.0,0.0054
2992.0,0.0054
2991.0,0.0054
2990.0,0.0053
2989.0,0.0053
2988.0,0.0053
2987.0,0.0053
2986.0,0.0053
2985.0,0.0054
2984.0,0.0055
2983.0,0.0057
2982.0,0.0058
2981.0,0.0061
2980.0,0.0063
2979.0,0.0066
2978.0,0.0069
2977.0,0.0072
2976.0,0.0075
2975.0,0.008
2974.0,0.0085
2973.0,0.0091
2972.0,0.0097
2971.0,0.0104
2970.0,0.0112
2969.0,0.0119
2968.0,0.0128
2967.0,0.0138
2966.0,0.0147
2965.0,0.0156
2964.0,0.0165
2963.0,0.0174
2962.0,0.0182
2961.0,0.0191
2960.0,0.0198
2959.0,0.0205
2958.0,0.0211
2957.0,0.0215
2956.0,0.0219
2955.0,0.0223
2954.0,0.0225
2953.0,0.0227
2952.0,0.0229
2951.0,0.0233
2950.0,0.0238
2949.0,0.0246
2948.0,0.0256
2947.0,0.027
2946.0,0.0288
2945.0,0.031
2944.0,0.0336
2943.0,0.0366
2942.0,0.0398
2941.0,0.0434
2940.0,0.0474
2939.0,0.0517
2938.0,0.0563
2937.0,0.0614
2936.0,0.0669
2935.0,0.0728
2934.0,0.0792
2933.0,0.0859
2932.0,0.0932
2931.0,0.1011
2930.0,0.1096
2929.0,0.1189
2928.0,0.129
2927.0,0.14
2926.0,0.152
2925.0,0.1653
2924.0,0.1799
2923.0,0.1961
2922.0,0.2136
2921.0,0.2322
2920.0,0.2509
2919.0,0.2684
2918.0,0.2825
2917.0,0.2908
2916.0,0.2917
2915.0,0.2853
2914.0,0.2731
2913.0,0.2578
2912.0,0.2415
2911.0,0.2259
2910.0,0.2118
2909.0,0.1994
2908.0,0.1887
2907.0,0.1795
2906.0,0.1718
2905.0,0.1651
2904.0,0.1594
2903.0,0.1544
2902.0,0.1499
2901.0,0.1459
2900.0,0.1423
2899.0,0.1388
2898.0,0.1354
2897.0,0.1322
2896.0,0.1289
2895.0,0.1257
2894.0,0.1225
2893.0,0.1192
2892.0,0.1159
2891.0,0.1125
2890.0,0.109
2889.0,0.1055
2888.0,0.1021
2887.0,0.0986
2886.0,0.0953
2885.0,0.092
2884.0,0.0888
2883.0,0.0857
2882.0,0.0827
2881.0,0.0797
2880.0,0.0769
2879.0,0.0742
2878.0,0.0718
2877.0,0.0696
2876.0,0.0677
2875.0,0.0661
2874.0,0.0648
2873.0,0.0636
2872.0,0.0626
2871.0,0.0617
2870.0,0.0609
2869.0,0.0604
2868.0,0.0602
2867.0,0.0604
2866.0,0.0611
2865.0,0.0624
2864.0,0.0646
2863.0,0.0675
2862.0,0.0715
2861.0,0.0764
2860.0,0.0826
2859.0,0.0901
2858.0,0.0993
2857.0,0.1103
2856.0,0.1236
2855.0,0.1396
2854.0,0.1589
2853.0,0.1816
2852.0,0.2067
2851.0,0.2317
2850.0,0.2518
2849.0,0.2619
2848.0,0.2591
2847.0,0.2447
2846.0,0.2236
2845.0,0.2005
2844.0,0.1786
2843.0,0.1593
2842.0,0.1429
2841.0,0.1291
2840.0,0.1177
2839.0,0.1083
2838.0,0.1004
2837.0,0.0938
2836.0,0.0881
2835.0,0.0832
2834.0,0.079
2833.0,0.0753
2832.0,0.0721
2831.0,0.0694
2830.0,0.067
2829.0,0.0647
2828.0,0.0626
2827.0,0.0607
2826.0,0.0589
2825.0,0.0574
2824.0,0.056
2823.0,0.0548
2822.0,0.0536
2821.0,0.0525
2820.0,0.0514
2819.0,0.0504
2818.0,0.0494
2817.0,0.0485
2816.0,0.0477
2815.0,0.0469
2814.0,0.0462
2813.0,0.0455
2812.0,0.0449
2811.0,0.0443
2810.0,0.0437
2809.0,0.043
2808.0,0.0424
2807.0,0.0419
2806.0,0.0413
2805.0,0.0409
2804.0,0.0404
2803.0,0.0399
2802.0,0.0395
2801.0,0.0391
2800.0,0.0387
2799.0,0.0383
2798.0,0.0378
2797.0,0.0374
2796.0,0.0369
2795.0,0.0365
2794.0,0.0362
2793.0,0.0358
2792.0,0.0354
2791.0,0.0351
2790.0,0.0347
2789.0,0.0343
2788.0,0.034
2787.0,0.0337
2786.0,0.0334
2785.0,0.0331
2784.0,0.0329
2783.0,0.0326
2782.0,0.0324
2781.0,0.0321
2780.0,0.0319
2779.0,0.0316
2778.0,0.0314
2777.0,0.0311
2776.0,0.0309
2775.0,0.0307
2774.0,0.0304
2773.0,0.0302
2772.0,0.03
2771.0,0.0298
2770.0,0.0296
2769.0,0.0294
2768.0,0.0292
2767.0,0.0291
2766.0,0.029
2765.0,0.0288
2764.0,0.0286
2763.0,0.0284
2762.0,0.0283
2761.0,0.0281
2760.0,0.028
2759.0,0.0279
2758.0,0.0278
2757.0,0.0277
2756.0,0.0276
2755.0,0.0274
2754.0,0.0273
2753.0,0.0271
2752.0,0.027
2751.0,0.027
2750.0,0.0269
2749.0,0.0268
2748.0,0.0267
2747.0,0.0265
2746.0,0.0264
2745.0,0.0264
2744.0,0.0263
2743.0,0.0263
2742.0,0.0263
2741.0,0.0262
2740.0,0.0262
2739.0,0.0261
2738.0,0.0261
2737.0,0.026
2736.0,0.0259
2735.0,0.0258
2734.0,0.0257
2733.0,0.0256
2732.0,0.0256
2731.0,0.0256
2730.0,0.0256
2729.0,0.0255
2728.0,0.0254
2727.0,0.0252
2726.0,0.0251
2725.0,0.025
2724.0,0.0249
2723.0,0.0249
2722.0,0.0248
2721.0,0.0248
2720.0,0.0247
2719.0,0.0246
2718.0,0.0245
2717.0,0.0244
2716.0,0.0243
2715.0,0.0242
2714.0,0.0242
2713.0,0.0241
2712.0,0.0241
2711.0,0.024
2710.0,0.0239
2709.0,0.0238
2708.0,0.0237
2707.0,0.0236
2706.0,0.0236
2705.0,0.0236
2704.0,0.0236
2703.0,0.0235
2702.0,0.0235
2701.0,0.0234
2700.0,0.0233
2699.0,0.0232
2698.0,0.0231
2697.0,0.023
2696.0,0.0229
2695.0,0.0229
2694.0,0.0229
2693.0,0.0229
2692.0,0.0229
2691.0,0.0229
2690.0,0.0229
2689.0,0.0229
2688.0,0.0229
2687.0,0.0228
2686.0,0.0228
2685.0,0.0228
2684.0,0.0228
2683.0,0.0228
2682.0,0.0227
2681.0,0.0226
2680.0,0.0226
2679.0,0.0226
2678.0,0.0226
2677.0,0.0226
2676.0,0.0226
2675.0,0.0227
2674.0,0.0226
2673.0,0.0226
2672.0,0.0226
2671.0,0.0226
2670.0,0.0226
2669.0,0.0226
2668.0,0.0226
2667.0,0.0226
2666.0,0.0226
2665.0,0.0226
2664.0,0.0226
2663.0,0.0225
2662.0,0.0225
2661.0,0.0224
2660.0,0.0224
2659.0,0.0224
2658.0,0.0223
2657.0,0.0223
2656.0,0.0223
2655.0,0.0223
2654.0,0.0223
2653.0,0.0222
2652.0,0.0221
2651.0,0.022
2650.0,0.0219
2649.0,0.0219
2648.0,0.0219
2647.0,0.022
2646.0,0.022
2645.0,0.022
2644.0,0.022
2643.0,0.0219
2642.0,0.0219
2641.0,0.0219
2640.0,0.0218
2639.0,0.0218
2638.0,0.0218
2637.0,0.0218
2636.0,0.0218
2635.0,0.0218
2634.0,0.0219
2633.0,0.0218
2632.0,0.0217
2631.0,0.0216
2630.0,0.0215
2629.0,0.0214
2628.0,0.0213
2627.0,0.0213
2626.0,0.0213
2625.0,0.0212
2624.0,0.0212
2623.0,0.0211
2622.0,0.021
2621.0,0.0209
2620.0,0.0209
2619.0,0.0208
2618.0,0.0207
2617.0,0.0206
2616.0,0.0205
2615.0,0.0205
2614.0,0.0205
2613.0,0.0205
2612.0,0.0204
2611.0,0.0204
2610.0,0.0204
2609.0,0.0203
2608.0,0.0203
2607.0,0.0202
2606.0,0.0202
2605.0,0.0202
2604.0,0.0202
2603.0,0.0202
2602.0,0.0201
2601.0,0.02
2600.0,0.0199
2599.0,0.0198
2598.0,0.0197
2597.0,0.0197
2596.0,0.0197
2595.0,0.0197
2594.0,0.0197
2593.0,0.0197
2592.0,0.0197
2591.0,0.0196
2590.0,0.0195
2589.0,0.0194
2588.0,0.0193
2587.0,0.0193
2586.0,0.0193
2585.0,0.0193
2584.0,0.0192
2583.0,0.0192
2582.0,0.0191
2581.0,0.0191
2580.0,0.019
2579.0,0.019
2578.0,0.019
2577.0,0.019
2576.0,0.019
2575.0,0.019
2574.0,0.0189
2573.0,0.0188
2572.0,0.0187
2571.0,0.0187
2570.0,0.0187
2569.0,0.0187
2568.0,0.0187
2567.0,0.0186
2566.0,0.0185
2565.0,0.0184
2564.0,0.0183
2563.0,0.0183
2562.0,0.0183
2561.0,0.0183
2560.0,0.0183
2559.0,0.0182
2558.0,0.0182
2557.0,0.0182
2556.0,0.0183
2555.0,0.0183
2554.0,0.0182
2553.0,0.0182
2552.0,0.0182
2551.0,0.0181
2550.0,0.0181
2549.0,0.0181
2548.0,0.018
2547.0,0.018
2546.0,0.0179
2545.0,0.0178
2544.0,0.0178
2543.0,0.0178
2542.0,0.0177
2541.0,0.0177
2540.0,0.0177
2539.0,0.0177
2538.0,0.0177
2537.0,0.0177
2536.0,0.0177
2535.0,0.0178
2534.0,0.0177
2533.0,0.0177
2532.0,0.0177
2531.0,0.0177
2530.0,0.0176
2529.0,0.0176
2528.0,0.0176
2527.0,0.0176
2526.0,0.0176
2525.0,0.0175
2524.0,0.0175
2523.0,0.0174
2522.0,0.0173
2521.0,0.0173
2520.0,0.0173
2519.0,0.0173
2518.0,0.0173
2517.0,0.0172
2516.0,0.0172
2515.0,0.0172
2514.0,0.0171
2513.0,0.0171
2512.0,0.0171
2511.0,0.017
2510.0,0.017
2509.0,0.017
2508.0,0.017
2507.0,0.0169
2506.0,0.0169
2505.0,0.0168
2504.0,0.0168
2503.0,0.0168
2502.0,0.0169
2501.0,0.0169
2500.0,0.0168
2499.0,0.0168
2498.0,0.0168
2497.0,0.0168
2496.0,0.0168
2495.0,0.0168
2494.0,0.0168
2493.0,0.0167
2492.0,0.0167
2491.0,0.0167
2490.0,0.0167
2489.0,0.0168
2488.0,0.0168
2487.0,0.0168
2486.0,0.0167
2485.0,0.0167
2484.0,0.0167
2483.0,0.0167
2482.0,0.0167
2481.0,0.0167
2480.0,0.0166
2479.0,0.0166
2478.0,0.0165
2477.0,0.0165
2476.0,0.0165
2475.0,0.0165
2474.0,0.0165
2473.0,0.0165
2472.0,0.0164
2471.0,0.0164
2470.0,0.0163
2469.0,0.0162
2468.0,0.0161
2467.0,0.0161
2466.0,0.016
2465.0,0.0161
2464.0,0.0162
2463.0,0.0162
2462.0,0.0163
2461.0,0.0163
2460.0,0.0162
2459.0,0.0162
2458.0,0.0162
2457.0,0.0162
2456.0,0.0162
2455.0,0.0161
2454.0,0.0161
2453.0,0.0161
2452.0,0.0161
2451.0,0.0161
2450.0,0.0161
2449.0,0.0161
2448.0,0.0161
2447.0,0.0162
2446.0,0.0162
2445.0,0.0162
2444.0,0.0161
2443.0,0.0161
2442.0,0.016
2441.0,0.0159
2440.0,0.0159
2439.0,0.0158
2438.0,0.0158
2437.0,0.0158
2436.0,0.0158
2435.0,0.0159
2434.0,0.0159
2433.0,0.0159
2432.0,0.0159
2431.0,0.0158
2430.0,0.0159
2429.0,0.0159
2428.0,0.0159
2427.0,0.0159
2426.0,0.0159
2425.0,0.0159
2424.0,0.0159
2423.0,0.0159
2422.0,0.0159
2421.0,0.0158
2420.0,0.0158
2419.0,0.0157
2418.0,0.0157
2417.0,0.0157
2416.0,0.0158
2415.0,0.0158
2414.0,0.0158
2413.0,0.0158
2412.0,0.0158
2411.0,0.0158
2410.0,0.0158
2409.0,0.0158
2408.0,0.0158
2407.0,0.0158
2406.0,0.0158
2405.0,0.0158
2404.0,0.0158
2403.0,0.0157
2402.0,0.0157
2401.0,0.0156
2400.0,0.0156
2399.0,0.0156
2398.0,0.0157
2397.0,0.0157
2396.0,0.0157
2395.0,0.0156
2394.0,0.0156
2393.0,0.0155
2392.0,0.0155
2391.0,0.0155
2390.0,0.0156
2389.0,0.0157
2388.0,0.0157
2387.0,0.0158
2386.0,0.0158
2385.0,0.0159
2384.0,0.016
2383.0,0.0161
2382.0,0.0162
2381.0,0.0162
2380.0,0.0163
2379.0,0.0164
2378.0,0.0165
2377.0,0.0166
2376.0,0.0167
2375.0,0.0166
2374.0,0.0167
2373.0,0.017
2372.0,0.0178
2371.0,0.0192
2370.0,0.0207
2369.0,0.0216
2368.0,0.0212
2367.0,0.0192
2366.0,0.0165
2365.0,0.0144
2364.0,0.0138
2363.0,0.0141
2362.0,0.0137
2361.0,0.0118
2360.0,0.01
2359.0,0.0111
2358.0,0.0151
2357.0,0.0194
2356.0,0.0213
2355.0,0.0208
2354.0,0.0193
2353.0,0.018
2352.0,0.0175
2351.0,0.0176
2350.0,0.0176
2349.0,0.0176
2348.0,0.0174
2347.0,0.0173
2346.0,0.0173
2345.0,0.0172
2344.0,0.0171
2343.0,0.0169
2342.0,0.0169
2341.0,0.0168
2340.0,0.0169
2339.0,0.0174
2338.0,0.018
2337.0,0.0186
2336.0,0.019
2335.0,0.0192
2334.0,0.0191
2333.0,0.0186
2332.0,0.0179
2331.0,0.0174
2330.0,0.0174
2329.0,0.0176
2328.0,0.0177
2327.0,0.0174
2326.0,0.017
2325.0,0.0165
2324.0,0.0162
2323.0,0.0162
2322.0,0.0163
2321.0,0.0162
2320.0,0.016
2319.0,0.0159
2318.0,0.0161
2317.0,0.0163
2316.0,0.0166
2315.0,0.0167
2314.0,0.0168
2313.0,0.0169
2312.0,0.017
2311.0,0.017
2310.0,0.0169
2309.0,0.0168
2308.0,0.0167
2307.0,0.0166
2306.0,0.0165
2305.0,0.0165
2304.0,0.0165
2303.0,0.0166
2302.0,0.0166
2301.0,0.0166
2300.0,0.0164
2299.0,0.0163
2298.0,0.0163
2297.0,0.0163
2296.0,0.0163
2295.0,0.0162
2294.0,0.0161
2293.0,0.016
2292.0,0.0159
2291.0,0.0159
2290.0,0.0158
2289.0,0.0158
2288.0,0.0157
2287.0,0.0155
2286.0,0.0154
2285.0,0.0154
2284.0,0.0153
2283.0,0.0153
2282.0,0.0154
2281.0,0.0154
2280.0,0.0154
2279.0,0.0154
2278.0,0.0154
2277.0,0.0154
2276.0,0.0154
2275.0,0.0154
2274.0,0.0153
2273.0,0.0152
2272.0,0.0152
2271.0,0.0152
2270.0,0.0152
2269.0,0.0152
2268.0,0.0151
2267.0,0.0151
2266.0,0.0151
2265.0,0.0151
2264.0,0.015
2263.0,0.015
2262.0,0.015
2261.0,0.015
2260.0,0.015
2259.0,0.0149
2258.0,0.0149
2257.0,0.0148
2256.0,0.0148
2255.0,0.0148
2254.0,0.0148
2253.0,0.0148
2252.0,0.0148
2251.0,0.0147
2250.0,0.0146
2249.0,0.0146
2248.0,0.0147
2247.0,0.0147
2246.0,0.0147
2245.0,0.0147
2244.0,0.0147
2243.0,0.0147
2242.0,0.0146
2241.0,0.0146
2240.0,0.0146
2239.0,0.0146
2238.0,0.0145
2237.0,0.0144
2236.0,0.0144
2235.0,0.0144
2234.0,0.0144
2233.0,0.0145
2232.0,0.0145
2231.0,0.0145
2230.0,0.0145
2229.0,0.0145
2228.0,0.0144
2227.0,0.0143
2226.0,0.0143
2225.0,0.0143
2224.0,0.0143
2223.0,0.0143
2222.0,0.0143
2221.0,0.0143
2220.0,0.0143
2219.0,0.0144
2218.0,0.0145
2217.0,0.0145
2216.0,0.0145
2215.0,0.0145
2214.0,0.0144
2213.0,0.0144
2212.0,0.0144
2211.0,0.0144
2210.0,0.0144
2209.0,0.0144
2208.0,0.0144
2207.0,0.0144
2206.0,0.0143
2205.0,0.0143
2204.0,0.0143
2203.0,0.0143
2202.0,0.0143
2201.0,0.0143
2200.0,0.0143
2199.0,0.0143
2198.0,0.0143
2197.0,0.0143
2196.0,0.0142
2195.0,0.0142
2194.0,0.0143
2193.0,0.0143
2192.0,0.0143
2191.0,0.0143
2190.0,0.0143
2189.0,0.0143
2188.0,0.0143
2187.0,0.0143
2186.0,0.0143
2185.0,0.0143
2184.0,0.0143
2183.0,0.0143
2182.0,0.0143
2181.0,0.0143
2180.0,0.0142
2179.0,0.0142
2178.0,0.0142
2177.0,0.0142
2176.0,0.0142
2175.0,0.0143
2174.0,0.0143
2173.0,0.0143
2172.0,0.0143
2171.0,0.0143
2170.0,0.0143
2169.0,0.0142
2168.0,0.0142
2167.0,0.0142
2166.0,0.0142
2165.0,0.0143
2164.0,0.0143
2163.0,0.0143
2162.0,0.0143
2161.0,0.0143
2160.0,0.0143
2159.0,0.0143
2158.0,0.0143
2157.0,0.0143
2156.0,0.0143
2155.0,0.0143
2154.0,0.0143
2153.0,0.0143
2152.0,0.0143
2151.0,0.0143
2150.0,0.0142
2149.0,0.0142
2148.0,0.0143
2147.0,0.0143
2146.0,0.0143
2145.0,0.0143
2144.0,0.0143
2143.0,0.0143
2142.0,0.0142
2141.0,0.0142
2140.0,0.0143
2139.0,0.0143
2138.0,0.0143
2137.0,0.0142
2136.0,0.0142
2135.0,0.0142
2134.0,0.0142
2133.0,0.0142
2132.0,0.0142
2131.0,0.0142
2130.0,0.0141
2129.0,0.0141
2128.0,0.0141
2127.0,0.0141
2126.0,0.0141
2125.0,0.0142
2124.0,0.0142
2123.0,0.0142
2122.0,0.0141
2121.0,0.0141
2120.0,0.0141
2119.0,0.0141
2118.0,0.014
2117.0,0.014
2116.0,0.014
2115.0,0.014
2114.0,0.014
2113.0,0.014
2112.0,0.014
2111.0,0.014
2110.0,0.014
2109.0,0.014
2108.0,0.014
2107.0,0.014
2106.0,0.014
2105.0,0.014
2104.0,0.014
2103.0,0.014
2102.0,0.014
2101.0,0.014
2100.0,0.014
2099.0,0.014
2098.0,0.0139
2097.0,0.0138
2096.0,0.0138
2095.0,0.0138
2094.0,0.0139
2093.0,0.014
2092.0,0.014
2091.0,0.014
2090.0,0.014
2089.0,0.014
2088.0,0.014
2087.0,0.014
2086.0,0.014
2085.0,0.014
2084.0,0.014
2083.0,0.014
2082.0,0.014
2081.0,0.014
2080.0,0.014
2079.0,0.014
2078.0,0.0141
2077.0,0.014
2076.0,0.014
2075.0,0.014
2074.0,0.014
2073.0,0.014
2072.0,0.014
2071.0,0.014
2070.0,0.014
2069.0,0.014
2068.0,0.0141
2067.0,0.0141
2066.0,0.0141
2065.0,0.0141
2064.0,0.014
2063.0,0.014
2062.0,0.014
2061.0,0.014
2060.0,0.014
2059.0,0.014
2058.0,0.014
2057.0,0.014
2056.0,0.014
2055.0,0.0139
2054.0,0.0139
2053.0,0.014
2052.0,0.014
2051.0,0.0141
2050.0,0.0142
2049.0,0.0142
2048.0,0.0142
2047.0,0.0142
2046.0,0.0141
2045.0,0.0141
2044.0,0.0141
2043.0,0.0141
2042.0,0.0141
2041.0,0.0142
2040.0,0.0142
2039.0,0.0142
2038.0,0.0142
2037.0,0.0142
2036.0,0.0142
2035.0,0.0142
2034.0,0.0142
2033.0,0.0142
2032.0,0.0142
2031.0,0.0142
2030.0,0.0142
2029.0,0.0142
2028.0,0.0143
2027.0,0.0143
2026.0,0.0144
2025.0,0.0144
2024.0,0.0145
2023.0,0.0145
2022.0,0.0145
2021.0,0.0146
2020.0,0.0146
2019.0,0.0146
2018.0,0.0146
2017.0,0.0146
2016.0,0.0145
2015.0,0.0145
2014.0,0.0144
2013.0,0.0143
2012.0,0.0142
2011.0,0.0142
2010.0,0.0141
2009.0,0.0141
2008.0,0.0141
2007.0,0.0141
2006.0,0.0141
2005.0,0.0141
2004.0,0.0141
2003.0,0.014
2002.0,0.014
2001.0,0.0139
2000.0,0.0139
1999.0,0.0139
1998.0,0.0138
1997.0,0.0138
1996.0,0.0138
1995.0,0.0138
1994.0,0.0138
1993.0,0.0138
1992.0,0.0139
1991.0,0.0139
1990.0,0.0139
1989.0,0.0139
1988.0,0.0139
1987.0,0.0138
1986.0,0.0138
1985.0,0.0138
1984.0,0.0138
1983.0,0.0139
1982.0,0.0139
1981.0,0.0139
1980.0,0.0139
1979.0,0.014
1978.0,0.014
1977.0,0.014
1976.0,0.014
1975.0,0.014
1974.0,0.014
1973.0,0.014
1972.0,0.014
1971.0,0.014
1970.0,0.014
1969.0,0.014
1968.0,0.014
1967.0,0.0139
1966.0,0.0139
1965.0,0.0139
1964.0,0.0139
1963.0,0.0139
1962.0,0.0139
1961.0,0.0139
1960.0,0.0139
1959.0,0.0139
1958.0,0.0139
1957.0,0.0139
1956.0,0.0139
1955.0,0.014
1954.0,0.014
1953.0,0.0139
1952.0,0.0139
1951.0,0.0139
1950.0,0.0139
1949.0,0.0139
1948.0,0.0139
1947.0,0.0139
1946.0,0.0139
1945.0,0.0139
1944.0,0.0139
1943.0,0.0139
1942.0,0.0139
1941.0,0.014
1940.0,0.014
1939.0,0.014
1938.0,0.014
1937.0,0.0139
1936.0,0.0139
1935.0,0.0139
1934.0,0.0139
1933.0,0.014
1932.0,0.014
1931.0,0.014
1930.0,0.0141
1929.0,0.0141
1928.0,0.014
1927.0,0.014
1926.0,0.014
1925.0,0.014
1924.0,0.014
1923.0,0.014
1922.0,0.014
1921.0,0.014
1920.0,0.014
1919.0,0.014
1918.0,0.014
1917.0,0.014
1916.0,0.014
1915.0,0.014
1914.0,0.014
1913.0,0.0139
1912.0,0.0139
1911.0,0.0139
1910.0,0.0139
1909.0,0.014
1908.0,0.0141
1907.0,0.0141
1906.0,0.0141
1905.0,0.0141
1904.0,0.0141
1903.0,0.0141
1902.0,0.0142
1901.0,0.0142
1900.0,0.0143
1899.0,0.0142
1898.0,0.0142
1897.0,0.0142
1896.0,0.0143
1895.0,0.0143
1894.0,0.0143
1893.0,0.0143
1892.0,0.0143
1891.0,0.0142
1890.0,0.0141
1889.0,0.0141
1888.0,0.014
1887.0,0.0139
1886.0,0.0139
1885.0,0.0139
1884.0,0.014
1883.0,0.014
1882.0,0.0139
1881.0,0.0139
1880.0,0.0139
1879.0,0.0139
1878.0,0.0139
1877.0,0.0139
1876.0,0.0139
1875.0,0.0139
1874.0,0.0139
1873.0,0.0139
1872.0,0.0139
1871.0,0.0139
1870.0,0.0139
1869.0,0.0139
1868.0,0.0138
1867.0,0.0139
1866.0,0.0139
1865.0,0.0139
1864.0,0.0139
1863.0,0.0139
1862.0,0.0139
1861.0,0.0139
1860.0,0.0139
1859.0,0.0138
1858.0,0.0138
1857.0,0.0138
1856.0,0.0138
1855.0,0.0138
1854.0,0.0138
1853.0,0.0138
1852.0,0.0138
1851.0,0.0138
1850.0,0.0138
1849.0,0.0137
1848.0,0.0137
1847.0,0.0137
1846.0,0.0138
1845.0,0.0138
1844.0,0.0139
1843.0,0.0139
1842.0,0.0139
1841.0,0.0139
1840.0,0.0138
1839.0,0.0138
1838.0,0.0137
1837.0,0.0137
1836.0,0.0138
1835.0,0.0138
1834.0,0.0138
1833.0,0.0138
1832.0,0.0138
1831.0,0.0138
1830.0,0.0138
1829.0,0.0138
1828.0,0.0138
1827.0,0.0139
1826.0,0.0139
1825.0,0.0139
1824.0,0.0139
1823.0,0.0139
1822.0,0.014
1821.0,0.014
1820.0,0.014
1819.0,0.014
1818.0,0.0139
1817.0,0.0139
1816.0,0.0139
1815.0,0.0138
1814.0,0.0138
1813.0,0.0138
1812.0,0.0137
1811.0,0.0137
1810.0,0.0137
1809.0,0.0138
1808.0,0.0139
1807.0,0.0139
1806.0,0.0139
1805.0,0.0139
1804.0,0.0138
1803.0,0.0138
1802.0,0.0138
1801.0,0.0138
1800.0,0.0138
1799.0,0.0138
1798.0,0.0138
1797.0,0.0139
1796.0,0.0139
1795.0,0.0139
1794.0,0.0139
1793.0,0.0139
1792.0,0.014
1791.0,0.014
1790.0,0.0139
1789.0,0.0139
1788.0,0.0139
1787.0,0.0139
1786.0,0.0139
1785.0,0.0139
1784.0,0.0139
1783.0,0.0139
1782.0,0.0139
1781.0,0.0139
1780.0,0.014
1779.0,0.014
1778.0,0.014
1777.0,0.014
1776.0,0.014
1775.0,0.014
1774.0,0.014
1773.0,0.014
1772.0,0.0141
1771.0,0.0141
1770.0,0.0141
1769.0,0.0141
1768.0,0.0141
1767.0,0.014
1766.0,0.014
1765.0,0.0141
1764.0,0.0141
1763.0,0.0141
1762.0,0.0141
1761.0,0.0141
1760.0,0.0141
1759.0,0.0142
1758.0,0.0142
1757.0,0.0143
1756.0,0.0143
1755.0,0.0143
1754.0,0.0144
1753.0,0.0144
1752.0,0.0144
1751.0,0.0144
1750.0,0.0145
1749.0,0.0145
1748.0,0.0146
1747.0,0.0147
1746.0,0.0148
1745.0,0.0148
1744.0,0.0148
1743.0,0.0148
1742.0,0.0149
1741.0,0.015
1740.0,0.015
1739.0,0.0151
1738.0,0.0151
1737.0,0.0151
1736.0,0.0151
1735.0,0.0151
1734.0,0.0152
1733.0,0.0151
1732.0,0.0151
1731.0,0.0152
1730.0,0.0153
1729.0,0.0154
1728.0,0.0154
1727.0,0.0155
1726.0,0.0156
1725.0,0.0157
1724.0,0.0159
1723.0,0.016
1722.0,0.016
1721.0,0.0161
1720.0,0.0161
1719.0,0.0161
1718.0,0.0162
1717.0,0.0163
1716.0,0.0163
1715.0,0.0163
1714.0,0.0162
1713.0,0.0162
1712.0,0.0161
1711.0,0.016
1710.0,0.016
1709.0,0.016
1708.0,0.016
1707.0,0.016
1706.0,0.0159
1705.0,0.0157
1704.0,0.0157
1703.0,0.0157
1702.0,0.0158
1701.0,0.0158
1700.0,0.0159
1699.0,0.0158
1698.0,0.0158
1697.0,0.0159
1696.0,0.0159
1695.0,0.0158
1694.0,0.0158
1693.0,0.0158
1692.0,0.0159
1691.0,0.0158
1690.0,0.0158
1689.0,0.0158
1688.0,0.0159
1687.0,0.0159
1686.0,0.0159
1685.0,0.016
1684.0,0.0161
1683.0,0.0161
1682.0,0.0162
1681.0,0.0163
1680.0,0.0164
1679.0,0.0165
1678.0,0.0165
1677.0,0.0166
1676.0,0.0167
1675.0,0.0167
1674.0,0.0167
1673.0,0.0167
1672.0,0.0166
1671.0,0.0166
1670.0,0.0168
1669.0,0.0169
1668.0,0.017
1667.0,0.0171
1666.0,0.0171
1665.0,0.0172
1664.0,0.0172
1663.0,0.0173
1662.0,0.0174
1661.0,0.0174
1660.0,0.0175
1659.0,0.0174
1658.0,0.0174
1657.0,0.0173
1656.0,0.0173
1655.0,0.0171
1654.0,0.0172
1653.0,0.0174
1652.0,0.0173
1651.0,0.0173
1650.0,0.0174
1649.0,0.0173
1648.0,0.0173
1647.0,0.0174
1646.0,0.0174
1645.0,0.0174
1644.0,0.0174
1643.0,0.0174
1642.0,0.0174
1641.0,0.0174
1640.0,0.0174
1639.0,0.0174
1638.0,0.0174
1637.0,0.0174
1636.0,0.0176
1635.0,0.0176
1634.0,0.0175
1633.0,0.0175
1632.0,0.0174
1631.0,0.0173
1630.0,0.0173
1629.0,0.0172
1628.0,0.0172
1627.0,0.0171
1626.0,0.017
1625.0,0.017
1624.0,0.017
1623.0,0.017
1622.0,0.017
1621.0,0.017
1620.0,0.017
1619.0,0.0169
1618.0,0.0168
1617.0,0.0168
1616.0,0.0167
1615.0,0.0167
1614.0,0.0167
1613.0,0.0167
1612.0,0.0166
1611.0,0.0166
1610.0,0.0165
1609.0,0.0165
1608.0,0.0165
1607.0,0.0165
1606.0,0.0166
1605.0,0.0165
1604.0,0.0165
1603.0,0.0164
1602.0,0.0164
1601.0,0.0164
1600.0,0.0164
1599.0,0.0163
1598.0,0.0163
1597.0,0.0163
1596.0,0.0162
1595.0,0.0162
1594.0,0.0162
1593.0,0.0162
1592.0,0.0162
1591.0,0.0162
1590.0,0.0161
1589.0,0.0161
1588.0,0.0161
1587.0,0.0161
1586.0,0.0162
1585.0,0.0162
1584.0,0.0161
1583.0,0.0161
1582.0,0.016
1581.0,0.0159
1580.0,0.0159
1579.0,0.0159
1578.0,0.016
1577.0,0.0161
1576.0,0.0161
1575.0,0.016
1574.0,0.016
1573.0,0.0159
1572.0,0.0158
1571.0,0.0157
1570.0,0.0157
1569.0,0.0157
1568.0,0.0158
1567.0,0.0158
1566.0,0.0158
1565.0,0.0158
1564.0,0.0159
1563.0,0.0159
1562.0,0.0159
1561.0,0.0158
1560.0,0.0158
1559.0,0.0162
1558.0,0.0161
1557.0,0.016
1556.0,0.0161
1555.0,0.016
1554.0,0.0158
1553.0,0.0158
1552.0,0.0157
1551.0,0.0157
1550.0,0.0158
1549.0,0.0158
1548.0,0.0159
1547.0,0.0158
1546.0,0.0157
1545.0,0.0157
1544.0,0.0158
1543.0,0.0158
1542.0,0.0156
1541.0,0.0156
1540.0,0.0156
1539.0,0.0154
1538.0,0.0154
1537.0,0.0155
1536.0,0.0156
1535.0,0.0156
1534.0,0.0155
1533.0,0.0154
1532.0,0.0153
1531.0,0.0152
1530.0,0.0151
1529.0,0.0151
1528.0,0.0152
1527.0,0.0153
1526.0,0.0152
1525.0,0.0152
1524.0,0.0152
1523.0,0.015
1522.0,0.0149
1521.0,0.0149
1520.0,0.0149
1519.0,0.0148
1518.0,0.0147
1517.0,0.0147
1516.0,0.0147
1515.0,0.0146
1514.0,0.0146
1513.0,0.0146
1512.0,0.0146
1511.0,0.0145
1510.0,0.0144
1509.0,0.0144
1508.0,0.0145
1507.0,0.0145
1506.0,0.0143
1505.0,0.0144
1504.0,0.0145
1503.0,0.0145
1502.0,0.0144
1501.0,0.0144
1500.0,0.0145
1499.0,0.0145
1498.0,0.0144
1497.0,0.0145
1496.0,0.0146
1495.0,0.0145
1494.0,0.0144
1493.0,0.0144
1492.0,0.0144
1491.0,0.0141
1490.0,0.0139
1489.0,0.0139
1488.0,0.0141
1487.0,0.0141
1486.0,0.0141
1485.0,0.0143
1484.0,0.0144
1483.0,0.0145
1482.0,0.0148
1481.0,0.0153
1480.0,0.0162
1479.0,0.0174
1478.0,0.0201
1477.0,0.0258
1476.0,0.0352
1475.0,0.0476
1474.0,0.0619
1473.0,0.0741
1472.0,0.0786
1471.0,0.0775
1470.0,0.0764
1469.0,0.0767
1468.0,0.078
1467.0,0.0808
1466.0,0.0867
1465.0,0.0958
1464.0,0.1034
1463.0,0.1053
1462.0,0.1017
1461.0,0.0947
1460.0,0.0859
1459.0,0.0767
1458.0,0.0688
1457.0,0.063
1456.0,0.0593
1455.0,0.0568
1454.0,0.0544
1453.0,0.0518
1452.0,0.0492
1451.0,0.0469
1450.0,0.0451
1449.0,0.0436
1448.0,0.0422
1447.0,0.0412
1446.0,0.0404
1445.0,0.0397
1444.0,0.039
1443.0,0.0384
1442.0,0.0378
1441.0,0.0373
1440.0,0.0367
1439.0,0.0361
1438.0,0.0354
1437.0,0.0346
1436.0,0.0338
1435.0,0.033
1434.0,0.0324
1433.0,0.0317
1432.0,0.0308
1431.0,0.0298
1430.0,0.0289
1429.0,0.028
1428.0,0.0271
1427.0,0.0265
1426.0,0.0259
1425.0,0.0253
1424.0,0.0248
1423.0,0.0245
1422.0,0.0243
1421.0,0.024
1420.0,0.0237
1419.0,0.0234
1418.0,0.0233
1417.0,0.0231
1416.0,0.023
1415.0,0.0229
1414.0,0.0228
1413.0,0.0227
1412.0,0.0225
1411.0,0.0224
1410.0,0.0222
1409.0,0.0221
1408.0,0.022
1407.0,0.0219
1406.0,0.0218
1405.0,0.0217
1404.0,0.0216
1403.0,0.0215
1402.0,0.0214
1401.0,0.0212
1400.0,0.021
1399.0,0.0209
1398.0,0.0209
1397.0,0.0209
1396.0,0.0209
1395.0,0.0209
1394.0,0.0209
1393.0,0.0209
1392.0,0.0208
1391.0,0.0208
1390.0,0.0208
1389.0,0.0208
1388.0,0.0208
1387.0,0.0211
1386.0,0.0214
1385.0,0.0218
1384.0,0.0222
1383.0,0.0229
1382.0,0.0238
1381.0,0.0249
1380.0,0.026
1379.0,0.0269
1378.0,0.0275
1377.0,0.0276
1376.0,0.0273
1375.0,0.0269
1374.0,0.0266
1373.0,0.0266
1372.0,0.0266
1371.0,0.0267
1370.0,0.0268
1369.0,0.0269
1368.0,0.0268
1367.0,0.0267
1366.0,0.0264
1365.0,0.0261
1364.0,0.0257
1363.0,0.0254
1362.0,0.0252
1361.0,0.025
1360.0,0.0248
1359.0,0.0246
1358.0,0.0245
1357.0,0.0244
1356.0,0.0244
1355.0,0.0244
1354.0,0.0245
1353.0,0.0245
1352.0,0.0245
1351.0,0.0245
1350.0,0.0244
1349.0,0.0243
1348.0,0.0241
1347.0,0.024
1346.0,0.0238
1345.0,0.0237
1344.0,0.0235
1343.0,0.0233
1342.0,0.0232
1341.0,0.023
1340.0,0.0228
1339.0,0.0226
1338.0,0.0224
1337.0,0.0222
1336.0,0.0221
1335.0,0.0219
1334.0,0.0218
1333.0,0.0217
1332.0,0.0215
1331.0,0.0215
1330.0,0.0215
1329.0,0.0215
1328.0,0.0214
1327.0,0.0214
1326.0,0.0214
1325.0,0.0213
1324.0,0.0214
1323.0,0.0214
1322.0,0.0215
1321.0,0.0216
1320.0,0.0217
1319.0,0.0218
1318.0,0.0218
1317.0,0.0219
1316.0,0.022
1315.0,0.0221
1314.0,0.0223
1313.0,0.0225
1312.0,0.0226
1311.0,0.0228
1310.0,0.0229
1309.0,0.023
1308.0,0.023
1307.0,0.0231
1306.0,0.0231
1305.0,0.0232
1304.0,0.0232
1303.0,0.0232
1302.0,0.0232
1301.0,0.0232
1300.0,0.0232
1299.0,0.0232
1298.0,0.0231
1297.0,0.0231
1296.0,0.023
1295.0,0.023
1294.0,0.0229
1293.0,0.0228
1292.0,0.0227
1291.0,0.0226
1290.0,0.0225
1289.0,0.0225
1288.0,0.0224
1287.0,0.0224
1286.0,0.0223
1285.0,0.0222
1284.0,0.0222
1283.0,0.0221
1282.0,0.0221
1281.0,0.0221
1280.0,0.0221
1279.0,0.0221
1278.0,0.0221
1277.0,0.0221
1276.0,0.022
1275.0,0.022
1274.0,0.022
1273.0,0.022
1272.0,0.0221
1271.0,0.0221
1270.0,0.0221
1269.0,0.0222
1268.0,0.0222
1267.0,0.0222
1266.0,0.0222
1265.0,0.0222
1264.0,0.0223
1263.0,0.0223
1262.0,0.0224
1261.0,0.0224
1260.0,0.0224
1259.0,0.0223
1258.0,0.0222
1257.0,0.0222
1256.0,0.0221
1255.0,0.0221
1254.0,0.022
1253.0,0.022
1252.0,0.022
1251.0,0.022
1250.0,0.022
1249.0,0.022
1248.0,0.022
1247.0,0.022
1246.0,0.022
1245.0,0.0219
1244.0,0.0219
1243.0,0.0219
1242.0,0.0219
1241.0,0.0219
1240.0,0.0218
1239.0,0.0218
1238.0,0.0218
1237.0,0.0218
1236.0,0.0218
1235.0,0.0218
1234.0,0.0218
1233.0,0.0217
1232.0,0.0217
1231.0,0.0217
1230.0,0.0218
1229.0,0.0218
1228.0,0.0218
1227.0,0.0219
1226.0,0.022
1225.0,0.022
1224.0,0.0221
1223.0,0.0221
1222.0,0.0221
1221.0,0.0221
1220.0,0.0221
1219.0,0.0221
1218.0,0.0221
1217.0,0.0222
1216.0,0.0223
1215.0,0.0223
1214.0,0.0224
1213.0,0.0225
1212.0,0.0225
1211.0,0.0226
1210.0,0.0226
1209.0,0.0227
1208.0,0.0227
1207.0,0.0228
1206.0,0.023
1205.0,0.0231
1204.0,0.0231
1203.0,0.0232
1202.0,0.0233
1201.0,0.0234
1200.0,0.0236
1199.0,0.0237
1198.0,0.0238
1197.0,0.0239
1196.0,0.0239
1195.0,0.024
1194.0,0.0241
1193.0,0.0241
1192.0,0.0242
1191.0,0.0243
1190.0,0.0244
1189.0,0.0246
1188.0,0.0247
1187.0,0.0247
1186.0,0.0248
1185.0,0.0248
1184.0,0.0249
1183.0,0.025
1182.0,0.0251
1181.0,0.0253
1180.0,0.0254
1179.0,0.0255
1178.0,0.0256
1177.0,0.0257
1176.0,0.0257
1175.0,0.0258
1174.0,0.0258
1173.0,0.0259
1172.0,0.0259
1171.0,0.0259
1170.0,0.0259
1169.0,0.0259
1168.0,0.026
1167.0,0.026
1166.0,0.0261
1165.0,0.0262
1164.0,0.0262
1163.0,0.0262
1162.0,0.0262
1161.0,0.0263
1160.0,0.0263
1159.0,0.0264
1158.0,0.0264
1157.0,0.0264
1156.0,0.0264
1155.0,0.0265
1154.0,0.0266
1153.0,0.0267
1152.0,0.0268
1151.0,0.0268
1150.0,0.0268
1149.0,0.0269
1148.0,0.0269
1147.0,0.0269
1146.0,0.0269
1145.0,0.0269
1144.0,0.0268
1143.0,0.0268
1142.0,0.0268
1141.0,0.0269
1140.0,0.0269
1139.0,0.027
1138.0,0.027
1137.0,0.027
1136.0,0.0271
1135.0,0.0271
1134.0,0.0271
1133.0,0.0271
1132.0,0.027
1131.0,0.027
1130.0,0.027
1129.0,0.027
1128.0,0.027
1127.0,0.027
1126.0,0.0269
1125.0,0.0269
1124.0,0.0269
1123.0,0.027
1122.0,0.027
1121.0,0.027
1120.0,0.0271
1119.0,0.0271
1118.0,0.0272
1117.0,0.0272
1116.0,0.0273
1115.0,0.0274
1114.0,0.0274
1113.0,0.0274
1112.0,0.0275
1111.0,0.0276
1110.0,0.0277
1109.0,0.0278
1108.0,0.0279
1107.0,0.028
1106.0,0.0281
1105.0,0.0282
1104.0,0.0282
1103.0,0.0283
1102.0,0.0283
1101.0,0.0283
1100.0,0.0283
1099.0,0.0284
1098.0,0.0284
1097.0,0.0285
1096.0,0.0286
1095.0,0.0287
1094.0,0.0288
1093.0,0.0288
1092.0,0.0289
1091.0,0.0289
1090.0,0.029
1089.0,0.029
1088.0,0.029
1087.0,0.0291
1086.0,0.0292
1085.0,0.0292
1084.0,0.0293
1083.0,0.0293
1082.0,0.0293
1081.0,0.0293
1080.0,0.0293
1079.0,0.0293
1078.0,0.0292
1077.0,0.0291
1076.0,0.0291
1075.0,0.0291
1074.0,0.029
1073.0,0.029
1072.0,0.0289
1071.0,0.0289
1070.0,0.0288
1069.0,0.0288
1068.0,0.0288
1067.0,0.0289
1066.0,0.029
1065.0,0.029
1064.0,0.029
1063.0,0.029
1062.0,0.0289
1061.0,0.0289
1060.0,0.0288
1059.0,0.0288
1058.0,0.0287
1057.0,0.0288
1056.0,0.0288
1055.0,0.0289
1054.0,0.0289
1053.0,0.0288
1052.0,0.0288
1051.0,0.0287
1050.0,0.0286
1049.0,0.0285
1048.0,0.0285
1047.0,0.0284
1046.0,0.0283
1045.0,0.0282
1044.0,0.0281
1043.0,0.0279
1042.0,0.0278
1041.0,0.0277
1040.0,0.0276
1039.0,0.0274
1038.0,0.0273
1037.0,0.0272
1036.0,0.027
1035.0,0.0269
1034.0,0.0267
1033.0,0.0266
1032.0,0.0265
1031.0,0.0264
1030.0,0.0263
1029.0,0.0262
1028.0,0.0262
1027.0,0.0261
1026.0,0.0261
1025.0,0.026
1024.0,0.0259
1023.0,0.0259
1022.0,0.0258
1021.0,0.0258
1020.0,0.0257
1019.0,0.0256
1018.0,0.0256
1017.0,0.0255
1016.0,0.0254
1015.0,0.0254
1014.0,0.0253
1013.0,0.0253
1012.0,0.0252
1011.0,0.0252
1010.0,0.0251
1009.0,0.025
1008.0,0.0249
1007.0,0.0248
1006.0,0.0248
1005.0,0.0247
1004.0,0.0246
1003.0,0.0245
1002.0,0.0244
1001.0,0.0243
1000.0,0.0242
999.0,0.0241
998.0,0.0241
997.0,0.024
996.0,0.024
995.0,0.024
994.0,0.0239
993.0,0.0239
992.0,0.0238
991.0,0.0237
990.0,0.0236
989.0,0.0235
988.0,0.0234
987.0,0.0234
986.0,0.0234
985.0,0.0233
984.0,0.0232
983.0,0.0232
982.0,0.0232
981.0,0.0232
980.0,0.0232
979.0,0.0231
978.0,0.0231
977.0,0.0231
976.0,0.0231
975.0,0.0231
974.0,0.0231
973.0,0.023
972.0,0.023
971.0,0.023
970.0,0.023
969.0,0.023
968.0,0.023
967.0,0.023
966.0,0.023
965.0,0.0229
964.0,0.0229
963.0,0.0228
962.0,0.0228
961.0,0.0228
960.0,0.0228
959.0,0.0229
958.0,0.0229
957.0,0.0229
956.0,0.0228
955.0,0.0227
954.0,0.0227
953.0,0.0227
952.0,0.0226
951.0,0.0226
950.0,0.0226
949.0,0.0226
948.0,0.0226
947.0,0.0226
946.0,0.0227
945.0,0.0228
944.0,0.0229
943.0,0.0229
942.0,0.0229
941.0,0.0229
940.0,0.023
939.0,0.023
938.0,0.023
937.0,0.023
936.0,0.0229
935.0,0.0228
934.0,0.0228
933.0,0.0228
932.0,0.0227
931.0,0.0227
930.0,0.0227
929.0,0.0227
928.0,0.0227
927.0,0.0228
926.0,0.0228
925.0,0.0228
924.0,0.0229
923.0,0.0228
922.0,0.0228
921.0,0.0227
920.0,0.0226
919.0,0.0227
918.0,0.0227
917.0,0.0228
916.0,0.0228
915.0,0.0228
914.0,0.0228
913.0,0.0228
912.0,0.0228
911.0,0.0229
910.0,0.023
909.0,0.0231
908.0,0.0232
907.0,0.0232
906.0,0.0232
905.0,0.0233
904.0,0.0233
903.0,0.0233
902.0,0.0233
901.0,0.0233
900.0,0.0234
899.0,0.0234
898.0,0.0235
897.0,0.0235
896.0,0.0235
895.0,0.0236
894.0,0.0236
893.0,0.0237
892.0,0.0238
891.0,0.0239
890.0,0.0239
889.0,0.0239
888.0,0.0239
887.0,0.0239
886.0,0.0239
885.0,0.0239
884.0,0.0239
883.0,0.0239
882.0,0.0239
881.0,0.0239
880.0,0.0238
879.0,0.0237
878.0,0.0236
877.0,0.0234
876.0,0.0233
875.0,0.0233
874.0,0.0233
873.0,0.0233
872.0,0.0234
871.0,0.0234
870.0,0.0234
869.0,0.0233
868.0,0.0233
867.0,0.0232
866.0,0.0232
865.0,0.0232
864.0,0.0233
863.0,0.0233
862.0,0.0232
861.0,0.0231
860.0,0.023
859.0,0.0229
858.0,0.0228
857.0,0.0228
856.0,0.0228
855.0,0.0228
854.0,0.0228
853.0,0.0229
852.0,0.023
851.0,0.023
850.0,0.0231
849.0,0.0231
848.0,0.0231
847.0,0.0231
846.0,0.0233
845.0,0.0233
844.0,0.0233
843.0,0.0233
842.0,0.0233
841.0,0.0233
840.0,0.0232
839.0,0.0231
838.0,0.023
837.0,0.0229
836.0,0.0229
835.0,0.0229
834.0,0.0229
833.0,0.0229
832.0,0.0229
831.0,0.0229
830.0,0.0229
829.0,0.023
828.0,0.0231
827.0,0.0231
826.0,0.0231
825.0,0.0231
824.0,0.0231
823.0,0.023
822.0,0.023
821.0,0.023
820.0,0.0231
819.0,0.0231
818.0,0.0231
817.0,0.0231
816.0,0.0232
815.0,0.0231
814.0,0.0231
813.0,0.0231
812.0,0.0231
811.0,0.0231
810.0,0.0232
809.0,0.0233
808.0,0.0233
807.0,0.0234
806.0,0.0234
805.0,0.0234
804.0,0.0234
803.0,0.0234
802.0,0.0234
801.0,0.0236
800.0,0.0238
799.0,0.0239
798.0,0.0239
797.0,0.0238
796.0,0.0237
795.0,0.0236
794.0,0.0236
793.0,0.0236
792.0,0.0237
791.0,0.0238
790.0,0.0238
789.0,0.0238
788.0,0.0238
787.0,0.0238
786.0,0.0239
785.0,0.0239
784.0,0.024
783.0,0.024
782.0,0.0241
781.0,0.0242
780.0,0.0241
779.0,0.0241
778.0,0.024
777.0,0.0241
776.0,0.0243
775.0,0.0244
774.0,0.0245
773.0,0.0245
772.0,0.0244
771.0,0.0244
770.0,0.0244
769.0,0.0245
768.0,0.0245
767.0,0.0246
766.0,0.0247
765.0,0.0248
764.0,0.0249
763.0,0.0247
762.0,0.0245
761.0,0.0244
760.0,0.0244
759.0,0.0243
758.0,0.0243
757.0,0.0242
756.0,0.0241
755.0,0.024
754.0,0.024
753.0,0.0242
752.0,0.0246
751.0,0.0249
750.0,0.025
749.0,0.025
748.0,0.025
747.0,0.0249
746.0,0.025
745.0,0.0253
744.0,0.0255
743.0,0.0254
742.0,0.0253
741.0,0.0254
740.0,0.0258
739.0,0.0262
738.0,0.0266
737.0,0.0273
736.0,0.0287
735.0,0.0316
734.0,0.0375
733.0,0.0473
732.0,0.0598
731.0,0.0713
730.0,0.0779
729.0,0.0781
728.0,0.0739
727.0,0.0691
726.0,0.0663
725.0,0.0664
724.0,0.0696
723.0,0.0767
722.0,0.0887
721.0,0.1046
720.0,0.1188
719.0,0.1239
718.0,0.1183
717.0,0.1063
716.0,0.0927
715.0,0.0804
714.0,0.0706
713.0,0.0633
712.0,0.058
711.0,0.054
710.0,0.0509
709.0,0.0485
708.0,0.0464
707.0,0.0448
706.0,0.0432
705.0,0.0417
704.0,0.0403
703.0,0.039
702.0,0.038
701.0,0.0373
700.0,0.037
699.0,0.037
698.0,0.037
697.0,0.0367
696.0,0.0359
695.0,0.0345
694.0,0.0332
693.0,0.0324
692.0,0.0323
691.0,0.0326
690.0,0.0328
689.0,0.0325
688.0,0.032
687.0,0.0313
686.0,0.0307
685.0,0.0302
684.0,0.0299
683.0,0.0298
682.0,0.0299
681.0,0.0302
680.0,0.0303
679.0,0.0301
678.0,0.0299
677.0,0.0301
676.0,0.031
675.0,0.032
674.0,0.0325
673.0,0.0324
672.0,0.0321
671.0,0.0316
670.0,0.0305
669.0,0.0285
668.0,0.0261
667.0,0.0253
666.0,0.0264
665.0,0.028
664.0,0.0291
663.0,0.0295
662.0,0.0294
661.0,0.0289
660.0,0.0283
659.0,0.0278
658.0,0.0277
657.0,0.0278
656.0,0.0281
655.0,0.0283
654.0,0.0283
653.0,0.0284
652.0,0.0285
651.0,0.0287
650.0,0.029
649.0,0.0292
648.0,0.0292
647.0,0.029
646.0,0.0287
645.0,0.0285
644.0,0.0285
643.0,0.0285
642.0,0.0284
641.0,0.0283
640.0,0.0286
639.0,0.0291
638.0,0.0296
637.0,0.03
636.0,0.0304
635.0,0.0309
634.0,0.0313
633.0,0.0313
632.0,0.031
631.0,0.0302
630.0,0.0293
629.0,0.0285
628.0,0.028
627.0,0.0276
626.0,0.0273
625.0,0.0274
624.0,0.0279
623.0,0.0285
622.0,0.0288
621.0,0.0288
620.0,0.0288
619.0,0.0289
618.0,0.029
617.0,0.029
616.0,0.0287
615.0,0.0282
614.0,0.0276
613.0,0.0271
612.0,0.0272
611.0,0.0278
610.0,0.0287
609.0,0.0294
608.0,0.0299
607.0,0.03
606.0,0.0298
605.0,0.0292
604.0,0.0285
603.0,0.0282
602.0,0.0285
601.0,0.0295
600.0,0.0305
