cm-1,A
4000.0,0.0066
3999.0,0.0066
3998.0,0.0066
3997.0,0.0067
3996.0,0.0067
3995.0,0.0067
3994.0,0.0067
3993.0,0.0067
3992.0,0.0067
3991.0,0.0068
3990.0,0.0068
3989.0,0.0068
3988.0,0.0067
3987.0,0.0067
3986.0,0.0066
3985.0,0.0066
3984.0,0.0067
3983.0,0.0067
3982.0,0.0068
3981.0,0.0067
3980.0,0.0066
3979.0,0.0065
3978.0,0.0065
3977.0,0.0065
3976.0,0.0066
3975.0,0.0067
3974.0,0.0067
3973.0,0.0066
3972.0,0.0066
3971.0,0.0065
3970.0,0.0065
3969.0,0.0065
3968.0,0.0065
3967.0,0.0065
3966.0,0.0065
3965.0,0.0066
3964.0,0.0067
3963.0,0.0068
3962.0,0.0069
3961.0,0.007
3960.0,0.0069
3959.0,0.0069
3958.0,0.0068
3957.0,0.0067
3956.0,0.0066
3955.0,0.0065
3954.0,0.0065
3953.0,0.0064
3952.0,0.0064
3951.0,0.0065
3950.0,0.0066
3949.0,0.0067
3948.0,0.0068
3947.0,0.0069
3946.0,0.0069
3945.0,0.0069
3944.0,0.0068
3943.0,0.0068
3942.0,0.0068
3941.0,0.0069
3940.0,0.0069
3939.0,0.007
3938.0,0.007
3937.0,0.0069
3936.0,0.0069
3935.0,0.0069
3934.0,0.0069
3933.0,0.0069
3932.0,0.0068
3931.0,0.0068
3930.0,0.0067
3929.0,0.0066
3928.0,0.0066
3927.0,0.0066
3926.0,0.0066
3925.0,0.0066
3924.0,0.0067
3923.0,0.0067
3922.0,0.0068
3921.0,0.0069
3920.0,0.007
3919.0,0.007
3918.0,0.007
3917.0,0.007
3916.0,0.007
3915.0,0.007
3914.0,0.007
3913.0,0.007
3912.0,0.0069
3911.0,0.0069
3910.0,0.0069
3909.0,0.0069
3908.0,0.0068
3907.0,0.0068
3906.0,0.0067
3905.0,0.0067
3904.0,0.0068
3903.0,0.0071
3902.0,0.0073
3901.0,0.0075
3900.0,0.0074
3899.0,0.0073
3898.0,0.0072
3897.0,0.0072
3896.0,0.0072
3895.0,0.0072
3894.0,0.0073
3893.0,0.0073
3892.0,0.0072
3891.0,0.007
3890.0,0.0068
3889.0,0.0069
3888.0,0.0071
3887.0,0.0072
3886.0,0.0072
3885.0,0.0071
3884.0,0.007
3883.0,0.007
3882.0,0.0071
3881.0,0.007
3880.0,0.007
3879.0,0.0069
3878.0,0.007
3877.0,0.0072
3876.0,0.0073
3875.0,0.0072
3874.0,0.0072
3873.0,0.0072
3872.0,0.0074
3871.0,0.0075
3870.0,0.0074
3869.0,0.0073
3868.0,0.0073
3867.0,0.0074
3866.0,0.0074
3865.0,0.0073
3864.0,0.0073
3863.0,0.0072
3862.0,0.0072
3861.0,0.0072
3860.0,0.0071
3859.0,0.0071
3858.0,0.007
3857.0,0.0071
3856.0,0.0073
3855.0,0.0075
3854.0,0.0077
3853.0,0.0075
3852.0,0.0073
3851.0,0.0073
3850.0,0.0073
3849.0,0.0073
3848.0,0.0072
3847.0,0.0071
3846.0,0.0072
3845.0,0.0072
3844.0,0.0071
3843.0,0.0071
3842.0,0.007
3841.0,0.0069
3840.0,0.0069
3839.0,0.0069
3838.0,0.007
3837.0,0.0071
3836.0,0.0072
3835.0,0.0073
3834.0,0.0074
3833.0,0.0073
3832.0,0.0072
3831.0,0.0072
3830.0,0.0071
3829.0,0.0071
3828.0,0.0071
3827.0,0.007
3826.0,0.0069
3825.0,0.0069
3824.0,0.0069
3823.0,0.0071
3822.0,0.0073
3821.0,0.0073
3820.0,0.0073
3819.0,0.0075
3818.0,0.0076
3817.0,0.0076
3816.0,0.0075
3815.0,0.0073
3814.0,0.0073
3813.0,0.0074
3812.0,0.0074
3811.0,0.0074
3810.0,0.0076
3809.0,0.0077
3808.0,0.0078
3807.0,0.0076
3806.0,0.0074
3805.0,0.0074
3804.0,0.0075
3803.0,0.0075
3802.0,0.0074
3801.0,0.0072
3800.0,0.0071
3799.0,0.0073
3798.0,0.0074
3797.0,0.0074
3796.0,0.0073
3795.0,0.0073
3794.0,0.0075
3793.0,0.0075
3792.0,0.0075
3791.0,0.0075
3790.0,0.0075
3789.0,0.0075
3788.0,0.0075
3787.0,0.0075
3786.0,0.0075
3785.0,0.0074
3784.0,0.0074
3783.0,0.0074
3782.0,0.0074
3781.0,0.0075
3780.0,0.0076
3779.0,0.0076
3778.0,0.0075
3777.0,0.0076
3776.0,0.0076
3775.0,0.0076
3774.0,0.0076
3773.0,0.0077
3772.0,0.0078
3771.0,0.0078
3770.0,0.0076
3769.0,0.0075
3768.0,0.0076
3767.0,0.0077
3766.0,0.0078
3765.0,0.0078
3764.0,0.0077
3763.0,0.0077
3762.0,0.0077
3761.0,0.0076
3760.0,0.0076
3759.0,0.0075
3758.0,0.0075
3757.0,0.0074
3756.0,0.0074
3755.0,0.0074
3754.0,0.0075
3753.0,0.0076
3752.0,0.0079
3751.0,0.0081
3750.0,0.0082
3749.0,0.0082
3748.0,0.0083
3747.0,0.0085
3746.0,0.0085
3745.0,0.0083
3744.0,0.008
3743.0,0.0078
3742.0,0.0079
3741.0,0.0079
3740.0,0.0077
3739.0,0.0074
3738.0,0.0072
3737.0,0.0071
3736.0,0.0071
3735.0,0.0071
3734.0,0.0072
3733.0,0.0072
3732.0,0.0073
3731.0,0.0073
3730.0,0.0074
3729.0,0.0074
3728.0,0.0075
3727.0,0.0074
3726.0,0.0073
3725.0,0.0073
3724.0,0.0073
3723.0,0.0073
3722.0,0.0073
3721.0,0.0074
3720.0,0.0075
3719.0,0.0076
3718.0,0.0078
3717.0,0.008
3716.0,0.0081
3715.0,0.0081
3714.0,0.008
3713.0,0.0079
3712.0,0.0076
3711.0,0.0075
3710.0,0.0074
3709.0,0.0075
3708.0,0.0076
3707.0,0.0077
3706.0,0.0077
3705.0,0.0077
3704.0,0.0077
3703.0,0.0077
3702.0,0.0078
3701.0,0.0079
3700.0,0.0079
3699.0,0.008
3698.0,0.0081
3697.0,0.0081
3696.0,0.008
3695.0,0.008
3694.0,0.008
3693.0,0.0079
3692.0,0.0078
3691.0,0.0077
3690.0,0.0076
3689.0,0.0075
3688.0,0.0075
3687.0,0.0076
3686.0,0.0078
3685.0,0.0079
3684.0,0.008
3683.0,0.008
3682.0,0.008
3681.0,0.008
3680.0,0.0079
3679.0,0.0079
3678.0,0.0081
3677.0,0.0084
3676.0,0.0085
3675.0,0.0084
3674.0,0.0083
3673.0,0.0085
3672.0,0.0087
3671.0,0.0087
3670.0,0.0086
3669.0,0.0084
3668.0,0.0083
3667.0,0.0084
3666.0,0.0084
3665.0,0.0083
3664.0,0.0082
3663.0,0.0081
3662.0,0.0081
3661.0,0.0081
3660.0,0.0081
3659.0,0.0081
3658.0,0.0082
3657.0,0.0083
3656.0,0.0084
3655.0,0.0084
3654.0,0.0084
3653.0,0.0084
3652.0,0.0084
3651.0,0.0084
3650.0,0.0085
3649.0,0.0086
3648.0,0.0086
3647.0,0.0086
3646.0,0.0087
3645.0,0.0088
3644.0,0.0089
3643.0,0.0089
3642.0,0.0089
3641.0,0.0089
3640.0,0.0089
3639.0,0.0089
3638.0,0.0088
3637.0,0.0088
3636.0,0.0089
3635.0,0.0089
3634.0,0.0089
3633.0,0.0089
3632.0,0.009
3631.0,0.0091
3630.0,0.0093
3629.0,0.0094
3628.0,0.0095
3627.0,0.0096
3626.0,0.0097
3625.0,0.0097
3624.0,0.0096
3623.0,0.0095
3622.0,0.0094
3621.0,0.0095
3620.0,0.0096
3619.0,0.0096
3618.0,0.0097
3617.0,0.0098
3616.0,0.01
3615.0,0.0102
3614.0,0.0104
3613.0,0.0105
3612.0,0.0105
3611.0,0.0103
3610.0,0.0101
3609.0,0.0099
3608.0,0.0098
3607.0,0.0098
3606.0,0.01
3605.0,0.0101
3604.0,0.0101
3603.0,0.01
3602.0,0.01
3601.0,0.0101
3600.0,0.0103
3599.0,0.0105
3598.0,0.0106
3597.0,0.0106
3596.0,0.0106
3595.0,0.0105
3594.0,0.0105
3593.0,0.0106
3592.0,0.0106
3591.0,0.0106
3590.0,0.0107
3589.0,0.0107
3588.0,0.0108
3587.0,0.0108
3586.0,0.0108
3585.0,0.011
3584.0,0.0111
3583.0,0.0113
3582.0,0.0113
3581.0,0.0112
3580.0,0.0111
3579.0,0.011
3578.0,0.011
3577.0,0.0111
3576.0,0.0113
3575.0,0.0114
3574.0,0.0115
3573.0,0.0115
3572.0,0.0114
3571.0,0.0113
3570.0,0.0113
3569.0,0.0113
3568.0,0.0114
3567.0,0.0115
3566.0,0.0115
3565.0,0.0116
3564.0,0.0117
3563.0,0.0118
3562.0,0.0119
3561.0,0.012
3560.0,0.0121
3559.0,0.0122
3558.0,0.0124
3557.0,0.0125
3556.0,0.0125
3555.0,0.0125
3554.0,0.0124
3553.0,0.0123
3552.0,0.0123
3551.0,0.0124
3550.0,0.0125
3549.0,0.0125
3548.0,0.0125
3547.0,0.0125
3546.0,0.0124
3545.0,0.0124
3544.0,0.0125
3543.0,0.0126
3542.0,0.0127
3541.0,0.0128
3540.0,0.0129
3539.0,0.013
3538.0,0.0131
3537.0,0.0131
3536.0,0.0132
3535.0,0.0132
3534.0,0.0132
3533.0,0.0132
3532.0,0.0133
3531.0,0.0134
3530.0,0.0135
3529.0,0.0137
3528.0,0.0137
3527.0,0.0138
3526.0,0.0137
3525.0,0.0137
3524.0,0.0138
3523.0,0.0138
3522.0,0.0139
3521.0,0.0141
3520.0,0.0141
3519.0,0.0141
3518.0,0.0141
3517.0,0.0141
3516.0,0.0142
3515.0,0.0143
3514.0,0.0144
3513.0,0.0145
3512.0,0.0146
3511.0,0.0146
3510.0,0.0146
3509.0,0.0146
3508.0,0.0146
3507.0,0.0146
3506.0,0.0147
3505.0,0.0148
3504.0,0.0149
3503.0,0.0149
3502.0,0.0148
3501.0,0.0148
3500.0,0.0148
3499.0,0.015
3498.0,0.0151
3497.0,0.0152
3496.0,0.0153
3495.0,0.0153
3494.0,0.0153
3493.0,0.0152
3492.0,0.0151
3491.0,0.0151
3490.0,0.015
3489.0,0.0151
3488.0,0.0153
3487.0,0.0154
3486.0,0.0156
3485.0,0.0156
3484.0,0.0156
3483.0,0.0155
3482.0,0.0154
3481.0,0.0154
3480.0,0.0155
3479.0,0.0156
3478.0,0.0157
3477.0,0.0158
3476.0,0.0158
3475.0,0.0158
3474.0,0.0159
3473.0,0.0159
3472.0,0.016
3471.0,0.016
3470.0,0.0161
3469.0,0.0161
3468.0,0.0161
3467.0,0.0161
3466.0,0.0161
3465.0,0.0161
3464.0,0.0162
3463.0,0.0163
3462.0,0.0164
3461.0,0.0165
3460.0,0.0166
3459.0,0.0167
3458.0,0.0168
3457.0,0.0168
3456.0,0.0168
3455.0,0.0168
3454.0,0.0169
3453.0,0.017
3452.0,0.0171
3451.0,0.0171
3450.0,0.017
3449.0,0.0169
3448.0,0.0169
3447.0,0.017
3446.0,0.0171
3445.0,0.0173
3444.0,0.0174
3443.0,0.0175
3442.0,0.0176
3441.0,0.0176
3440.0,0.0177
3439.0,0.0177
3438.0,0.0178
3437.0,0.0179
3436.0,0.0178
3435.0,0.0178
3434.0,0.0177
3433.0,0.0178
3432.0,0.0178
3431.0,0.0179
3430.0,0.018
3429.0,0.018
3428.0,0.018
3427.0,0.0179
3426.0,0.0179
3425.0,0.0179
3424.0,0.0181
3423.0,0.0182
3422.0,0.0183
3421.0,0.0183
3420.0,0.0183
3419.0,0.0183
3418.0,0.0183
3417.0,0.0183
3416.0,0.0184
3415.0,0.0184
3414.0,0.0184
3413.0,0.0184
3412.0,0.0184
3411.0,0.0184
3410.0,0.0184
3409.0,0.0185
3408.0,0.0185
3407.0,0.0184
3406.0,0.0184
3405.0,0.0183
3404.0,0.0183
3403.0,0.0183
3402.0,0.0182
3401.0,0.0181
3400.0,0.0181
3399.0,0.018
3398.0,0.018
3397.0,0.018
3396.0,0.018
3395.0,0.0181
3394.0,0.0182
3393.0,0.0183
3392.0,0.0183
3391.0,0.0184
3390.0,0.0184
3389.0,0.0184
3388.0,0.0184
3387.0,0.0184
3386.0,0.0183
3385.0,0.0181
3384.0,0.018
3383.0,0.018
3382.0,0.0181
3381.0,0.0181
3380.0,0.0181
3379.0,0.018
3378.0,0.0179
3377.0,0.0177
3376.0,0.0176
3375.0,0.0175
3374.0,0.0174
3373.0,0.0174
3372.0,0.0174
3371.0,0.0175
3370.0,0.0175
3369.0,0.0174
3368.0,0.0173
3367.0,0.0172
3366.0,0.0171
3365.0,0.0171
3364.0,0.0171
3363.0,0.017
3362.0,0.017
3361.0,0.017
3360.0,0.017
3359.0,0.0168
3358.0,0.0167
3357.0,0.0165
3356.0,0.0165
3355.0,0.0166
3354.0,0.0168
3353.0,0.0168
3352.0,0.0168
3351.0,0.0167
3350.0,0.0166
3349.0,0.0166
3348.0,0.0166
3347.0,0.0166
3346.0,0.0166
3345.0,0.0166
3344.0,0.0166
3343.0,0.0165
3342.0,0.0164
3341.0,0.0163
3340.0,0.0163
3339.0,0.0163
3338.0,0.0163
3337.0,0.0163
3336.0,0.0162
3335.0,0.0161
3334.0,0.016
3333.0,0.0158
3332.0,0.0158
3331.0,0.0158
3330.0,0.0158
3329.0,0.0158
3328.0,0.0158
3327.0,0.0158
3326.0,0.0157
3325.0,0.0157
3324.0,0.0157
3323.0,0.0156
3322.0,0.0155
3321.0,0.0155
3320.0,0.0154
3319.0,0.0153
3318.0,0.0152
3317.0,0.0151
3316.0,0.0151
3315.0,0.0151
3314.0,0.0152
3313.0,0.0152
3312.0,0.0152
3311.0,0.0152
3310.0,0.0152
3309.0,0.0152
3308.0,0.0152
3307.0,0.0151
3306.0,0.0151
3305.0,0.015
3304.0,0.015
3303.0,0.0149
3302.0,0.0148
3301.0,0.0148
3300.0,0.0148
3299.0,0.0147
3298.0,0.0147
3297.0,0.0147
3296.0,0.0148
3295.0,0.0148
3294.0,0.0147
3293.0,0.0146
3292.0,0.0146
3291.0,0.0147
3290.0,0.0148
3289.0,0.0148
3288.0,0.0148
3287.0,0.0147
3286.0,0.0146
3285.0,0.0146
3284.0,0.0145
3283.0,0.0143
3282.0,0.0142
3281.0,0.0142
3280.0,0.0142
3279.0,0.0142
3278.0,0.0142
3277.0,0.0142
3276.0,0.0142
3275.0,0.0141
3274.0,0.014
3273.0,0.0139
3272.0,0.0138
3271.0,0.0138
3270.0,0.0138
3269.0,0.0139
3268.0,0.0139
3267.0,0.014
3266.0,0.014
3265.0,0.0139
3264.0,0.0138
3263.0,0.0138
3262.0,0.0138
3261.0,0.0138
3260.0,0.0138
3259.0,0.0136
3258.0,0.0134
3257.0,0.0133
3256.0,0.0133
3255.0,0.0133
3254.0,0.0134
3253.0,0.0135
3252.0,0.0136
3251.0,0.0137
3250.0,0.0137
3249.0,0.0137
3248.0,0.0136
3247.0,0.0135
3246.0,0.0135
3245.0,0.0135
3244.0,0.0134
3243.0,0.0134
3242.0,0.0133
3241.0,0.0133
3240.0,0.0133
3239.0,0.0132
3238.0,0.0132
3237.0,0.0131
3236.0,0.0131
3235.0,0.0131
3234.0,0.0132
3233.0,0.0133
3232.0,0.0133
3231.0,0.0132
3230.0,0.0131
3229.0,0.0131
3228.0,0.0129
3227.0,0.0128
3226.0,0.0127
3225.0,0.0126
3224.0,0.0126
3223.0,0.0128
3222.0,0.013
3221.0,0.0131
3220.0,0.0131
3219.0,0.013
3218.0,0.0128
3217.0,0.0128
3216.0,0.0128
3215.0,0.0129
3214.0,0.0129
3213.0,0.013
3212.0,0.0129
3211.0,0.0128
3210.0,0.0126
3209.0,0.0125
3208.0,0.0125
3207.0,0.0125
3206.0,0.0125
3205.0,0.0124
3204.0,0.0123
3203.0,0.0122
3202.0,0.0121
3201.0,0.0121
3200.0,0.012
3199.0,0.012
3198.0,0.0121
3197.0,0.0121
3196.0,0.0121
3195.0,0.0121
3194.0,0.012
3193.0,0.0119
3192.0,0.0119
3191.0,0.0119
3190.0,0.0119
3189.0,0.012
3188.0,0.0119
3187.0,0.0119
3186.0,0.0119
3185.0,0.0118
3184.0,0.0117
3183.0,0.0115
3182.0,0.0114
3181.0,0.0113
3180.0,0.0113
3179.0,0.0114
3178.0,0.0114
3177.0,0.0114
3176.0,0.0114
3175.0,0.0113
3174.0,0.0113
3173.0,0.0113
3172.0,0.0112
3171.0,0.0112
3170.0,0.0111
3169.0,0.011
3168.0,0.0109
3167.0,0.0109
3166.0,0.0108
3165.0,0.0108
3164.0,0.0108
3163.0,0.0108
3162.0,0.0107
3161.0,0.0106
3160.0,0.0105
3159.0,0.0105
3158.0,0.0105
3157.0,0.0106
3156.0,0.0106
3155.0,0.0106
3154.0,0.0106
3153.0,0.0106
3152.0,0.0107
3151.0,0.0107
3150.0,0.0107
3149.0,0.0106
3148.0,0.0105
3147.0,0.0104
3146.0,0.0103
3145.0,0.0102
3144.0,0.0102
3143.0,0.0102
3142.0,0.0101
3141.0,0.01
3140.0,0.01
3139.0,0.01
3138.0,0.0101
3137.0,0.0102
3136.0,0.0102
3135.0,0.0102
3134.0,0.0101
3133.0,0.0099
3132.0,0.0097
3131.0,0.0096
3130.0,0.0095
3129.0,0.0095
3128.0,0.0094
3127.0,0.0094
3126.0,0.0095
3125.0,0.0095
3124.0,0.0096
3123.0,0.0096
3122.0,0.0095
3121.0,0.0094
3120.0,0.0093
3119.0,0.0092
3118.0,0.009
3117.0,0.0089
3116.0,0.0089
3115.0,0.0089
3114.0,0.0089
3113.0,0.0089
3112.0,0.0089
3111.0,0.009
3110.0,0.009
3109.0,0.0091
3108.0,0.009
3107.0,0.0089
3106.0,0.0089
3105.0,0.0088
3104.0,0.0088
3103.0,0.0088
3102.0,0.0087
3101.0,0.0086
3100.0,0.0086
3099.0,0.0085
3098.0,0.0084
3097.0,0.0084
3096.0,0.0084
3095.0,0.0084
3094.0,0.0084
3093.0,0.0084
3092.0,0.0083
3091.0,0.0081
3090.0,0.008
3089.0,0.0078
3088.0,0.0077
3087.0,0.0076
3086.0,0.0075
3085.0,0.0076
3084.0,0.0076
3083.0,0.0077
3082.0,0.0077
3081.0,0.0076
3080.0,0.0076
3079.0,0.0076
3078.0,0.0076
3077.0,0.0076
3076.0,0.0075
3075.0,0.0075
3074.0,0.0074
3073.0,0.0074
3072.0,0.0074
3071.0,0.0074
3070.0,0.0074
3069.0,0.0075
3068.0,0.0076
3067.0,0.0075
3066.0,0.0075
3065.0,0.0074
3064.0,0.0073
3063.0,0.0073
3062.0,0.0072
3061.0,0.0072
3060.0,0.0071
3059.0,0.007
3058.0,0.007
3057.0,0.007
3056.0,0.0069
3055.0,0.0069
3054.0,0.0069
3053.0,0.0069
3052.0,0.0069
3051.0,0.0069
3050.0,0.0068
3049.0,0.0067
3048.0,0.0065
3047.0,0.0065
3046.0,0.0064
3045.0,0.0064
3044.0,0.0063
3043.0,0.0063
3042.0,0.0063
3041.0,0.0063
3040.0,0.0063
3039.0,0.0063
3038.0,0.0063
3037.0,0.0063
3036.0,0.0062
3035.0,0.0062
3034.0,0.0062
3033.0,0.0061
3032.0,0.0061
3031.0,0.006
3030.0,0.006
3029.0,0.0059
3028.0,0.0059
3027.0,0.0059
3026.0,0.0059
3025.0,0.0059
3024.0,0.0058
3023.0,0.0058
3022.0,0.0057
3021.0,0.0057
3020.0,0.0056
3019.0,0.0056
3018.0,0.0056
3017.0,0.0056
3016.0,0.0057
3015.0,0.0057
3014.0,0.0057
3013.0,0.0056
3012.0,0.0056
3011.0,0.0055
3010.0,0.0055
3009.0,0.0054
3008.0,0.0054
3007.0,0.0054
3006.0,0.0055
3005.0,0.0055
3004.0,0.0054
3003.0,0.0054
3002.0,0.0055
3001.0,0.0056
3000.0,0.0057
2999.0,0.0058
2998.0,0.0059
2997.0,0.006
2996.0,0.0061
2995.0,0.0063
2994.0,0.0064
2993.0,0.0067
2992.0,0.0068
2991.0,0.007
2990.0,0.0072
2989.0,0.0076
2988.0,0.0081
2987.0,0.0086
2986.0,0.0092
2985.0,0.0099
2984.0,0.0106
2983.0,0.0114
2982.0,0.0123
2981.0,0.0134
2980.0,0.0146
2979.0,0.0161
2978.0,0.0178
2977.0,0.0199
2976.0,0.0223
2975.0,0.0251
2974.0,0.0282
2973.0,0.0318
2972.0,0.0358
2971.0,0.0403
2970.0,0.0453
2969.0,0.0509
2968.0,0.057
2967.0,0.0635
2966.0,0.0702
2965.0,0.077
2964.0,0.0835
2963.0,0.0893
2962.0,0.0939
2961.0,0.0973
2960.0,0.0995
2959.0,0.1009
2958.0,0.1022
2957.0,0.1037
2956.0,0.1059
2955.0,0.109
2954.0,0.1128
2953.0,0.1167
2952.0,0.1201
2951.0,0.122
2950.0,0.1219
2949.0,0.1193
2948.0,0.1144
2947.0,0.1076
2946.0,0.0997
2945.0,0.0915
2944.0,0.0837
2943.0,0.0768
2942.0,0.0713
2941.0,0.0672
2940.0,0.0645
2939.0,0.063
2938.0,0.0627
2937.0,0.0635
2936.0,0.0652
2935.0,0.0679
2934.0,0.0714
2933.0,0.0758
2932.0,0.0809
2931.0,0.0865
2930.0,0.0925
2929.0,0.0987
2928.0,0.1048
2927.0,0.1107
2926.0,0.1162
2925.0,0.1214
2924.0,0.1266
2923.0,0.1319
2922.0,0.137
2921.0,0.1418
2920.0,0.1456
2919.0,0.1481
2918.0,0.1487
2917.0,0.1474
2916.0,0.1444
2915.0,0.1403
2914.0,0.1356
2913.0,0.131
2912.0,0.1268
2911.0,0.1233
2910.0,0.1202
2909.0,0.1174
2908.0,0.1148
2907.0,0.1121
2906.0,0.1092
2905.0,0.1061
2904.0,0.1029
2903.0,0.0996
2902.0,0.0963
2901.0,0.0929
2900.0,0.0896
2899.0,0.0863
2898.0,0.0833
2897.0,0.0805
2896.0,0.0781
2895.0,0.076
2894.0,0.0743
2893.0,0.073
2892.0,0.072
2891.0,0.0714
2890.0,0.0709
2889.0,0.0707
2888.0,0.0707
2887.0,0.0709
2886.0,0.0714
2885.0,0.072
2884.0,0.0729
2883.0,0.074
2882.0,0.0753
2881.0,0.0766
2880.0,0.0778
2879.0,0.0787
2878.0,0.0791
2877.0,0.079
2876.0,0.0786
2875.0,0.0782
2874.0,0.078
2873.0,0.0782
2872.0,0.0789
2871.0,0.0799
2870.0,0.0812
2869.0,0.0824
2868.0,0.0831
2867.0,0.0828
2866.0,0.0811
2865.0,0.0779
2864.0,0.0734
2863.0,0.0682
2862.0,0.0628
2861.0,0.0578
2860.0,0.0537
2859.0,0.0503
2858.0,0.0477
2857.0,0.0457
2856.0,0.0444
2855.0,0.0436
2854.0,0.0433
2853.0,0.0435
2852.0,0.044
2851.0,0.045
2850.0,0.0464
2849.0,0.0483
2848.0,0.0507
2847.0,0.0537
2846.0,0.0573
2845.0,0.0614
2844.0,0.0659
2843.0,0.0704
2842.0,0.0749
2841.0,0.0788
2840.0,0.0818
2839.0,0.0836
2838.0,0.0837
2837.0,0.0821
2836.0,0.0789
2835.0,0.0743
2834.0,0.0691
2833.0,0.0636
2832.0,0.0585
2831.0,0.054
2830.0,0.0501
2829.0,0.0468
2828.0,0.0441
2827.0,0.0418
2826.0,0.0399
2825.0,0.0383
2824.0,0.0369
2823.0,0.0357
2822.0,0.0347
2821.0,0.0338
2820.0,0.033
2819.0,0.0323
2818.0,0.0317
2817.0,0.0311
2816.0,0.0306
2815.0,0.0301
2814.0,0.0296
2813.0,0.0292
2812.0,0.0289
2811.0,0.0285
2810.0,0.0281
2809.0,0.0277
2808.0,0.0273
2807.0,0.0269
2806.0,0.0265
2805.0,0.0261
2804.0,0.0256
2803.0,0.0251
2802.0,0.0247
2801.0,0.0244
2800.0,0.0242
2799.0,0.0241
2798.0,0.0239
2797.0,0.0238
2796.0,0.0236
2795.0,0.0234
2794.0,0.0232
2793.0,0.0229
2792.0,0.0227
2791.0,0.0224
2790.0,0.0222
2789.0,0.022
2788.0,0.0217
2787.0,0.0214
2786.0,0.0211
2785.0,0.0209
2784.0,0.0207
2783.0,0.0204
2782.0,0.0202
2781.0,0.02
2780.0,0.0199
2779.0,0.0199
2778.0,0.0198
2777.0,0.0197
2776.0,0.0196
2775.0,0.0194
2774.0,0.0193
2773.0,0.0192
2772.0,0.0191
2771.0,0.019
2770.0,0.0188
2769.0,0.0187
2768.0,0.0187
2767.0,0.0186
2766.0,0.0185
2765.0,0.0185
2764.0,0.0185
2763.0,0.0184
2762.0,0.0183
2761.0,0.0182
2760.0,0.0182
2759.0,0.0181
2758.0,0.0181
2757.0,0.0181
2756.0,0.018
2755.0,0.018
2754.0,0.0179
2753.0,0.0178
2752.0,0.0178
2751.0,0.0178
2750.0,0.0177
2749.0,0.0178
2748.0,0.0178
2747.0,0.0178
2746.0,0.0178
2745.0,0.0177
2744.0,0.0177
2743.0,0.0177
2742.0,0.0177
2741.0,0.0177
2740.0,0.0178
2739.0,0.0178
2738.0,0.0178
2737.0,0.0179
2736.0,0.018
2735.0,0.018
2734.0,0.0181
2733.0,0.0181
2732.0,0.0183
2731.0,0.0184
2730.0,0.0185
2729.0,0.0186
2728.0,0.0188
2727.0,0.019
2726.0,0.0192
2725.0,0.0194
2724.0,0.0195
2723.0,0.0194
2722.0,0.0193
2721.0,0.0192
2720.0,0.019
2719.0,0.0188
2718.0,0.0187
2717.0,0.0185
2716.0,0.0184
2715.0,0.0183
2714.0,0.0181
2713.0,0.018
2712.0,0.0179
2711.0,0.0178
2710.0,0.0176
2709.0,0.0175
2708.0,0.0174
2707.0,0.0173
2706.0,0.0172
2705.0,0.0171
2704.0,0.017
2703.0,0.0168
2702.0,0.0167
2701.0,0.0166
2700.0,0.0166
2699.0,0.0166
2698.0,0.0166
2697.0,0.0166
2696.0,0.0166
2695.0,0.0166
2694.0,0.0166
2693.0,0.0165
2692.0,0.0164
2691.0,0.0164
2690.0,0.0164
2689.0,0.0164
2688.0,0.0164
2687.0,0.0164
2686.0,0.0163
2685.0,0.0163
2684.0,0.0162
2683.0,0.0162
2682.0,0.0162
2681.0,0.0162
2680.0,0.0163
2679.0,0.0163
2678.0,0.0164
2677.0,0.0164
2676.0,0.0163
2675.0,0.0162
2674.0,0.0161
2673.0,0.0161
2672.0,0.0161
2671.0,0.0161
2670.0,0.0161
2669.0,0.016
2668.0,0.016
2667.0,0.0159
2666.0,0.0159
2665.0,0.0158
2664.0,0.0158
2663.0,0.0158
2662.0,0.0158
2661.0,0.0159
2660.0,0.0159
2659.0,0.0159
2658.0,0.0159
2657.0,0.0158
2656.0,0.0158
2655.0,0.0157
2654.0,0.0157
2653.0,0.0156
2652.0,0.0156
2651.0,0.0156
2650.0,0.0156
2649.0,0.0156
2648.0,0.0157
2647.0,0.0157
2646.0,0.0157
2645.0,0.0156
2644.0,0.0155
2643.0,0.0154
2642.0,0.0153
2641.0,0.0152
2640.0,0.0152
2639.0,0.0152
2638.0,0.0153
2637.0,0.0153
2636.0,0.0153
2635.0,0.0153
2634.0,0.0153
2633.0,0.0153
2632.0,0.0153
2631.0,0.0153
2630.0,0.0153
2629.0,0.0153
2628.0,0.0153
2627.0,0.0153
2626.0,0.0154
2625.0,0.0154
2624.0,0.0154
2623.0,0.0154
2622.0,0.0154
2621.0,0.0154
2620.0,0.0153
2619.0,0.0152
2618.0,0.0151
2617.0,0.0151
2616.0,0.0152
2615.0,0.0153
2614.0,0.0154
2613.0,0.0154
2612.0,0.0154
2611.0,0.0153
2610.0,0.0152
2609.0,0.0152
2608.0,0.0151
2607.0,0.015
2606.0,0.015
2605.0,0.0149
2604.0,0.0149
2603.0,0.0149
2602.0,0.0149
2601.0,0.0149
2600.0,0.0149
2599.0,0.0149
2598.0,0.0148
2597.0,0.0148
2596.0,0.0147
2595.0,0.0147
2594.0,0.0148
2593.0,0.0149
2592.0,0.015
2591.0,0.015
2590.0,0.0151
2589.0,0.0151
2588.0,0.0151
2587.0,0.0151
2586.0,0.0152
2585.0,0.0152
2584.0,0.0153
2583.0,0.0153
2582.0,0.0153
2581.0,0.0153
2580.0,0.0152
2579.0,0.0151
2578.0,0.015
2577.0,0.0149
2576.0,0.0149
2575.0,0.0149
2574.0,0.0149
2573.0,0.0149
2572.0,0.0149
2571.0,0.0148
2570.0,0.0147
2569.0,0.0146
2568.0,0.0146
2567.0,0.0147
2566.0,0.0147
2565.0,0.0147
2564.0,0.0146
2563.0,0.0145
2562.0,0.0145
2561.0,0.0145
2560.0,0.0145
2559.0,0.0145
2558.0,0.0145
2557.0,0.0145
2556.0,0.0145
2555.0,0.0144
2554.0,0.0143
2553.0,0.0143
2552.0,0.0142
2551.0,0.0141
2550.0,0.0141
2549.0,0.0141
2548.0,0.0141
2547.0,0.0141
2546.0,0.0141
2545.0,0.0141
2544.0,0.0141
2543.0,0.014
2542.0,0.014
2541.0,0.014
2540.0,0.014
2539.0,0.014
2538.0,0.014
2537.0,0.014
2536.0,0.014
2535.0,0.014
2534.0,0.0139
2533.0,0.0139
2532.0,0.0139
2531.0,0.0139
2530.0,0.0138
2529.0,0.0139
2528.0,0.0139
2527.0,0.0139
2526.0,0.0139
2525.0,0.0139
2524.0,0.0138
2523.0,0.0138
2522.0,0.0137
2521.0,0.0136
2520.0,0.0136
2519.0,0.0136
2518.0,0.0136
2517.0,0.0136
2516.0,0.0136
2515.0,0.0136
2514.0,0.0136
2513.0,0.0136
2512.0,0.0136
2511.0,0.0136
2510.0,0.0136
2509.0,0.0137
2508.0,0.0137
2507.0,0.0136
2506.0,0.0135
2505.0,0.0134
2504.0,0.0134
2503.0,0.0134
2502.0,0.0135
2501.0,0.0135
2500.0,0.0136
2499.0,0.0136
2498.0,0.0137
2497.0,0.0137
2496.0,0.0137
2495.0,0.0137
2494.0,0.0137
2493.0,0.0136
2492.0,0.0135
2491.0,0.0135
2490.0,0.0135
2489.0,0.0135
2488.0,0.0135
2487.0,0.0135
2486.0,0.0135
2485.0,0.0136
2484.0,0.0136
2483.0,0.0136
2482.0,0.0136
2481.0,0.0136
2480.0,0.0135
2479.0,0.0135
2478.0,0.0135
2477.0,0.0134
2476.0,0.0134
2475.0,0.0134
2474.0,0.0134
2473.0,0.0134
2472.0,0.0135
2471.0,0.0135
2470.0,0.0135
2469.0,0.0134
2468.0,0.0134
2467.0,0.0133
2466.0,0.0133
2465.0,0.0133
2464.0,0.0133
2463.0,0.0134
2462.0,0.0135
2461.0,0.0135
2460.0,0.0136
2459.0,0.0136
2458.0,0.0135
2457.0,0.0135
2456.0,0.0135
2455.0,0.0134
2454.0,0.0133
2453.0,0.0133
2452.0,0.0133
2451.0,0.0133
2450.0,0.0134
2449.0,0.0134
2448.0,0.0134
2447.0,0.0133
2446.0,0.0133
2445.0,0.0133
2444.0,0.0133
2443.0,0.0133
2442.0,0.0134
2441.0,0.0135
2440.0,0.0136
2439.0,0.0136
2438.0,0.0135
2437.0,0.0135
2436.0,0.0135
2435.0,0.0135
2434.0,0.0136
2433.0,0.0136
2432.0,0.0136
2431.0,0.0136
2430.0,0.0135
2429.0,0.0135
2428.0,0.0135
2427.0,0.0136
2426.0,0.0136
2425.0,0.0135
2424.0,0.0135
2423.0,0.0135
2422.0,0.0135
2421.0,0.0135
2420.0,0.0136
2419.0,0.0135
2418.0,0.0135
2417.0,0.0135
2416.0,0.0135
2415.0,0.0135
2414.0,0.0135
2413.0,0.0134
2412.0,0.0134
2411.0,0.0134
2410.0,0.0133
2409.0,0.0133
2408.0,0.0133
2407.0,0.0134
2406.0,0.0134
2405.0,0.0134
2404.0,0.0134
2403.0,0.0135
2402.0,0.0135
2401.0,0.0135
2400.0,0.0136
2399.0,0.0136
2398.0,0.0137
2397.0,0.0137
2396.0,0.0137
2395.0,0.0136
2394.0,0.0135
2393.0,0.0135
2392.0,0.0135
2391.0,0.0135
2390.0,0.0135
2389.0,0.0135
2388.0,0.0134
2387.0,0.0133
2386.0,0.0132
2385.0,0.0131
2384.0,0.013
2383.0,0.013
2382.0,0.013
2381.0,0.013
2380.0,0.0129
2379.0,0.0126
2378.0,0.0122
2377.0,0.0118
2376.0,0.0115
2375.0,0.0113
2374.0,0.0112
2373.0,0.0112
2372.0,0.0111
2371.0,0.0111
2370.0,0.0114
2369.0,0.0119
2368.0,0.0126
2367.0,0.0135
2366.0,0.0143
2365.0,0.0151
2364.0,0.0153
2363.0,0.0146
2362.0,0.0137
2361.0,0.0135
2360.0,0.014
2359.0,0.0144
2358.0,0.0144
2357.0,0.0134
2356.0,0.0135
2355.0,0.0108
2354.0,0.0079
2353.0,0.0088
2352.0,0.0086
2351.0,0.009
2350.0,0.009
2349.0,0.0091
2348.0,0.0091
2347.0,0.0089
2346.0,0.0085
2345.0,0.0079
2344.0,0.0077
2343.0,0.0073
2342.0,0.0076
2341.0,0.0066
2340.0,0.0088
2339.0,0.0121
2338.0,0.0113
2337.0,0.0121
2336.0,0.0123
2335.0,0.013
2334.0,0.0132
2333.0,0.0133
2332.0,0.0131
2331.0,0.0128
2330.0,0.0124
2329.0,0.0122
2328.0,0.012
2327.0,0.012
2326.0,0.0119
2325.0,0.0117
2324.0,0.0115
2323.0,0.0115
2322.0,0.0117
2321.0,0.0119
2320.0,0.012
2319.0,0.0121
2318.0,0.0121
2317.0,0.0123
2316.0,0.0124
2315.0,0.0124
2314.0,0.0122
2313.0,0.0121
2312.0,0.012
2311.0,0.0121
2310.0,0.0121
2309.0,0.0122
2308.0,0.0122
2307.0,0.0123
2306.0,0.0123
2305.0,0.0123
2304.0,0.0122
2303.0,0.0123
2302.0,0.0124
2301.0,0.0125
2300.0,0.0126
2299.0,0.0127
2298.0,0.0128
2297.0,0.0129
2296.0,0.0129
2295.0,0.0129
2294.0,0.013
2293.0,0.013
2292.0,0.0131
2291.0,0.0131
2290.0,0.0132
2289.0,0.0132
2288.0,0.0133
2287.0,0.0133
2286.0,0.0134
2285.0,0.0134
2284.0,0.0134
2283.0,0.0134
2282.0,0.0133
2281.0,0.0133
2280.0,0.0133
2279.0,0.0133
2278.0,0.0133
2277.0,0.0133
2276.0,0.0133
2275.0,0.0134
2274.0,0.0134
2273.0,0.0134
2272.0,0.0134
2271.0,0.0134
2270.0,0.0134
2269.0,0.0135
2268.0,0.0135
2267.0,0.0135
2266.0,0.0135
2265.0,0.0135
2264.0,0.0136
2263.0,0.0136
2262.0,0.0136
2261.0,0.0136
2260.0,0.0136
2259.0,0.0136
2258.0,0.0135
2257.0,0.0135
2256.0,0.0135
2255.0,0.0135
2254.0,0.0135
2253.0,0.0135
2252.0,0.0135
2251.0,0.0135
2250.0,0.0135
2249.0,0.0136
2248.0,0.0136
2247.0,0.0136
2246.0,0.0137
2245.0,0.0137
2244.0,0.0137
2243.0,0.0137
2242.0,0.0137
2241.0,0.0137
2240.0,0.0137
2239.0,0.0137
2238.0,0.0138
2237.0,0.0138
2236.0,0.0138
2235.0,0.0137
2234.0,0.0136
2233.0,0.0136
2232.0,0.0136
2231.0,0.0137
2230.0,0.0137
2229.0,0.0138
2228.0,0.0138
2227.0,0.0138
2226.0,0.0137
2225.0,0.0136
2224.0,0.0136
2223.0,0.0136
2222.0,0.0136
2221.0,0.0136
2220.0,0.0136
2219.0,0.0137
2218.0,0.0137
2217.0,0.0138
2216.0,0.0137
2215.0,0.0137
2214.0,0.0136
2213.0,0.0136
2212.0,0.0136
2211.0,0.0136
2210.0,0.0136
2209.0,0.0136
2208.0,0.0137
2207.0,0.0137
2206.0,0.0137
2205.0,0.0137
2204.0,0.0138
2203.0,0.0138
2202.0,0.0138
2201.0,0.0139
2200.0,0.0139
2199.0,0.0139
2198.0,0.0138
2197.0,0.0137
2196.0,0.0137
2195.0,0.0138
2194.0,0.0138
2193.0,0.0138
2192.0,0.0139
2191.0,0.0139
2190.0,0.0139
2189.0,0.0139
2188.0,0.0138
2187.0,0.0138
2186.0,0.0138
2185.0,0.0139
2184.0,0.0139
2183.0,0.0139
2182.0,0.0139
2181.0,0.0139
2180.0,0.0139
2179.0,0.0139
2178.0,0.0139
2177.0,0.0139
2176.0,0.014
2175.0,0.014
2174.0,0.014
2173.0,0.0141
2172.0,0.0141
2171.0,0.0141
2170.0,0.0141
2169.0,0.014
2168.0,0.014
2167.0,0.0139
2166.0,0.0139
2165.0,0.0139
2164.0,0.0139
2163.0,0.0138
2162.0,0.0138
2161.0,0.0139
2160.0,0.0139
2159.0,0.0139
2158.0,0.0139
2157.0,0.0138
2156.0,0.0138
2155.0,0.0138
2154.0,0.0138
2153.0,0.0139
2152.0,0.0139
2151.0,0.014
2150.0,0.014
2149.0,0.0139
2148.0,0.0139
2147.0,0.0139
2146.0,0.0138
2145.0,0.0138
2144.0,0.0138
2143.0,0.0138
2142.0,0.0139
2141.0,0.0139
2140.0,0.0139
2139.0,0.0139
2138.0,0.014
2137.0,0.014
2136.0,0.0141
2135.0,0.0141
2134.0,0.0141
2133.0,0.0141
2132.0,0.0141
2131.0,0.014
2130.0,0.014
2129.0,0.014
2128.0,0.014
2127.0,0.014
2126.0,0.014
2125.0,0.014
2124.0,0.014
2123.0,0.014
2122.0,0.014
2121.0,0.014
2120.0,0.014
2119.0,0.0139
2118.0,0.0139
2117.0,0.0139
2116.0,0.0139
2115.0,0.0139
2114.0,0.0139
2113.0,0.0139
2112.0,0.0139
2111.0,0.0138
2110.0,0.0138
2109.0,0.0139
2108.0,0.0139
2107.0,0.0139
2106.0,0.0139
2105.0,0.0139
2104.0,0.0139
2103.0,0.0139
2102.0,0.0139
2101.0,0.0139
2100.0,0.0139
2099.0,0.0139
2098.0,0.014
2097.0,0.0141
2096.0,0.0141
2095.0,0.0141
2094.0,0.014
2093.0,0.014
2092.0,0.014
2091.0,0.014
2090.0,0.014
2089.0,0.014
2088.0,0.014
2087.0,0.014
2086.0,0.014
2085.0,0.014
2084.0,0.014
2083.0,0.014
2082.0,0.014
2081.0,0.0141
2080.0,0.0141
2079.0,0.0142
2078.0,0.0142
2077.0,0.0142
2076.0,0.0141
2075.0,0.0141
2074.0,0.014
2073.0,0.014
2072.0,0.014
2071.0,0.014
2070.0,0.014
2069.0,0.014
2068.0,0.014
2067.0,0.014
2066.0,0.014
2065.0,0.014
2064.0,0.0141
2063.0,0.0141
2062.0,0.0141
2061.0,0.014
2060.0,0.014
2059.0,0.014
2058.0,0.014
2057.0,0.0141
2056.0,0.0141
2055.0,0.0141
2054.0,0.0141
2053.0,0.0141
2052.0,0.0141
2051.0,0.0141
2050.0,0.0141
2049.0,0.014
2048.0,0.014
2047.0,0.014
2046.0,0.014
2045.0,0.0141
2044.0,0.0141
2043.0,0.0141
2042.0,0.0141
2041.0,0.0141
2040.0,0.0141
2039.0,0.0141
2038.0,0.0141
2037.0,0.014
2036.0,0.014
2035.0,0.014
2034.0,0.0141
2033.0,0.0141
2032.0,0.0141
2031.0,0.0141
2030.0,0.0141
2029.0,0.0141
2028.0,0.0141
2027.0,0.0142
2026.0,0.0142
2025.0,0.0142
2024.0,0.0143
2023.0,0.0143
2022.0,0.0142
2021.0,0.0141
2020.0,0.0141
2019.0,0.0141
2018.0,0.0142
2017.0,0.0142
2016.0,0.0142
2015.0,0.0141
2014.0,0.0141
2013.0,0.0142
2012.0,0.0142
2011.0,0.0143
2010.0,0.0143
2009.0,0.0143
2008.0,0.0143
2007.0,0.0143
2006.0,0.0143
2005.0,0.0143
2004.0,0.0143
2003.0,0.0143
2002.0,0.0143
2001.0,0.0143
2000.0,0.0143
1999.0,0.0144
1998.0,0.0144
1997.0,0.0145
1996.0,0.0145
1995.0,0.0145
1994.0,0.0144
1993.0,0.0144
1992.0,0.0144
1991.0,0.0144
1990.0,0.0144
1989.0,0.0145
1988.0,0.0145
1987.0,0.0145
1986.0,0.0145
1985.0,0.0145
1984.0,0.0145
1983.0,0.0145
1982.0,0.0145
1981.0,0.0144
1980.0,0.0144
1979.0,0.0144
1978.0,0.0144
1977.0,0.0144
1976.0,0.0144
1975.0,0.0144
1974.0,0.0144
1973.0,0.0145
1972.0,0.0145
1971.0,0.0145
1970.0,0.0145
1969.0,0.0144
1968.0,0.0144
1967.0,0.0144
1966.0,0.0144
1965.0,0.0145
1964.0,0.0145
1963.0,0.0145
1962.0,0.0145
1961.0,0.0145
1960.0,0.0146
1959.0,0.0146
1958.0,0.0146
1957.0,0.0146
1956.0,0.0146
1955.0,0.0145
1954.0,0.0145
1953.0,0.0145
1952.0,0.0146
1951.0,0.0146
1950.0,0.0146
1949.0,0.0147
1948.0,0.0146
1947.0,0.0146
1946.0,0.0147
1945.0,0.0147
1944.0,0.0147
1943.0,0.0147
1942.0,0.0147
1941.0,0.0147
1940.0,0.0148
1939.0,0.0148
1938.0,0.0149
1937.0,0.0149
1936.0,0.0149
1935.0,0.0149
1934.0,0.0149
1933.0,0.0148
1932.0,0.0148
1931.0,0.0148
1930.0,0.0148
1929.0,0.0148
1928.0,0.0148
1927.0,0.0149
1926.0,0.0149
1925.0,0.0149
1924.0,0.0149
1923.0,0.0149
1922.0,0.0149
1921.0,0.0149
1920.0,0.0149
1919.0,0.0149
1918.0,0.0149
1917.0,0.0149
1916.0,0.015
1915.0,0.015
1914.0,0.0151
1913.0,0.015
1912.0,0.015
1911.0,0.0149
1910.0,0.0149
1909.0,0.0149
1908.0,0.0149
1907.0,0.0149
1906.0,0.015
1905.0,0.015
1904.0,0.0151
1903.0,0.0151
1902.0,0.0151
1901.0,0.0151
1900.0,0.0151
1899.0,0.0151
1898.0,0.0151
1897.0,0.0152
1896.0,0.0152
1895.0,0.0153
1894.0,0.0153
1893.0,0.0153
1892.0,0.0153
1891.0,0.0152
1890.0,0.0152
1889.0,0.0152
1888.0,0.0152
1887.0,0.0152
1886.0,0.0152
1885.0,0.0152
1884.0,0.0152
1883.0,0.0152
1882.0,0.0152
1881.0,0.0152
1880.0,0.0152
1879.0,0.0153
1878.0,0.0153
1877.0,0.0153
1876.0,0.0153
1875.0,0.0152
1874.0,0.0152
1873.0,0.0152
1872.0,0.0152
1871.0,0.0152
1870.0,0.0151
1869.0,0.0151
1868.0,0.0152
1867.0,0.0152
1866.0,0.0153
1865.0,0.0153
1864.0,0.0154
1863.0,0.0154
1862.0,0.0154
1861.0,0.0154
1860.0,0.0155
1859.0,0.0155
1858.0,0.0155
1857.0,0.0155
1856.0,0.0155
1855.0,0.0154
1854.0,0.0154
1853.0,0.0153
1852.0,0.0153
1851.0,0.0154
1850.0,0.0154
1849.0,0.0154
1848.0,0.0154
1847.0,0.0155
1846.0,0.0156
1845.0,0.0156
1844.0,0.0156
1843.0,0.0156
1842.0,0.0156
1841.0,0.0156
1840.0,0.0156
1839.0,0.0156
1838.0,0.0156
1837.0,0.0157
1836.0,0.0156
1835.0,0.0156
1834.0,0.0155
1833.0,0.0155
1832.0,0.0155
1831.0,0.0155
1830.0,0.0155
1829.0,0.0155
1828.0,0.0156
1827.0,0.0156
1826.0,0.0156
1825.0,0.0156
1824.0,0.0156
1823.0,0.0157
1822.0,0.0157
1821.0,0.0157
1820.0,0.0157
1819.0,0.0157
1818.0,0.0157
1817.0,0.0157
1816.0,0.0157
1815.0,0.0156
1814.0,0.0156
1813.0,0.0156
1812.0,0.0156
1811.0,0.0156
1810.0,0.0156
1809.0,0.0157
1808.0,0.0157
1807.0,0.0157
1806.0,0.0157
1805.0,0.0157
1804.0,0.0157
1803.0,0.0157
1802.0,0.0157
1801.0,0.0158
1800.0,0.0158
1799.0,0.0158
1798.0,0.0158
1797.0,0.0158
1796.0,0.0158
1795.0,0.0158
1794.0,0.0158
1793.0,0.0158
1792.0,0.0158
1791.0,0.0159
1790.0,0.0159
1789.0,0.016
1788.0,0.016
1787.0,0.0159
1786.0,0.0159
1785.0,0.016
1784.0,0.016
1783.0,0.016
1782.0,0.016
1781.0,0.0161
1780.0,0.0161
1779.0,0.0161
1778.0,0.0161
1777.0,0.0161
1776.0,0.0161
1775.0,0.0161
1774.0,0.0161
1773.0,0.0161
1772.0,0.0161
1771.0,0.0161
1770.0,0.0161
1769.0,0.0162
1768.0,0.0162
1767.0,0.0162
1766.0,0.0162
1765.0,0.0162
1764.0,0.0161
1763.0,0.0161
1762.0,0.0161
1761.0,0.0161
1760.0,0.0162
1759.0,0.0163
1758.0,0.0163
1757.0,0.0164
1756.0,0.0165
1755.0,0.0166
1754.0,0.0166
1753.0,0.0167
1752.0,0.0167
1751.0,0.0168
1750.0,0.0169
1749.0,0.0169
1748.0,0.0169
1747.0,0.0169
1746.0,0.0168
1745.0,0.0168
1744.0,0.0169
1743.0,0.0169
1742.0,0.0169
1741.0,0.017
1740.0,0.017
1739.0,0.017
1738.0,0.017
1737.0,0.0171
1736.0,0.0171
1735.0,0.017
1734.0,0.017
1733.0,0.017
1732.0,0.017
1731.0,0.0171
1730.0,0.0171
1729.0,0.0172
1728.0,0.0172
1727.0,0.0172
1726.0,0.0172
1725.0,0.0172
1724.0,0.0172
1723.0,0.0172
1722.0,0.0172
1721.0,0.0173
1720.0,0.0173
1719.0,0.0174
1718.0,0.0174
1717.0,0.0174
1716.0,0.0174
1715.0,0.0175
1714.0,0.0176
1713.0,0.0176
1712.0,0.0177
1711.0,0.0177
1710.0,0.0177
1709.0,0.0177
1708.0,0.0177
1707.0,0.0177
1706.0,0.0178
1705.0,0.0179
1704.0,0.0181
1703.0,0.0182
1702.0,0.0182
1701.0,0.0183
1700.0,0.0183
1699.0,0.0183
1698.0,0.0184
1697.0,0.0186
1696.0,0.0188
1695.0,0.0187
1694.0,0.0186
1693.0,0.0187
1692.0,0.0187
1691.0,0.0187
1690.0,0.0187
1689.0,0.0188
1688.0,0.0189
1687.0,0.019
1686.0,0.0189
1685.0,0.0192
1684.0,0.0196
1683.0,0.0197
1682.0,0.0197
1681.0,0.0198
1680.0,0.0198
1679.0,0.0198
1678.0,0.0198
1677.0,0.0199
1676.0,0.0199
1675.0,0.02
1674.0,0.02
1673.0,0.02
1672.0,0.02
1671.0,0.0201
1670.0,0.0202
1669.0,0.0204
1668.0,0.0205
1667.0,0.0205
1666.0,0.0205
1665.0,0.0205
1664.0,0.0205
1663.0,0.0206
1662.0,0.0207
1661.0,0.0208
1660.0,0.0208
1659.0,0.0208
1658.0,0.0208
1657.0,0.0209
1656.0,0.021
1655.0,0.0212
1654.0,0.0216
1653.0,0.0218
1652.0,0.0213
1651.0,0.0211
1650.0,0.0211
1649.0,0.0211
1648.0,0.0212
1647.0,0.0215
1646.0,0.0216
1645.0,0.0216
1644.0,0.0216
1643.0,0.0217
1642.0,0.0217
1641.0,0.0217
1640.0,0.0217
1639.0,0.0216
1638.0,0.0216
1637.0,0.0215
1636.0,0.0216
1635.0,0.0214
1634.0,0.0212
1633.0,0.021
1632.0,0.0209
1631.0,0.0208
1630.0,0.0208
1629.0,0.0207
1628.0,0.0206
1627.0,0.0205
1626.0,0.0204
1625.0,0.0203
1624.0,0.0203
1623.0,0.0203
1622.0,0.0203
1621.0,0.0203
1620.0,0.0203
1619.0,0.0202
1618.0,0.0201
1617.0,0.0201
1616.0,0.02
1615.0,0.02
1614.0,0.02
1613.0,0.02
1612.0,0.02
1611.0,0.0199
1610.0,0.0198
1609.0,0.0198
1608.0,0.0198
1607.0,0.0198
1606.0,0.0198
1605.0,0.0197
1604.0,0.0197
1603.0,0.0197
1602.0,0.0196
1601.0,0.0196
1600.0,0.0195
1599.0,0.0195
1598.0,0.0194
1597.0,0.0194
1596.0,0.0193
1595.0,0.0193
1594.0,0.0193
1593.0,0.0194
1592.0,0.0194
1591.0,0.0194
1590.0,0.0194
1589.0,0.0194
1588.0,0.0194
1587.0,0.0193
1586.0,0.0193
1585.0,0.0192
1584.0,0.0192
1583.0,0.0191
1582.0,0.0191
1581.0,0.019
1580.0,0.0191
1579.0,0.019
1578.0,0.019
1577.0,0.0189
1576.0,0.0189
1575.0,0.0189
1574.0,0.0189
1573.0,0.0189
1572.0,0.0189
1571.0,0.0188
1570.0,0.0188
1569.0,0.0189
1568.0,0.0189
1567.0,0.0188
1566.0,0.0188
1565.0,0.0188
1564.0,0.0189
1563.0,0.0189
1562.0,0.0188
1561.0,0.0186
1560.0,0.0185
1559.0,0.0186
1558.0,0.0185
1557.0,0.0185
1556.0,0.0186
1555.0,0.0187
1554.0,0.0186
1553.0,0.0185
1552.0,0.0185
1551.0,0.0185
1550.0,0.0184
1549.0,0.0185
1548.0,0.0185
1547.0,0.0185
1546.0,0.0185
1545.0,0.0185
1544.0,0.0186
1543.0,0.0187
1542.0,0.0188
1541.0,0.0191
1540.0,0.0193
1539.0,0.0189
1538.0,0.0185
1537.0,0.0184
1536.0,0.0184
1535.0,0.0183
1534.0,0.0182
1533.0,0.0183
1532.0,0.0183
1531.0,0.0182
1530.0,0.0181
1529.0,0.0181
1528.0,0.0181
1527.0,0.018
1526.0,0.0179
1525.0,0.0178
1524.0,0.0178
1523.0,0.0178
1522.0,0.0179
1521.0,0.0181
1520.0,0.0182
1519.0,0.0182
1518.0,0.0182
1517.0,0.0183
1516.0,0.0183
1515.0,0.0181
1514.0,0.018
1513.0,0.0179
1512.0,0.0179
1511.0,0.0179
1510.0,0.0179
1509.0,0.0179
1508.0,0.0182
1507.0,0.0184
1506.0,0.0182
1505.0,0.018
1504.0,0.018
1503.0,0.018
1502.0,0.018
1501.0,0.0181
1500.0,0.0181
1499.0,0.0181
1498.0,0.0181
1497.0,0.0182
1496.0,0.0183
1495.0,0.0184
1494.0,0.0184
1493.0,0.0185
1492.0,0.0185
1491.0,0.0184
1490.0,0.0184
1489.0,0.0186
1488.0,0.0189
1487.0,0.019
1486.0,0.0191
1485.0,0.0193
1484.0,0.0196
1483.0,0.0199
1482.0,0.0203
1481.0,0.0208
1480.0,0.0213
1479.0,0.0218
1478.0,0.0224
1477.0,0.0233
1476.0,0.0245
1475.0,0.0257
1474.0,0.0277
1473.0,0.0313
1472.0,0.0356
1471.0,0.0392
1470.0,0.0425
1469.0,0.0459
1468.0,0.0496
1467.0,0.0539
1466.0,0.0595
1465.0,0.066
1464.0,0.0715
1463.0,0.075
1462.0,0.077
1461.0,0.0785
1460.0,0.0796
1459.0,0.0808
1458.0,0.0829
1457.0,0.0857
1456.0,0.0872
1455.0,0.0873
1454.0,0.0871
1453.0,0.0867
1452.0,0.0859
1451.0,0.0844
1450.0,0.0822
1449.0,0.0787
1448.0,0.0739
1447.0,0.0687
1446.0,0.0639
1445.0,0.0596
1444.0,0.0557
1443.0,0.0524
1442.0,0.0498
1441.0,0.0479
1440.0,0.0467
1439.0,0.046
1438.0,0.0459
1437.0,0.0463
1436.0,0.0461
1435.0,0.0448
1434.0,0.0428
1433.0,0.0404
1432.0,0.0377
1431.0,0.0353
1430.0,0.0334
1429.0,0.0319
1428.0,0.0308
1427.0,0.03
1426.0,0.0294
1425.0,0.0288
1424.0,0.0281
1423.0,0.0277
1422.0,0.0274
1421.0,0.027
1420.0,0.0266
1419.0,0.0264
1418.0,0.0264
1417.0,0.0263
1416.0,0.026
1415.0,0.0259
1414.0,0.0257
1413.0,0.0255
1412.0,0.0252
1411.0,0.0251
1410.0,0.0249
1409.0,0.0247
1408.0,0.0245
1407.0,0.0243
1406.0,0.0242
1405.0,0.0241
1404.0,0.0239
1403.0,0.0238
1402.0,0.0237
1401.0,0.0236
1400.0,0.0234
1399.0,0.0234
1398.0,0.0234
1397.0,0.0233
1396.0,0.0232
1395.0,0.0232
1394.0,0.0233
1393.0,0.0232
1392.0,0.0232
1391.0,0.0233
1390.0,0.0236
1389.0,0.024
1388.0,0.025
1387.0,0.0269
1386.0,0.0294
1385.0,0.0328
1384.0,0.0375
1383.0,0.0444
1382.0,0.0536
1381.0,0.0653
1380.0,0.0796
1379.0,0.0958
1378.0,0.1112
1377.0,0.1222
1376.0,0.1262
1375.0,0.1215
1374.0,0.1096
1373.0,0.0956
1372.0,0.0832
1371.0,0.0728
1370.0,0.0639
1369.0,0.0567
1368.0,0.0515
1367.0,0.0481
1366.0,0.046
1365.0,0.045
1364.0,0.0448
1363.0,0.0455
1362.0,0.0469
1361.0,0.0482
1360.0,0.0492
1359.0,0.0494
1358.0,0.0488
1357.0,0.0473
1356.0,0.0453
1355.0,0.043
1354.0,0.0408
1353.0,0.039
1352.0,0.0375
1351.0,0.0362
1350.0,0.0351
1349.0,0.0341
1348.0,0.0333
1347.0,0.0325
1346.0,0.0318
1345.0,0.0313
1344.0,0.0308
1343.0,0.0303
1342.0,0.0299
1341.0,0.0297
1340.0,0.0295
1339.0,0.0294
1338.0,0.0293
1337.0,0.0293
1336.0,0.0293
1335.0,0.0293
1334.0,0.0295
1333.0,0.0297
1332.0,0.0299
1331.0,0.0301
1330.0,0.0302
1329.0,0.0301
1328.0,0.03
1327.0,0.0297
1326.0,0.0294
1325.0,0.0291
1324.0,0.0288
1323.0,0.0285
1322.0,0.0281
1321.0,0.0279
1320.0,0.0277
1319.0,0.0275
1318.0,0.0274
1317.0,0.0272
1316.0,0.027
1315.0,0.0269
1314.0,0.0268
1313.0,0.0267
1312.0,0.0268
1311.0,0.0269
1310.0,0.0271
1309.0,0.0275
1308.0,0.0281
1307.0,0.0289
1306.0,0.0296
1305.0,0.0301
1304.0,0.0302
1303.0,0.03
1302.0,0.0297
1301.0,0.0294
1300.0,0.0292
1299.0,0.0291
1298.0,0.0291
1297.0,0.0291
1296.0,0.0291
1295.0,0.0289
1294.0,0.0287
1293.0,0.0284
1292.0,0.0282
1291.0,0.0279
1290.0,0.0277
1289.0,0.0275
1288.0,0.0273
1287.0,0.0272
1286.0,0.027
1285.0,0.0269
1284.0,0.0267
1283.0,0.0267
1282.0,0.0266
1281.0,0.0265
1280.0,0.0265
1279.0,0.0264
1278.0,0.0264
1277.0,0.0263
1276.0,0.0262
1275.0,0.0262
1274.0,0.0261
1273.0,0.0261
1272.0,0.0261
1271.0,0.0261
1270.0,0.0262
1269.0,0.0263
1268.0,0.0264
1267.0,0.0264
1266.0,0.0264
1265.0,0.0264
1264.0,0.0266
1263.0,0.0268
1262.0,0.027
1261.0,0.0274
1260.0,0.0278
1259.0,0.0284
1258.0,0.029
1257.0,0.0296
1256.0,0.03
1255.0,0.0301
1254.0,0.0299
1253.0,0.0294
1252.0,0.0288
1251.0,0.0282
1250.0,0.0278
1249.0,0.0275
1248.0,0.0273
1247.0,0.0272
1246.0,0.0271
1245.0,0.027
1244.0,0.0269
1243.0,0.0268
1242.0,0.0267
1241.0,0.0266
1240.0,0.0265
1239.0,0.0264
1238.0,0.0264
1237.0,0.0264
1236.0,0.0264
1235.0,0.0265
1234.0,0.0265
1233.0,0.0265
1232.0,0.0265
1231.0,0.0265
1230.0,0.0265
1229.0,0.0265
1228.0,0.0266
1227.0,0.0266
1226.0,0.0267
1225.0,0.0268
1224.0,0.027
1223.0,0.0272
1222.0,0.0274
1221.0,0.0275
1220.0,0.0276
1219.0,0.0276
1218.0,0.0276
1217.0,0.0275
1216.0,0.0274
1215.0,0.0273
1214.0,0.0271
1213.0,0.0269
1212.0,0.0268
1211.0,0.0267
1210.0,0.0266
1209.0,0.0265
1208.0,0.0265
1207.0,0.0264
1206.0,0.0264
1205.0,0.0264
1204.0,0.0264
1203.0,0.0264
1202.0,0.0264
1201.0,0.0263
1200.0,0.0263
1199.0,0.0263
1198.0,0.0263
1197.0,0.0263
1196.0,0.0263
1195.0,0.0264
1194.0,0.0264
1193.0,0.0264
1192.0,0.0263
1191.0,0.0263
1190.0,0.0262
1189.0,0.0261
1188.0,0.0261
1187.0,0.0262
1186.0,0.0262
1185.0,0.0262
1184.0,0.0263
1183.0,0.0264
1182.0,0.0265
1181.0,0.0266
1180.0,0.0268
1179.0,0.027
1178.0,0.0274
1177.0,0.028
1176.0,0.0288
1175.0,0.0299
1174.0,0.0314
1173.0,0.0333
1172.0,0.0355
1171.0,0.038
1170.0,0.0404
1169.0,0.0422
1168.0,0.0434
1167.0,0.0436
1166.0,0.0432
1165.0,0.0422
1164.0,0.0411
1163.0,0.0399
1162.0,0.0389
1161.0,0.0382
1160.0,0.0376
1159.0,0.0372
1158.0,0.0368
1157.0,0.0366
1156.0,0.0365
1155.0,0.0364
1154.0,0.0363
1153.0,0.0362
1152.0,0.036
1151.0,0.0356
1150.0,0.0351
1149.0,0.0345
1148.0,0.0338
1147.0,0.0332
1146.0,0.0326
1145.0,0.0321
1144.0,0.0317
1143.0,0.0313
1142.0,0.0309
1141.0,0.0306
1140.0,0.0302
1139.0,0.0299
1138.0,0.0295
1137.0,0.0292
1136.0,0.0289
1135.0,0.0287
1134.0,0.0285
1133.0,0.0284
1132.0,0.0284
1131.0,0.0283
1130.0,0.0283
1129.0,0.0282
1128.0,0.0282
1127.0,0.0281
1126.0,0.028
1125.0,0.028
1124.0,0.028
1123.0,0.028
1122.0,0.028
1121.0,0.028
1120.0,0.028
1119.0,0.028
1118.0,0.028
1117.0,0.0281
1116.0,0.0281
1115.0,0.0281
1114.0,0.0281
1113.0,0.0282
1112.0,0.0282
1111.0,0.0284
1110.0,0.0285
1109.0,0.0288
1108.0,0.0291
1107.0,0.0295
1106.0,0.0299
1105.0,0.0303
1104.0,0.0305
1103.0,0.0306
1102.0,0.0306
1101.0,0.0304
1100.0,0.0302
1099.0,0.03
1098.0,0.0297
1097.0,0.0294
1096.0,0.0291
1095.0,0.0289
1094.0,0.0287
1093.0,0.0285
1092.0,0.0284
1091.0,0.0283
1090.0,0.0283
1089.0,0.0282
1088.0,0.0282
1087.0,0.028
1086.0,0.0279
1085.0,0.0278
1084.0,0.0278
1083.0,0.0278
1082.0,0.0277
1081.0,0.0277
1080.0,0.0277
1079.0,0.0276
1078.0,0.0276
1077.0,0.0275
1076.0,0.0275
1075.0,0.0274
1074.0,0.0274
1073.0,0.0273
1072.0,0.0273
1071.0,0.0273
1070.0,0.0273
1069.0,0.0273
1068.0,0.0272
1067.0,0.0272
1066.0,0.0271
1065.0,0.027
1064.0,0.027
1063.0,0.0269
1062.0,0.0269
1061.0,0.0269
1060.0,0.027
1059.0,0.027
1058.0,0.027
1057.0,0.027
1056.0,0.0271
1055.0,0.0271
1054.0,0.0271
1053.0,0.0272
1052.0,0.0273
1051.0,0.0275
1050.0,0.0277
1049.0,0.028
1048.0,0.0282
1047.0,0.0285
1046.0,0.0286
1045.0,0.0288
1044.0,0.0288
1043.0,0.0287
1042.0,0.0286
1041.0,0.0284
1040.0,0.0282
1039.0,0.028
1038.0,0.0278
1037.0,0.0277
1036.0,0.0276
1035.0,0.0275
1034.0,0.0274
1033.0,0.0274
1032.0,0.0274
1031.0,0.0274
1030.0,0.0275
1029.0,0.0274
1028.0,0.0274
1027.0,0.0274
1026.0,0.0274
1025.0,0.0274
1024.0,0.0274
1023.0,0.0274
1022.0,0.0275
1021.0,0.0275
1020.0,0.0275
1019.0,0.0275
1018.0,0.0275
1017.0,0.0276
1016.0,0.0277
1015.0,0.0279
1014.0,0.028
1013.0,0.0282
1012.0,0.0283
1011.0,0.0285
1010.0,0.0287
1009.0,0.029
1008.0,0.0293
1007.0,0.0298
1006.0,0.0304
1005.0,0.0312
1004.0,0.0323
1003.0,0.0339
1002.0,0.0362
1001.0,0.0392
1000.0,0.0424
999.0,0.0452
998.0,0.0469
997.0,0.0469
996.0,0.0453
995.0,0.0429
994.0,0.0402
993.0,0.0378
992.0,0.0359
991.0,0.0344
990.0,0.0334
989.0,0.0326
988.0,0.0321
987.0,0.0318
986.0,0.0316
985.0,0.0316
984.0,0.0317
983.0,0.0321
982.0,0.0327
981.0,0.0337
980.0,0.0351
979.0,0.0372
978.0,0.0398
977.0,0.043
976.0,0.0464
975.0,0.0498
974.0,0.0523
973.0,0.0534
972.0,0.0529
971.0,0.0507
970.0,0.0476
969.0,0.0443
968.0,0.0414
967.0,0.0392
966.0,0.0376
965.0,0.0364
964.0,0.0356
963.0,0.0349
962.0,0.0344
961.0,0.034
960.0,0.0336
959.0,0.0333
958.0,0.0328
957.0,0.0324
956.0,0.0322
955.0,0.032
954.0,0.032
953.0,0.032
952.0,0.0319
951.0,0.0319
950.0,0.0319
949.0,0.0319
948.0,0.0319
947.0,0.032
946.0,0.032
945.0,0.0321
944.0,0.0323
943.0,0.0326
942.0,0.0328
941.0,0.033
940.0,0.033
939.0,0.0328
938.0,0.0325
937.0,0.0322
936.0,0.0319
935.0,0.0318
934.0,0.0316
933.0,0.0316
932.0,0.0315
931.0,0.0315
930.0,0.0316
929.0,0.0316
928.0,0.0317
927.0,0.0317
926.0,0.0317
925.0,0.0317
924.0,0.0318
923.0,0.0318
922.0,0.0318
921.0,0.0318
920.0,0.0319
919.0,0.0319
918.0,0.0319
917.0,0.032
916.0,0.032
915.0,0.032
914.0,0.032
913.0,0.0321
912.0,0.0322
911.0,0.0324
910.0,0.0326
909.0,0.0328
908.0,0.0329
907.0,0.0332
906.0,0.0337
905.0,0.0343
904.0,0.0353
903.0,0.0365
902.0,0.038
901.0,0.0394
900.0,0.0403
899.0,0.0407
898.0,0.0405
897.0,0.0397
896.0,0.0387
895.0,0.0377
894.0,0.0369
893.0,0.0363
892.0,0.036
891.0,0.0358
890.0,0.0356
889.0,0.0355
888.0,0.0353
887.0,0.0353
886.0,0.0353
885.0,0.0354
884.0,0.0354
883.0,0.0352
882.0,0.0351
881.0,0.035
880.0,0.035
879.0,0.035
878.0,0.035
877.0,0.0351
876.0,0.0352
875.0,0.0353
874.0,0.0354
873.0,0.0354
872.0,0.0354
871.0,0.0355
870.0,0.0356
869.0,0.0356
868.0,0.0356
867.0,0.0356
866.0,0.0357
865.0,0.0359
864.0,0.0361
863.0,0.0363
862.0,0.0364
861.0,0.0364
860.0,0.0364
859.0,0.0364
858.0,0.0365
857.0,0.0366
856.0,0.0368
855.0,0.0369
854.0,0.0369
853.0,0.0369
852.0,0.0371
851.0,0.0373
850.0,0.0376
849.0,0.038
848.0,0.0386
847.0,0.0394
846.0,0.0408
845.0,0.0429
844.0,0.046
843.0,0.0497
842.0,0.0527
841.0,0.0538
840.0,0.0527
839.0,0.05
838.0,0.047
837.0,0.0446
836.0,0.0431
835.0,0.0422
834.0,0.0416
833.0,0.0412
832.0,0.0409
831.0,0.0406
830.0,0.0403
829.0,0.04
828.0,0.0398
827.0,0.0396
826.0,0.0396
825.0,0.0395
824.0,0.0395
823.0,0.0395
822.0,0.0394
821.0,0.0394
820.0,0.0395
819.0,0.0397
818.0,0.04
817.0,0.0403
816.0,0.0407
815.0,0.0413
814.0,0.0422
813.0,0.0432
812.0,0.0445
811.0,0.0457
810.0,0.0467
809.0,0.0473
808.0,0.0472
807.0,0.0465
806.0,0.0456
805.0,0.0446
804.0,0.0437
803.0,0.043
802.0,0.0424
801.0,0.0419
800.0,0.0416
799.0,0.0413
798.0,0.0412
797.0,0.0411
796.0,0.0411
795.0,0.0411
794.0,0.0411
793.0,0.0411
792.0,0.0409
791.0,0.0407
790.0,0.0406
789.0,0.0405
788.0,0.0405
787.0,0.0405
786.0,0.0405
785.0,0.0405
784.0,0.0404
783.0,0.0403
782.0,0.0401
781.0,0.0398
780.0,0.0397
779.0,0.0396
778.0,0.0396
777.0,0.0396
776.0,0.0397
775.0,0.0398
774.0,0.04
773.0,0.0401
772.0,0.0402
771.0,0.0402
770.0,0.0402
769.0,0.0402
768.0,0.0401
767.0,0.0401
766.0,0.04
765.0,0.04
764.0,0.04
763.0,0.0402
762.0,0.0402
761.0,0.0402
760.0,0.04
759.0,0.0398
758.0,0.0398
757.0,0.0398
756.0,0.04
755.0,0.0401
754.0,0.0403
753.0,0.0406
752.0,0.0409
751.0,0.0411
750.0,0.0412
749.0,0.041
748.0,0.0408
747.0,0.0407
746.0,0.0408
745.0,0.041
744.0,0.0411
743.0,0.0411
742.0,0.0411
741.0,0.0412
740.0,0.0412
739.0,0.0412
738.0,0.041
737.0,0.0409
736.0,0.041
735.0,0.0412
734.0,0.0414
733.0,0.0415
732.0,0.0414
731.0,0.0414
730.0,0.0415
729.0,0.0416
728.0,0.0417
727.0,0.0416
726.0,0.0415
725.0,0.0415
724.0,0.0419
723.0,0.0422
722.0,0.0425
721.0,0.0426
720.0,0.0427
719.0,0.0428
718.0,0.0427
717.0,0.0426
716.0,0.0425
715.0,0.0425
714.0,0.0427
713.0,0.0427
712.0,0.0427
711.0,0.0426
710.0,0.0424
709.0,0.0423
708.0,0.0424
707.0,0.0425
706.0,0.0427
705.0,0.0428
704.0,0.0429
703.0,0.0429
702.0,0.0427
701.0,0.0425
700.0,0.0424
699.0,0.0426
698.0,0.0432
697.0,0.0438
696.0,0.044
695.0,0.0439
694.0,0.0434
693.0,0.0429
692.0,0.0427
691.0,0.0428
690.0,0.0432
689.0,0.0437
688.0,0.0442
687.0,0.0447
686.0,0.0448
685.0,0.0447
684.0,0.0444
683.0,0.044
682.0,0.0434
681.0,0.0428
680.0,0.0421
679.0,0.0416
678.0,0.0414
677.0,0.0415
676.0,0.0419
675.0,0.0424
674.0,0.0429
673.0,0.0434
672.0,0.0439
671.0,0.044
670.0,0.0433
669.0,0.0427
668.0,0.043
667.0,0.0433
666.0,0.0433
665.0,0.0429
664.0,0.0425
663.0,0.0424
662.0,0.0425
661.0,0.0423
660.0,0.0419
659.0,0.0416
658.0,0.0418
657.0,0.0423
656.0,0.0431
655.0,0.0437
654.0,0.0439
653.0,0.0438
652.0,0.0435
651.0,0.0431
650.0,0.0427
649.0,0.0424
648.0,0.0424
647.0,0.0426
646.0,0.0427
645.0,0.0429
644.0,0.043
643.0,0.043
642.0,0.0429
641.0,0.0431
640.0,0.0437
639.0,0.0446
638.0,0.0456
637.0,0.0463
636.0,0.047
635.0,0.0476
634.0,0.0479
633.0,0.0478
632.0,0.0471
631.0,0.046
630.0,0.045
629.0,0.0447
628.0,0.0451
627.0,0.0455
626.0,0.0452
625.0,0.0442
624.0,0.0432
623.0,0.0429
622.0,0.0432
621.0,0.0437
620.0,0.0441
619.0,0.0444
618.0,0.0447
617.0,0.0451
616.0,0.0457
615.0,0.0462
614.0,0.0464
613.0,0.0466
612.0,0.0471
611.0,0.0474
610.0,0.0471
609.0,0.0463
608.0,0.0456
607.0,0.0454
606.0,0.0455
605.0,0.0456
604.0,0.0456
603.0,0.045
602.0,0.0439
601.0,0.0432
600.0,0.0441
