cm-1,A
4000.0,0.0079
3999.0,0.0079
3998.0,0.0079
3997.0,0.0078
3996.0,0.0078
3995.0,0.0078
3994.0,0.0078
3993.0,0.0079
3992.0,0.0079
3991.0,0.008
3990.0,0.008
3989.0,0.0079
3988.0,0.0078
3987.0,0.0078
3986.0,0.0077
3985.0,0.0077
3984.0,0.0076
3983.0,0.0076
3982.0,0.0076
3981.0,0.0076
3980.0,0.0076
3979.0,0.0077
3978.0,0.0077
3977.0,0.0078
3976.0,0.0078
3975.0,0.0079
3974.0,0.008
3973.0,0.0081
3972.0,0.0081
3971.0,0.008
3970.0,0.0079
3969.0,0.0079
3968.0,0.008
3967.0,0.008
3966.0,0.0081
3965.0,0.0081
3964.0,0.0081
3963.0,0.008
3962.0,0.008
3961.0,0.0079
3960.0,0.0079
3959.0,0.0078
3958.0,0.0078
3957.0,0.0078
3956.0,0.0079
3955.0,0.0079
3954.0,0.0078
3953.0,0.0078
3952.0,0.0078
3951.0,0.0078
3950.0,0.0078
3949.0,0.0079
3948.0,0.0079
3947.0,0.0079
3946.0,0.0079
3945.0,0.008
3944.0,0.008
3943.0,0.0081
3942.0,0.0081
3941.0,0.0081
3940.0,0.0081
3939.0,0.008
3938.0,0.008
3937.0,0.008
3936.0,0.008
3935.0,0.0081
3934.0,0.0081
3933.0,0.0082
3932.0,0.0083
3931.0,0.0083
3930.0,0.0083
3929.0,0.0083
3928.0,0.0083
3927.0,0.0083
3926.0,0.0082
3925.0,0.0081
3924.0,0.008
3923.0,0.008
3922.0,0.008
3921.0,0.0081
3920.0,0.0082
3919.0,0.0082
3918.0,0.0083
3917.0,0.0082
3916.0,0.0082
3915.0,0.0081
3914.0,0.008
3913.0,0.008
3912.0,0.008
3911.0,0.0082
3910.0,0.0084
3909.0,0.0085
3908.0,0.0085
3907.0,0.0084
3906.0,0.0083
3905.0,0.0083
3904.0,0.0084
3903.0,0.0085
3902.0,0.0085
3901.0,0.0084
3900.0,0.0082
3899.0,0.0082
3898.0,0.0082
3897.0,0.0083
3896.0,0.0084
3895.0,0.0085
3894.0,0.0085
3893.0,0.0085
3892.0,0.0085
3891.0,0.0086
3890.0,0.0086
3889.0,0.0087
3888.0,0.0087
3887.0,0.0087
3886.0,0.0086
3885.0,0.0085
3884.0,0.0085
3883.0,0.0085
3882.0,0.0085
3881.0,0.0084
3880.0,0.0084
3879.0,0.0084
3878.0,0.0084
3877.0,0.0084
3876.0,0.0084
3875.0,0.0084
3874.0,0.0085
3873.0,0.0085
3872.0,0.0086
3871.0,0.0086
3870.0,0.0085
3869.0,0.0086
3868.0,0.0087
3867.0,0.0087
3866.0,0.0087
3865.0,0.0086
3864.0,0.0085
3863.0,0.0085
3862.0,0.0084
3861.0,0.0084
3860.0,0.0084
3859.0,0.0084
3858.0,0.0084
3857.0,0.0085
3856.0,0.0086
3855.0,0.0087
3854.0,0.0088
3853.0,0.009
3852.0,0.0089
3851.0,0.0088
3850.0,0.0087
3849.0,0.0086
3848.0,0.0085
3847.0,0.0085
3846.0,0.0085
3845.0,0.0087
3844.0,0.0088
3843.0,0.009
3842.0,0.0091
3841.0,0.0092
3840.0,0.0093
3839.0,0.0092
3838.0,0.0091
3837.0,0.009
3836.0,0.0088
3835.0,0.0086
3834.0,0.0086
3833.0,0.0085
3832.0,0.0086
3831.0,0.0087
3830.0,0.0087
3829.0,0.0087
3828.0,0.0086
3827.0,0.0085
3826.0,0.0084
3825.0,0.0085
3824.0,0.0087
3823.0,0.0088
3822.0,0.0087
3821.0,0.0087
3820.0,0.0086
3819.0,0.0086
3818.0,0.0086
3817.0,0.0085
3816.0,0.0083
3815.0,0.0082
3814.0,0.0082
3813.0,0.0082
3812.0,0.0083
3811.0,0.0084
3810.0,0.0086
3809.0,0.0087
3808.0,0.0086
3807.0,0.0086
3806.0,0.0086
3805.0,0.0087
3804.0,0.0088
3803.0,0.0089
3802.0,0.0088
3801.0,0.0087
3800.0,0.0086
3799.0,0.0085
3798.0,0.0085
3797.0,0.0085
3796.0,0.0085
3795.0,0.0086
3794.0,0.0086
3793.0,0.0086
3792.0,0.0086
3791.0,0.0086
3790.0,0.0087
3789.0,0.0087
3788.0,0.0087
3787.0,0.0087
3786.0,0.0087
3785.0,0.0086
3784.0,0.0087
3783.0,0.0087
3782.0,0.0087
3781.0,0.0087
3780.0,0.0088
3779.0,0.0088
3778.0,0.0089
3777.0,0.0089
3776.0,0.0089
3775.0,0.0088
3774.0,0.0087
3773.0,0.0087
3772.0,0.0088
3771.0,0.0088
3770.0,0.0089
3769.0,0.0089
3768.0,0.0089
3767.0,0.0088
3766.0,0.0087
3765.0,0.0087
3764.0,0.0087
3763.0,0.0088
3762.0,0.0088
3761.0,0.0087
3760.0,0.0086
3759.0,0.0087
3758.0,0.0088
3757.0,0.0089
3756.0,0.009
3755.0,0.009
3754.0,0.009
3753.0,0.0088
3752.0,0.0087
3751.0,0.0086
3750.0,0.0086
3749.0,0.0086
3748.0,0.0087
3747.0,0.0089
3746.0,0.009
3745.0,0.0091
3744.0,0.0093
3743.0,0.0094
3742.0,0.0094
3741.0,0.0094
3740.0,0.0093
3739.0,0.0092
3738.0,0.0092
3737.0,0.0092
3736.0,0.0093
3735.0,0.0094
3734.0,0.0094
3733.0,0.0093
3732.0,0.0091
3731.0,0.009
3730.0,0.009
3729.0,0.009
3728.0,0.0091
3727.0,0.0092
3726.0,0.0094
3725.0,0.0095
3724.0,0.0095
3723.0,0.0094
3722.0,0.0093
3721.0,0.0093
3720.0,0.0092
3719.0,0.0092
3718.0,0.0091
3717.0,0.009
3716.0,0.0089
3715.0,0.0088
3714.0,0.0088
3713.0,0.0089
3712.0,0.0091
3711.0,0.0092
3710.0,0.0093
3709.0,0.0093
3708.0,0.0092
3707.0,0.0093
3706.0,0.0093
3705.0,0.0094
3704.0,0.0094
3703.0,0.0093
3702.0,0.0092
3701.0,0.0091
3700.0,0.0091
3699.0,0.0091
3698.0,0.0091
3697.0,0.0091
3696.0,0.0092
3695.0,0.0093
3694.0,0.0093
3693.0,0.0093
3692.0,0.0092
3691.0,0.0092
3690.0,0.0092
3689.0,0.0091
3688.0,0.009
3687.0,0.009
3686.0,0.0089
3685.0,0.009
3684.0,0.009
3683.0,0.009
3682.0,0.009
3681.0,0.0089
3680.0,0.009
3679.0,0.009
3678.0,0.0091
3677.0,0.0092
3676.0,0.0092
3675.0,0.0093
3674.0,0.0094
3673.0,0.0094
3672.0,0.0094
3671.0,0.0093
3670.0,0.0093
3669.0,0.0093
3668.0,0.0092
3667.0,0.0091
3666.0,0.0091
3665.0,0.009
3664.0,0.009
3663.0,0.009
3662.0,0.0091
3661.0,0.009
3660.0,0.009
3659.0,0.009
3658.0,0.0091
3657.0,0.0092
3656.0,0.0094
3655.0,0.0095
3654.0,0.0096
3653.0,0.0096
3652.0,0.0095
3651.0,0.0093
3650.0,0.0092
3649.0,0.0093
3648.0,0.0094
3647.0,0.0094
3646.0,0.0094
3645.0,0.0094
3644.0,0.0094
3643.0,0.0095
3642.0,0.0095
3641.0,0.0095
3640.0,0.0095
3639.0,0.0095
3638.0,0.0095
3637.0,0.0096
3636.0,0.0097
3635.0,0.0099
3634.0,0.01
3633.0,0.0102
3632.0,0.0102
3631.0,0.0102
3630.0,0.0101
3629.0,0.0102
3628.0,0.0104
3627.0,0.0105
3626.0,0.0105
3625.0,0.0105
3624.0,0.0105
3623.0,0.0105
3622.0,0.0106
3621.0,0.0106
3620.0,0.0106
3619.0,0.0105
3618.0,0.0105
3617.0,0.0105
3616.0,0.0105
3615.0,0.0105
3614.0,0.0106
3613.0,0.0108
3612.0,0.0109
3611.0,0.011
3610.0,0.011
3609.0,0.0109
3608.0,0.0108
3607.0,0.0108
3606.0,0.0109
3605.0,0.0109
3604.0,0.011
3603.0,0.011
3602.0,0.011
3601.0,0.011
3600.0,0.011
3599.0,0.0111
3598.0,0.0112
3597.0,0.0112
3596.0,0.0111
3595.0,0.011
3594.0,0.011
3593.0,0.011
3592.0,0.011
3591.0,0.0111
3590.0,0.0111
3589.0,0.011
3588.0,0.0109
3587.0,0.0109
3586.0,0.0109
3585.0,0.0108
3584.0,0.0108
3583.0,0.0107
3582.0,0.0106
3581.0,0.0106
3580.0,0.0105
3579.0,0.0105
3578.0,0.0105
3577.0,0.0105
3576.0,0.0106
3575.0,0.0106
3574.0,0.0107
3573.0,0.0108
3572.0,0.0109
3571.0,0.011
3570.0,0.011
3569.0,0.011
3568.0,0.011
3567.0,0.011
3566.0,0.0111
3565.0,0.011
3564.0,0.0109
3563.0,0.0109
3562.0,0.0108
3561.0,0.0109
3560.0,0.0109
3559.0,0.011
3558.0,0.011
3557.0,0.0111
3556.0,0.011
3555.0,0.011
3554.0,0.0109
3553.0,0.0108
3552.0,0.0108
3551.0,0.0107
3550.0,0.0107
3549.0,0.0107
3548.0,0.0107
3547.0,0.0108
3546.0,0.0109
3545.0,0.011
3544.0,0.011
3543.0,0.011
3542.0,0.0109
3541.0,0.0108
3540.0,0.0108
3539.0,0.0108
3538.0,0.0108
3537.0,0.0108
3536.0,0.0109
3535.0,0.0109
3534.0,0.0109
3533.0,0.0108
3532.0,0.0108
3531.0,0.0108
3530.0,0.0109
3529.0,0.0109
3528.0,0.0109
3527.0,0.0109
3526.0,0.0109
3525.0,0.0109
3524.0,0.0108
3523.0,0.0107
3522.0,0.0107
3521.0,0.0107
3520.0,0.0107
3519.0,0.0106
3518.0,0.0106
3517.0,0.0106
3516.0,0.0106
3515.0,0.0106
3514.0,0.0106
3513.0,0.0106
3512.0,0.0106
3511.0,0.0107
3510.0,0.0107
3509.0,0.0107
3508.0,0.0107
3507.0,0.0107
3506.0,0.0108
3505.0,0.0109
3504.0,0.0109
3503.0,0.0109
3502.0,0.0108
3501.0,0.0107
3500.0,0.0106
3499.0,0.0106
3498.0,0.0105
3497.0,0.0104
3496.0,0.0104
3495.0,0.0104
3494.0,0.0105
3493.0,0.0106
3492.0,0.0106
3491.0,0.0105
3490.0,0.0105
3489.0,0.0105
3488.0,0.0105
3487.0,0.0106
3486.0,0.0106
3485.0,0.0105
3484.0,0.0105
3483.0,0.0106
3482.0,0.0106
3481.0,0.0106
3480.0,0.0106
3479.0,0.0105
3478.0,0.0104
3477.0,0.0103
3476.0,0.0102
3475.0,0.0102
3474.0,0.0102
3473.0,0.0103
3472.0,0.0103
3471.0,0.0103
3470.0,0.0103
3469.0,0.0103
3468.0,0.0103
3467.0,0.0103
3466.0,0.0103
3465.0,0.0102
3464.0,0.0102
3463.0,0.0103
3462.0,0.0103
3461.0,0.0104
3460.0,0.0104
3459.0,0.0104
3458.0,0.0104
3457.0,0.0104
3456.0,0.0104
3455.0,0.0104
3454.0,0.0103
3453.0,0.0103
3452.0,0.0104
3451.0,0.0104
3450.0,0.0105
3449.0,0.0105
3448.0,0.0106
3447.0,0.0106
3446.0,0.0106
3445.0,0.0105
3444.0,0.0105
3443.0,0.0104
3442.0,0.0104
3441.0,0.0103
3440.0,0.0103
3439.0,0.0103
3438.0,0.0103
3437.0,0.0104
3436.0,0.0105
3435.0,0.0106
3434.0,0.0106
3433.0,0.0106
3432.0,0.0106
3431.0,0.0105
3430.0,0.0105
3429.0,0.0104
3428.0,0.0104
3427.0,0.0104
3426.0,0.0104
3425.0,0.0104
3424.0,0.0103
3423.0,0.0103
3422.0,0.0103
3421.0,0.0103
3420.0,0.0103
3419.0,0.0103
3418.0,0.0103
3417.0,0.0102
3416.0,0.0102
3415.0,0.0102
3414.0,0.0103
3413.0,0.0103
3412.0,0.0103
3411.0,0.0102
3410.0,0.0102
3409.0,0.0102
3408.0,0.0102
3407.0,0.0101
3406.0,0.0101
3405.0,0.0101
3404.0,0.0101
3403.0,0.0101
3402.0,0.0101
3401.0,0.0101
3400.0,0.0101
3399.0,0.0101
3398.0,0.0101
3397.0,0.0101
3396.0,0.0101
3395.0,0.0101
3394.0,0.0101
3393.0,0.0101
3392.0,0.01
3391.0,0.0099
3390.0,0.0099
3389.0,0.01
3388.0,0.01
3387.0,0.0101
3386.0,0.0101
3385.0,0.0102
3384.0,0.0102
3383.0,0.0101
3382.0,0.01
3381.0,0.01
3380.0,0.01
3379.0,0.0101
3378.0,0.0101
3377.0,0.0102
3376.0,0.0101
3375.0,0.0101
3374.0,0.0101
3373.0,0.01
3372.0,0.01
3371.0,0.01
3370.0,0.0099
3369.0,0.0099
3368.0,0.0099
3367.0,0.0099
3366.0,0.0099
3365.0,0.01
3364.0,0.0101
3363.0,0.0101
3362.0,0.01
3361.0,0.01
3360.0,0.0099
3359.0,0.0099
3358.0,0.0098
3357.0,0.0098
3356.0,0.0098
3355.0,0.0098
3354.0,0.0098
3353.0,0.0098
3352.0,0.0099
3351.0,0.0099
3350.0,0.0099
3349.0,0.0099
3348.0,0.0099
3347.0,0.0098
3346.0,0.0097
3345.0,0.0095
3344.0,0.0095
3343.0,0.0096
3342.0,0.0097
3341.0,0.0098
3340.0,0.0098
3339.0,0.0097
3338.0,0.0098
3337.0,0.0099
3336.0,0.0101
3335.0,0.0102
3334.0,0.0103
3333.0,0.0102
3332.0,0.0101
3331.0,0.01
3330.0,0.0099
3329.0,0.0098
3328.0,0.0097
3327.0,0.0096
3326.0,0.0095
3325.0,0.0095
3324.0,0.0096
3323.0,0.0096
3322.0,0.0096
3321.0,0.0096
3320.0,0.0095
3319.0,0.0095
3318.0,0.0095
3317.0,0.0096
3316.0,0.0097
3315.0,0.0097
3314.0,0.0096
3313.0,0.0095
3312.0,0.0094
3311.0,0.0095
3310.0,0.0095
3309.0,0.0096
3308.0,0.0096
3307.0,0.0095
3306.0,0.0095
3305.0,0.0095
3304.0,0.0094
3303.0,0.0094
3302.0,0.0093
3301.0,0.0093
3300.0,0.0092
3299.0,0.0092
3298.0,0.0093
3297.0,0.0093
3296.0,0.0094
3295.0,0.0094
3294.0,0.0094
3293.0,0.0094
3292.0,0.0094
3291.0,0.0094
3290.0,0.0094
3289.0,0.0094
3288.0,0.0094
3287.0,0.0093
3286.0,0.0094
3285.0,0.0094
3284.0,0.0093
3283.0,0.0092
3282.0,0.0091
3281.0,0.0091
3280.0,0.0091
3279.0,0.0091
3278.0,0.0091
3277.0,0.0091
3276.0,0.0091
3275.0,0.0091
3274.0,0.0092
3273.0,0.0092
3272.0,0.0092
3271.0,0.0091
3270.0,0.0091
3269.0,0.009
3268.0,0.009
3267.0,0.0089
3266.0,0.0089
3265.0,0.0089
3264.0,0.009
3263.0,0.0091
3262.0,0.0091
3261.0,0.0092
3260.0,0.0091
3259.0,0.0091
3258.0,0.0091
3257.0,0.009
3256.0,0.009
3255.0,0.0089
3254.0,0.0089
3253.0,0.0088
3252.0,0.0088
3251.0,0.0088
3250.0,0.0087
3249.0,0.0087
3248.0,0.0087
3247.0,0.0086
3246.0,0.0086
3245.0,0.0085
3244.0,0.0084
3243.0,0.0084
3242.0,0.0085
3241.0,0.0085
3240.0,0.0086
3239.0,0.0086
3238.0,0.0085
3237.0,0.0086
3236.0,0.0086
3235.0,0.0085
3234.0,0.0084
3233.0,0.0084
3232.0,0.0083
3231.0,0.0083
3230.0,0.0082
3229.0,0.0082
3228.0,0.0082
3227.0,0.0083
3226.0,0.0084
3225.0,0.0085
3224.0,0.0086
3223.0,0.0086
3222.0,0.0085
3221.0,0.0084
3220.0,0.0083
3219.0,0.0082
3218.0,0.0082
3217.0,0.0082
3216.0,0.0082
3215.0,0.0082
3214.0,0.0082
3213.0,0.0083
3212.0,0.0084
3211.0,0.0084
3210.0,0.0084
3209.0,0.0083
3208.0,0.0082
3207.0,0.0081
3206.0,0.008
3205.0,0.008
3204.0,0.008
3203.0,0.008
3202.0,0.0081
3201.0,0.008
3200.0,0.008
3199.0,0.0079
3198.0,0.0079
3197.0,0.0079
3196.0,0.008
3195.0,0.0079
3194.0,0.008
3193.0,0.008
3192.0,0.008
3191.0,0.0081
3190.0,0.0081
3189.0,0.0081
3188.0,0.0081
3187.0,0.008
3186.0,0.0079
3185.0,0.0078
3184.0,0.0078
3183.0,0.0077
3182.0,0.0076
3181.0,0.0076
3180.0,0.0076
3179.0,0.0076
3178.0,0.0076
3177.0,0.0076
3176.0,0.0075
3175.0,0.0074
3174.0,0.0074
3173.0,0.0074
3172.0,0.0074
3171.0,0.0074
3170.0,0.0075
3169.0,0.0075
3168.0,0.0075
3167.0,0.0075
3166.0,0.0074
3165.0,0.0074
3164.0,0.0073
3163.0,0.0073
3162.0,0.0073
3161.0,0.0073
3160.0,0.0073
3159.0,0.0073
3158.0,0.0073
3157.0,0.0072
3156.0,0.0071
3155.0,0.007
3154.0,0.007
3153.0,0.0071
3152.0,0.0071
3151.0,0.0071
3150.0,0.007
3149.0,0.007
3148.0,0.0069
3147.0,0.0069
3146.0,0.0069
3145.0,0.0068
3144.0,0.0068
3143.0,0.0067
3142.0,0.0067
3141.0,0.0067
3140.0,0.0067
3139.0,0.0067
3138.0,0.0067
3137.0,0.0067
3136.0,0.0066
3135.0,0.0065
3134.0,0.0065
3133.0,0.0065
3132.0,0.0065
3131.0,0.0065
3130.0,0.0065
3129.0,0.0065
3128.0,0.0065
3127.0,0.0064
3126.0,0.0064
3125.0,0.0063
3124.0,0.0063
3123.0,0.0062
3122.0,0.0061
3121.0,0.0061
3120.0,0.0061
3119.0,0.0062
3118.0,0.0062
3117.0,0.0062
3116.0,0.0062
3115.0,0.0061
3114.0,0.0061
3113.0,0.0061
3112.0,0.0061
3111.0,0.006
3110.0,0.0059
3109.0,0.0058
3108.0,0.0058
3107.0,0.0058
3106.0,0.0058
3105.0,0.0059
3104.0,0.0059
3103.0,0.0059
3102.0,0.0058
3101.0,0.0058
3100.0,0.0057
3099.0,0.0057
3098.0,0.0057
3097.0,0.0057
3096.0,0.0057
3095.0,0.0057
3094.0,0.0057
3093.0,0.0057
3092.0,0.0056
3091.0,0.0056
3090.0,0.0055
3089.0,0.0056
3088.0,0.0056
3087.0,0.0057
3086.0,0.0056
3085.0,0.0056
3084.0,0.0055
3083.0,0.0055
3082.0,0.0055
3081.0,0.0055
3080.0,0.0054
3079.0,0.0053
3078.0,0.0053
3077.0,0.0053
3076.0,0.0053
3075.0,0.0053
3074.0,0.0053
3073.0,0.0053
3072.0,0.0053
3071.0,0.0053
3070.0,0.0053
3069.0,0.0053
3068.0,0.0053
3067.0,0.0053
3066.0,0.0052
3065.0,0.0052
3064.0,0.0051
3063.0,0.005
3062.0,0.005
3061.0,0.005
3060.0,0.005
3059.0,0.0049
3058.0,0.0047
3057.0,0.0045
3056.0,0.0044
3055.0,0.0044
3054.0,0.0044
3053.0,0.0044
3052.0,0.0044
3051.0,0.0043
3050.0,0.0043
3049.0,0.0043
3048.0,0.0043
3047.0,0.0043
3046.0,0.0043
3045.0,0.0043
3044.0,0.0042
3043.0,0.0042
3042.0,0.0042
3041.0,0.0041
3040.0,0.0041
3039.0,0.004
3038.0,0.004
3037.0,0.0039
3036.0,0.0038
3035.0,0.0037
3034.0,0.0037
3033.0,0.0036
3032.0,0.0036
3031.0,0.0036
3030.0,0.0036
3029.0,0.0036
3028.0,0.0035
3027.0,0.0035
3026.0,0.0034
3025.0,0.0032
3024.0,0.0031
3023.0,0.0031
3022.0,0.003
3021.0,0.003
3020.0,0.003
3019.0,0.003
3018.0,0.003
3017.0,0.0031
3016.0,0.003
3015.0,0.0029
3014.0,0.0027
3013.0,0.0026
3012.0,0.0024
3011.0,0.0024
3010.0,0.0023
3009.0,0.0022
3008.0,0.0021
3007.0,0.002
3006.0,0.002
3005.0,0.0019
3004.0,0.0019
3003.0,0.0018
3002.0,0.0016
3001.0,0.0015
3000.0,0.0015
2999.0,0.0014
2998.0,0.0014
2997.0,0.0013
2996.0,0.0012
2995.0,0.0011
2994.0,0.001
2993.0,0.0009
2992.0,0.0009
2991.0,0.0008
2990.0,0.0007
2989.0,0.0007
2988.0,0.0006
2987.0,0.0005
2986.0,0.0005
2985.0,0.0005
2984.0,0.0005
2983.0,0.0004
2982.0,0.0003
2981.0,0.0002
2980.0,0.0
2979.0,-0.0001
2978.0,-0.0001
2977.0,0.0
2976.0,0.0001
2975.0,0.0002
2974.0,0.0002
2973.0,0.0003
2972.0,0.0004
2971.0,0.0005
2970.0,0.0006
2969.0,0.0008
2968.0,0.001
2967.0,0.0011
2966.0,0.0013
2965.0,0.0014
2964.0,0.0016
2963.0,0.0017
2962.0,0.0019
2961.0,0.0022
2960.0,0.0025
2959.0,0.0028
2958.0,0.0031
2957.0,0.0032
2956.0,0.0034
2955.0,0.0036
2954.0,0.0039
2953.0,0.0041
2952.0,0.0044
2951.0,0.0048
2950.0,0.0052
2949.0,0.0057
2948.0,0.0064
2947.0,0.0072
2946.0,0.0082
2945.0,0.0093
2944.0,0.0107
2943.0,0.0122
2942.0,0.0139
2941.0,0.0157
2940.0,0.0178
2939.0,0.02
2938.0,0.0224
2937.0,0.025
2936.0,0.0279
2935.0,0.0311
2934.0,0.0345
2933.0,0.0383
2932.0,0.0423
2931.0,0.0468
2930.0,0.0516
2929.0,0.0568
2928.0,0.0626
2927.0,0.069
2926.0,0.0763
2925.0,0.0845
2924.0,0.0937
2923.0,0.1041
2922.0,0.1156
2921.0,0.1279
2920.0,0.1406
2919.0,0.153
2918.0,0.1641
2917.0,0.1726
2916.0,0.1771
2915.0,0.1771
2914.0,0.1729
2913.0,0.1657
2912.0,0.1569
2911.0,0.1479
2910.0,0.1393
2909.0,0.1315
2908.0,0.1246
2907.0,0.1186
2906.0,0.1136
2905.0,0.1092
2904.0,0.1055
2903.0,0.1023
2902.0,0.0994
2901.0,0.0969
2900.0,0.0945
2899.0,0.0924
2898.0,0.0904
2897.0,0.0885
2896.0,0.0867
2895.0,0.0848
2894.0,0.0829
2893.0,0.081
2892.0,0.079
2891.0,0.077
2890.0,0.075
2889.0,0.073
2888.0,0.071
2887.0,0.069
2886.0,0.0669
2885.0,0.0648
2884.0,0.0627
2883.0,0.0605
2882.0,0.0583
2881.0,0.0561
2880.0,0.0539
2879.0,0.0516
2878.0,0.0495
2877.0,0.0474
2876.0,0.0453
2875.0,0.0434
2874.0,0.0416
2873.0,0.0399
2872.0,0.0384
2871.0,0.037
2870.0,0.0358
2869.0,0.0348
2868.0,0.0339
2867.0,0.0333
2866.0,0.0329
2865.0,0.0329
2864.0,0.0332
2863.0,0.034
2862.0,0.0354
2861.0,0.0376
2860.0,0.0406
2859.0,0.0446
2858.0,0.0498
2857.0,0.0563
2856.0,0.0643
2855.0,0.0742
2854.0,0.0865
2853.0,0.1014
2852.0,0.1186
2851.0,0.1368
2850.0,0.1534
2849.0,0.1653
2848.0,0.1698
2847.0,0.1666
2846.0,0.1576
2845.0,0.1454
2844.0,0.1328
2843.0,0.121
2842.0,0.1105
2841.0,0.1016
2840.0,0.094
2839.0,0.0876
2838.0,0.082
2837.0,0.0772
2836.0,0.0731
2835.0,0.0695
2834.0,0.0664
2833.0,0.0637
2832.0,0.0613
2831.0,0.0591
2830.0,0.0572
2829.0,0.0555
2828.0,0.054
2827.0,0.0526
2826.0,0.0512
2825.0,0.05
2824.0,0.0489
2823.0,0.0479
2822.0,0.0469
2821.0,0.046
2820.0,0.0452
2819.0,0.0443
2818.0,0.0435
2817.0,0.0427
2816.0,0.042
2815.0,0.0414
2814.0,0.0408
2813.0,0.0403
2812.0,0.0398
2811.0,0.0392
2810.0,0.0387
2809.0,0.0382
2808.0,0.0378
2807.0,0.0374
2806.0,0.037
2805.0,0.0366
2804.0,0.0362
2803.0,0.0358
2802.0,0.0355
2801.0,0.0351
2800.0,0.0347
2799.0,0.0343
2798.0,0.034
2797.0,0.0338
2796.0,0.0335
2795.0,0.0332
2794.0,0.0329
2793.0,0.0325
2792.0,0.0322
2791.0,0.0319
2790.0,0.0316
2789.0,0.0313
2788.0,0.031
2787.0,0.0307
2786.0,0.0305
2785.0,0.0302
2784.0,0.03
2783.0,0.0298
2782.0,0.0297
2781.0,0.0295
2780.0,0.0293
2779.0,0.0291
2778.0,0.0289
2777.0,0.0286
2776.0,0.0284
2775.0,0.0282
2774.0,0.028
2773.0,0.0278
2772.0,0.0277
2771.0,0.0275
2770.0,0.0273
2769.0,0.0272
2768.0,0.0269
2767.0,0.0268
2766.0,0.0266
2765.0,0.0265
2764.0,0.0264
2763.0,0.0263
2762.0,0.0262
2761.0,0.0261
2760.0,0.0259
2759.0,0.0257
2758.0,0.0256
2757.0,0.0254
2756.0,0.0254
2755.0,0.0254
2754.0,0.0253
2753.0,0.0252
2752.0,0.0251
2751.0,0.025
2750.0,0.0249
2749.0,0.0248
2748.0,0.0246
2747.0,0.0245
2746.0,0.0244
2745.0,0.0244
2744.0,0.0243
2743.0,0.0243
2742.0,0.0242
2741.0,0.0243
2740.0,0.0243
2739.0,0.0242
2738.0,0.0242
2737.0,0.0241
2736.0,0.024
2735.0,0.0239
2734.0,0.0238
2733.0,0.0237
2732.0,0.0236
2731.0,0.0234
2730.0,0.0233
2729.0,0.0232
2728.0,0.0232
2727.0,0.0232
2726.0,0.0232
2725.0,0.0232
2724.0,0.0232
2723.0,0.0231
2722.0,0.023
2721.0,0.0229
2720.0,0.0228
2719.0,0.0227
2718.0,0.0227
2717.0,0.0226
2716.0,0.0225
2715.0,0.0223
2714.0,0.0222
2713.0,0.0222
2712.0,0.0221
2711.0,0.0221
2710.0,0.0221
2709.0,0.022
2708.0,0.022
2707.0,0.0219
2706.0,0.0218
2705.0,0.0218
2704.0,0.0218
2703.0,0.0217
2702.0,0.0216
2701.0,0.0215
2700.0,0.0214
2699.0,0.0214
2698.0,0.0214
2697.0,0.0214
2696.0,0.0214
2695.0,0.0213
2694.0,0.0212
2693.0,0.0211
2692.0,0.021
2691.0,0.021
2690.0,0.021
2689.0,0.021
2688.0,0.021
2687.0,0.021
2686.0,0.021
2685.0,0.021
2684.0,0.021
2683.0,0.021
2682.0,0.021
2681.0,0.0209
2680.0,0.0209
2679.0,0.0209
2678.0,0.0209
2677.0,0.0209
2676.0,0.0209
2675.0,0.0208
2674.0,0.0208
2673.0,0.0207
2672.0,0.0207
2671.0,0.0207
2670.0,0.0207
2669.0,0.0207
2668.0,0.0207
2667.0,0.0206
2666.0,0.0206
2665.0,0.0206
2664.0,0.0207
2663.0,0.0207
2662.0,0.0207
2661.0,0.0207
2660.0,0.0207
2659.0,0.0207
2658.0,0.0206
2657.0,0.0206
2656.0,0.0206
2655.0,0.0207
2654.0,0.0207
2653.0,0.0207
2652.0,0.0206
2651.0,0.0205
2650.0,0.0204
2649.0,0.0203
2648.0,0.0202
2647.0,0.0201
2646.0,0.0201
2645.0,0.0201
2644.0,0.0202
2643.0,0.0202
2642.0,0.0202
2641.0,0.0202
2640.0,0.0202
2639.0,0.0203
2638.0,0.0203
2637.0,0.0203
2636.0,0.0203
2635.0,0.0203
2634.0,0.0203
2633.0,0.0203
2632.0,0.0203
2631.0,0.0203
2630.0,0.0203
2629.0,0.0202
2628.0,0.0202
2627.0,0.0202
2626.0,0.0202
2625.0,0.0201
2624.0,0.02
2623.0,0.0199
2622.0,0.0198
2621.0,0.0198
2620.0,0.0198
2619.0,0.0197
2618.0,0.0197
2617.0,0.0196
2616.0,0.0196
2615.0,0.0196
2614.0,0.0195
2613.0,0.0194
2612.0,0.0193
2611.0,0.0193
2610.0,0.0193
2609.0,0.0192
2608.0,0.0192
2607.0,0.0192
2606.0,0.0191
2605.0,0.0191
2604.0,0.0191
2603.0,0.019
2602.0,0.0189
2601.0,0.0188
2600.0,0.0188
2599.0,0.0188
2598.0,0.0188
2597.0,0.0188
2596.0,0.0188
2595.0,0.0187
2594.0,0.0187
2593.0,0.0187
2592.0,0.0187
2591.0,0.0186
2590.0,0.0186
2589.0,0.0185
2588.0,0.0185
2587.0,0.0184
2586.0,0.0184
2585.0,0.0183
2584.0,0.0184
2583.0,0.0184
2582.0,0.0185
2581.0,0.0184
2580.0,0.0183
2579.0,0.0182
2578.0,0.0181
2577.0,0.018
2576.0,0.018
2575.0,0.018
2574.0,0.018
2573.0,0.0179
2572.0,0.0178
2571.0,0.0178
2570.0,0.0178
2569.0,0.0177
2568.0,0.0177
2567.0,0.0177
2566.0,0.0177
2565.0,0.0178
2564.0,0.0178
2563.0,0.0179
2562.0,0.0179
2561.0,0.0178
2560.0,0.0178
2559.0,0.0178
2558.0,0.0177
2557.0,0.0177
2556.0,0.0177
2555.0,0.0176
2554.0,0.0176
2553.0,0.0176
2552.0,0.0176
2551.0,0.0176
2550.0,0.0176
2549.0,0.0176
2548.0,0.0175
2547.0,0.0175
2546.0,0.0174
2545.0,0.0175
2544.0,0.0175
2543.0,0.0175
2542.0,0.0174
2541.0,0.0173
2540.0,0.0173
2539.0,0.0173
2538.0,0.0173
2537.0,0.0172
2536.0,0.0172
2535.0,0.0171
2534.0,0.017
2533.0,0.017
2532.0,0.0171
2531.0,0.0172
2530.0,0.0172
2529.0,0.0171
2528.0,0.017
2527.0,0.017
2526.0,0.017
2525.0,0.017
2524.0,0.017
2523.0,0.017
2522.0,0.0169
2521.0,0.0168
2520.0,0.0168
2519.0,0.0168
2518.0,0.0168
2517.0,0.0168
2516.0,0.0169
2515.0,0.0168
2514.0,0.0168
2513.0,0.0167
2512.0,0.0166
2511.0,0.0165
2510.0,0.0165
2509.0,0.0164
2508.0,0.0164
2507.0,0.0165
2506.0,0.0166
2505.0,0.0167
2504.0,0.0167
2503.0,0.0167
2502.0,0.0167
2501.0,0.0166
2500.0,0.0166
2499.0,0.0166
2498.0,0.0166
2497.0,0.0166
2496.0,0.0166
2495.0,0.0166
2494.0,0.0166
2493.0,0.0165
2492.0,0.0165
2491.0,0.0165
2490.0,0.0165
2489.0,0.0165
2488.0,0.0165
2487.0,0.0164
2486.0,0.0164
2485.0,0.0164
2484.0,0.0165
2483.0,0.0165
2482.0,0.0165
2481.0,0.0165
2480.0,0.0164
2479.0,0.0162
2478.0,0.0161
2477.0,0.0161
2476.0,0.0162
2475.0,0.0162
2474.0,0.0162
2473.0,0.0162
2472.0,0.0162
2471.0,0.0162
2470.0,0.0162
2469.0,0.0162
2468.0,0.0162
2467.0,0.0161
2466.0,0.0161
2465.0,0.016
2464.0,0.016
2463.0,0.0161
2462.0,0.0161
2461.0,0.0161
2460.0,0.0161
2459.0,0.0161
2458.0,0.016
2457.0,0.016
2456.0,0.016
2455.0,0.016
2454.0,0.016
2453.0,0.016
2452.0,0.0159
2451.0,0.0159
2450.0,0.016
2449.0,0.016
2448.0,0.0161
2447.0,0.0161
2446.0,0.016
2445.0,0.016
2444.0,0.0159
2443.0,0.0159
2442.0,0.0159
2441.0,0.0159
2440.0,0.0159
2439.0,0.0159
2438.0,0.0159
2437.0,0.0159
2436.0,0.0159
2435.0,0.0159
2434.0,0.0159
2433.0,0.0158
2432.0,0.0158
2431.0,0.0158
2430.0,0.0157
2429.0,0.0157
2428.0,0.0157
2427.0,0.0157
2426.0,0.0157
2425.0,0.0158
2424.0,0.0158
2423.0,0.0159
2422.0,0.0159
2421.0,0.0159
2420.0,0.0158
2419.0,0.0158
2418.0,0.0157
2417.0,0.0158
2416.0,0.0158
2415.0,0.0158
2414.0,0.0158
2413.0,0.0158
2412.0,0.0158
2411.0,0.0158
2410.0,0.0157
2409.0,0.0157
2408.0,0.0157
2407.0,0.0157
2406.0,0.0156
2405.0,0.0156
2404.0,0.0156
2403.0,0.0156
2402.0,0.0157
2401.0,0.0158
2400.0,0.0158
2399.0,0.0157
2398.0,0.0157
2397.0,0.0157
2396.0,0.0157
2395.0,0.0157
2394.0,0.0157
2393.0,0.0157
2392.0,0.0157
2391.0,0.0156
2390.0,0.0156
2389.0,0.0156
2388.0,0.0156
2387.0,0.0155
2386.0,0.0155
2385.0,0.0154
2384.0,0.0154
2383.0,0.0154
2382.0,0.0154
2381.0,0.0154
2380.0,0.0153
2379.0,0.0153
2378.0,0.0154
2377.0,0.0155
2376.0,0.0155
2375.0,0.0153
2374.0,0.0151
2373.0,0.0151
2372.0,0.0152
2371.0,0.0153
2370.0,0.0151
2369.0,0.0146
2368.0,0.0144
2367.0,0.0149
2366.0,0.0162
2365.0,0.0175
2364.0,0.0177
2363.0,0.016
2362.0,0.013
2361.0,0.0103
2360.0,0.0092
2359.0,0.0103
2358.0,0.0125
2357.0,0.0144
2356.0,0.0156
2355.0,0.0165
2354.0,0.0175
2353.0,0.0181
2352.0,0.0178
2351.0,0.0169
2350.0,0.0161
2349.0,0.0158
2348.0,0.016
2347.0,0.0163
2346.0,0.0165
2345.0,0.0164
2344.0,0.0162
2343.0,0.0163
2342.0,0.0166
2341.0,0.0172
2340.0,0.0176
2339.0,0.0177
2338.0,0.0172
2337.0,0.0167
2336.0,0.0165
2335.0,0.0167
2334.0,0.0171
2333.0,0.0175
2332.0,0.0176
2331.0,0.0179
2330.0,0.0182
2329.0,0.0183
2328.0,0.018
2327.0,0.0175
2326.0,0.0171
2325.0,0.0168
2324.0,0.0168
2323.0,0.0169
2322.0,0.017
2321.0,0.0171
2320.0,0.017
2319.0,0.0169
2318.0,0.0168
2317.0,0.0167
2316.0,0.0166
2315.0,0.0164
2314.0,0.0163
2313.0,0.0164
2312.0,0.0165
2311.0,0.0166
2310.0,0.0166
2309.0,0.0165
2308.0,0.0164
2307.0,0.0163
2306.0,0.0163
2305.0,0.0162
2304.0,0.0162
2303.0,0.0161
2302.0,0.0161
2301.0,0.0161
2300.0,0.0162
2299.0,0.0162
2298.0,0.0162
2297.0,0.0161
2296.0,0.016
2295.0,0.0158
2294.0,0.0158
2293.0,0.0158
2292.0,0.0158
2291.0,0.0158
2290.0,0.0158
2289.0,0.0158
2288.0,0.0157
2287.0,0.0157
2286.0,0.0157
2285.0,0.0158
2284.0,0.0157
2283.0,0.0157
2282.0,0.0156
2281.0,0.0156
2280.0,0.0156
2279.0,0.0156
2278.0,0.0156
2277.0,0.0156
2276.0,0.0156
2275.0,0.0156
2274.0,0.0156
2273.0,0.0156
2272.0,0.0156
2271.0,0.0155
2270.0,0.0154
2269.0,0.0153
2268.0,0.0153
2267.0,0.0153
2266.0,0.0153
2265.0,0.0153
2264.0,0.0153
2263.0,0.0153
2262.0,0.0153
2261.0,0.0153
2260.0,0.0153
2259.0,0.0153
2258.0,0.0153
2257.0,0.0153
2256.0,0.0153
2255.0,0.0153
2254.0,0.0153
2253.0,0.0153
2252.0,0.0153
2251.0,0.0153
2250.0,0.0153
2249.0,0.0153
2248.0,0.0153
2247.0,0.0153
2246.0,0.0153
2245.0,0.0153
2244.0,0.0152
2243.0,0.0152
2242.0,0.0152
2241.0,0.0152
2240.0,0.0153
2239.0,0.0153
2238.0,0.0152
2237.0,0.0152
2236.0,0.0152
2235.0,0.0152
2234.0,0.0152
2233.0,0.0152
2232.0,0.0151
2231.0,0.0151
2230.0,0.0151
2229.0,0.015
2228.0,0.015
2227.0,0.015
2226.0,0.015
2225.0,0.0151
2224.0,0.0151
2223.0,0.0151
2222.0,0.0151
2221.0,0.0151
2220.0,0.0151
2219.0,0.0151
2218.0,0.0151
2217.0,0.0151
2216.0,0.0151
2215.0,0.0152
2214.0,0.0152
2213.0,0.0152
2212.0,0.0152
2211.0,0.0152
2210.0,0.0152
2209.0,0.0152
2208.0,0.0152
2207.0,0.0152
2206.0,0.0151
2205.0,0.0151
2204.0,0.0151
2203.0,0.0151
2202.0,0.0151
2201.0,0.0151
2200.0,0.0151
2199.0,0.0151
2198.0,0.0151
2197.0,0.015
2196.0,0.015
2195.0,0.015
2194.0,0.015
2193.0,0.015
2192.0,0.015
2191.0,0.015
2190.0,0.015
2189.0,0.0151
2188.0,0.0151
2187.0,0.0151
2186.0,0.0151
2185.0,0.0151
2184.0,0.0151
2183.0,0.015
2182.0,0.015
2181.0,0.0149
2180.0,0.0149
2179.0,0.0149
2178.0,0.015
2177.0,0.015
2176.0,0.015
2175.0,0.0149
2174.0,0.0149
2173.0,0.0149
2172.0,0.015
2171.0,0.0151
2170.0,0.0151
2169.0,0.0151
2168.0,0.0151
2167.0,0.0151
2166.0,0.015
2165.0,0.015
2164.0,0.015
2163.0,0.0151
2162.0,0.0151
2161.0,0.0151
2160.0,0.0151
2159.0,0.0151
2158.0,0.0151
2157.0,0.0151
2156.0,0.0152
2155.0,0.0152
2154.0,0.0152
2153.0,0.0152
2152.0,0.0152
2151.0,0.0152
2150.0,0.0151
2149.0,0.0151
2148.0,0.015
2147.0,0.015
2146.0,0.0151
2145.0,0.0151
2144.0,0.0151
2143.0,0.0151
2142.0,0.0151
2141.0,0.0151
2140.0,0.0152
2139.0,0.0152
2138.0,0.0152
2137.0,0.0152
2136.0,0.0152
2135.0,0.0151
2134.0,0.0151
2133.0,0.0151
2132.0,0.0151
2131.0,0.0151
2130.0,0.0151
2129.0,0.0151
2128.0,0.0151
2127.0,0.0151
2126.0,0.015
2125.0,0.015
2124.0,0.015
2123.0,0.015
2122.0,0.015
2121.0,0.015
2120.0,0.015
2119.0,0.015
2118.0,0.0149
2117.0,0.0148
2116.0,0.0148
2115.0,0.0148
2114.0,0.0149
2113.0,0.0149
2112.0,0.0149
2111.0,0.015
2110.0,0.015
2109.0,0.015
2108.0,0.015
2107.0,0.015
2106.0,0.015
2105.0,0.015
2104.0,0.015
2103.0,0.0151
2102.0,0.0151
2101.0,0.015
2100.0,0.015
2099.0,0.0149
2098.0,0.0149
2097.0,0.0149
2096.0,0.0149
2095.0,0.0149
2094.0,0.0149
2093.0,0.0149
2092.0,0.0149
2091.0,0.0149
2090.0,0.015
2089.0,0.015
2088.0,0.015
2087.0,0.015
2086.0,0.015
2085.0,0.015
2084.0,0.015
2083.0,0.0149
2082.0,0.0149
2081.0,0.0149
2080.0,0.0149
2079.0,0.015
2078.0,0.015
2077.0,0.015
2076.0,0.0149
2075.0,0.0149
2074.0,0.015
2073.0,0.015
2072.0,0.015
2071.0,0.015
2070.0,0.0151
2069.0,0.0151
2068.0,0.015
2067.0,0.0149
2066.0,0.0148
2065.0,0.0148
2064.0,0.0148
2063.0,0.0149
2062.0,0.0148
2061.0,0.0148
2060.0,0.0148
2059.0,0.0148
2058.0,0.0148
2057.0,0.0149
2056.0,0.0149
2055.0,0.0149
2054.0,0.015
2053.0,0.015
2052.0,0.015
2051.0,0.015
2050.0,0.0151
2049.0,0.0151
2048.0,0.0151
2047.0,0.015
2046.0,0.015
2045.0,0.0149
2044.0,0.0149
2043.0,0.0149
2042.0,0.015
2041.0,0.015
2040.0,0.0151
2039.0,0.0151
2038.0,0.0151
2037.0,0.0152
2036.0,0.0152
2035.0,0.0151
2034.0,0.0151
2033.0,0.0151
2032.0,0.0151
2031.0,0.0151
2030.0,0.0151
2029.0,0.0151
2028.0,0.0151
2027.0,0.0151
2026.0,0.0151
2025.0,0.0151
2024.0,0.0151
2023.0,0.0151
2022.0,0.0151
2021.0,0.0151
2020.0,0.0151
2019.0,0.0152
2018.0,0.0152
2017.0,0.0153
2016.0,0.0153
2015.0,0.0152
2014.0,0.0152
2013.0,0.0151
2012.0,0.015
2011.0,0.015
2010.0,0.015
2009.0,0.015
2008.0,0.0149
2007.0,0.0149
2006.0,0.0148
2005.0,0.0148
2004.0,0.0148
2003.0,0.0149
2002.0,0.0149
2001.0,0.0149
2000.0,0.0149
1999.0,0.0149
1998.0,0.0149
1997.0,0.0149
1996.0,0.0148
1995.0,0.0148
1994.0,0.0148
1993.0,0.0149
1992.0,0.0149
1991.0,0.0149
1990.0,0.0149
1989.0,0.0148
1988.0,0.0148
1987.0,0.0148
1986.0,0.0148
1985.0,0.0148
1984.0,0.0148
1983.0,0.0148
1982.0,0.0148
1981.0,0.0148
1980.0,0.0148
1979.0,0.0148
1978.0,0.0148
1977.0,0.0148
1976.0,0.0148
1975.0,0.0148
1974.0,0.0147
1973.0,0.0147
1972.0,0.0148
1971.0,0.0148
1970.0,0.0148
1969.0,0.0148
1968.0,0.0148
1967.0,0.0148
1966.0,0.0148
1965.0,0.0148
1964.0,0.0149
1963.0,0.0148
1962.0,0.0148
1961.0,0.0148
1960.0,0.0148
1959.0,0.0148
1958.0,0.0148
1957.0,0.0149
1956.0,0.0149
1955.0,0.0149
1954.0,0.0149
1953.0,0.0149
1952.0,0.0148
1951.0,0.0147
1950.0,0.0147
1949.0,0.0148
1948.0,0.0148
1947.0,0.0149
1946.0,0.0148
1945.0,0.0148
1944.0,0.0147
1943.0,0.0147
1942.0,0.0147
1941.0,0.0147
1940.0,0.0146
1939.0,0.0146
1938.0,0.0146
1937.0,0.0147
1936.0,0.0147
1935.0,0.0148
1934.0,0.0148
1933.0,0.0148
1932.0,0.0148
1931.0,0.0148
1930.0,0.0148
1929.0,0.0148
1928.0,0.0148
1927.0,0.0148
1926.0,0.0147
1925.0,0.0147
1924.0,0.0147
1923.0,0.0147
1922.0,0.0148
1921.0,0.0148
1920.0,0.0148
1919.0,0.0148
1918.0,0.0149
1917.0,0.0149
1916.0,0.0149
1915.0,0.0149
1914.0,0.0149
1913.0,0.0149
1912.0,0.0149
1911.0,0.0148
1910.0,0.0148
1909.0,0.0148
1908.0,0.0148
1907.0,0.0148
1906.0,0.0149
1905.0,0.015
1904.0,0.015
1903.0,0.015
1902.0,0.0151
1901.0,0.0151
1900.0,0.0152
1899.0,0.0152
1898.0,0.0152
1897.0,0.0151
1896.0,0.0151
1895.0,0.0151
1894.0,0.0151
1893.0,0.0151
1892.0,0.015
1891.0,0.015
1890.0,0.0149
1889.0,0.0149
1888.0,0.0149
1887.0,0.0148
1886.0,0.0148
1885.0,0.0148
1884.0,0.0148
1883.0,0.0147
1882.0,0.0147
1881.0,0.0147
1880.0,0.0147
1879.0,0.0147
1878.0,0.0147
1877.0,0.0148
1876.0,0.0148
1875.0,0.0147
1874.0,0.0147
1873.0,0.0147
1872.0,0.0147
1871.0,0.0147
1870.0,0.0146
1869.0,0.0146
1868.0,0.0146
1867.0,0.0146
1866.0,0.0146
1865.0,0.0146
1864.0,0.0146
1863.0,0.0146
1862.0,0.0147
1861.0,0.0147
1860.0,0.0147
1859.0,0.0147
1858.0,0.0147
1857.0,0.0147
1856.0,0.0147
1855.0,0.0146
1854.0,0.0146
1853.0,0.0146
1852.0,0.0146
1851.0,0.0146
1850.0,0.0146
1849.0,0.0146
1848.0,0.0145
1847.0,0.0145
1846.0,0.0145
1845.0,0.0145
1844.0,0.0145
1843.0,0.0145
1842.0,0.0145
1841.0,0.0145
1840.0,0.0146
1839.0,0.0146
1838.0,0.0147
1837.0,0.0146
1836.0,0.0146
1835.0,0.0146
1834.0,0.0145
1833.0,0.0146
1832.0,0.0146
1831.0,0.0146
1830.0,0.0146
1829.0,0.0146
1828.0,0.0146
1827.0,0.0146
1826.0,0.0146
1825.0,0.0147
1824.0,0.0147
1823.0,0.0146
1822.0,0.0146
1821.0,0.0145
1820.0,0.0146
1819.0,0.0146
1818.0,0.0145
1817.0,0.0145
1816.0,0.0145
1815.0,0.0145
1814.0,0.0145
1813.0,0.0146
1812.0,0.0146
1811.0,0.0146
1810.0,0.0146
1809.0,0.0146
1808.0,0.0146
1807.0,0.0145
1806.0,0.0145
1805.0,0.0145
1804.0,0.0145
1803.0,0.0145
1802.0,0.0145
1801.0,0.0145
1800.0,0.0145
1799.0,0.0145
1798.0,0.0145
1797.0,0.0145
1796.0,0.0146
1795.0,0.0146
1794.0,0.0146
1793.0,0.0145
1792.0,0.0144
1791.0,0.0144
1790.0,0.0144
1789.0,0.0144
1788.0,0.0145
1787.0,0.0145
1786.0,0.0145
1785.0,0.0145
1784.0,0.0145
1783.0,0.0145
1782.0,0.0145
1781.0,0.0146
1780.0,0.0146
1779.0,0.0146
1778.0,0.0145
1777.0,0.0144
1776.0,0.0144
1775.0,0.0145
1774.0,0.0145
1773.0,0.0146
1772.0,0.0147
1771.0,0.0147
1770.0,0.0146
1769.0,0.0146
1768.0,0.0146
1767.0,0.0146
1766.0,0.0146
1765.0,0.0146
1764.0,0.0147
1763.0,0.0147
1762.0,0.0147
1761.0,0.0148
1760.0,0.0149
1759.0,0.015
1758.0,0.015
1757.0,0.0151
1756.0,0.0152
1755.0,0.0153
1754.0,0.0154
1753.0,0.0155
1752.0,0.0157
1751.0,0.0158
1750.0,0.016
1749.0,0.0161
1748.0,0.0161
1747.0,0.0162
1746.0,0.0162
1745.0,0.0162
1744.0,0.0162
1743.0,0.0162
1742.0,0.0161
1741.0,0.0161
1740.0,0.0161
1739.0,0.0162
1738.0,0.0161
1737.0,0.0161
1736.0,0.016
1735.0,0.0159
1734.0,0.0157
1733.0,0.0156
1732.0,0.0155
1731.0,0.0155
1730.0,0.0155
1729.0,0.0155
1728.0,0.0155
1727.0,0.0155
1726.0,0.0155
1725.0,0.0155
1724.0,0.0154
1723.0,0.0154
1722.0,0.0153
1721.0,0.0153
1720.0,0.0153
1719.0,0.0152
1718.0,0.0151
1717.0,0.0152
1716.0,0.0153
1715.0,0.0154
1714.0,0.0154
1713.0,0.0154
1712.0,0.0154
1711.0,0.0153
1710.0,0.0153
1709.0,0.0153
1708.0,0.0153
1707.0,0.0153
1706.0,0.0153
1705.0,0.0153
1704.0,0.0152
1703.0,0.0153
1702.0,0.0152
1701.0,0.0152
1700.0,0.0153
1699.0,0.0153
1698.0,0.0153
1697.0,0.0154
1696.0,0.0155
1695.0,0.0154
1694.0,0.0154
1693.0,0.0154
1692.0,0.0154
1691.0,0.0154
1690.0,0.0153
1689.0,0.0154
1688.0,0.0154
1687.0,0.0155
1686.0,0.0155
1685.0,0.0156
1684.0,0.0158
1683.0,0.0158
1682.0,0.0158
1681.0,0.0158
1680.0,0.0159
1679.0,0.0159
1678.0,0.0159
1677.0,0.016
1676.0,0.016
1675.0,0.0159
1674.0,0.0159
1673.0,0.0159
1672.0,0.0159
1671.0,0.016
1670.0,0.0161
1669.0,0.0162
1668.0,0.0162
1667.0,0.0162
1666.0,0.0162
1665.0,0.0162
1664.0,0.0162
1663.0,0.0163
1662.0,0.0163
1661.0,0.0162
1660.0,0.0162
1659.0,0.0162
1658.0,0.0162
1657.0,0.0162
1656.0,0.0161
1655.0,0.016
1654.0,0.0158
1653.0,0.016
1652.0,0.0161
1651.0,0.0161
1650.0,0.0162
1649.0,0.0163
1648.0,0.0163
1647.0,0.0163
1646.0,0.0165
1645.0,0.0165
1644.0,0.0166
1643.0,0.0166
1642.0,0.0167
1641.0,0.0167
1640.0,0.0167
1639.0,0.0167
1638.0,0.0167
1637.0,0.0168
1636.0,0.0171
1635.0,0.0173
1634.0,0.0173
1633.0,0.0173
1632.0,0.0173
1631.0,0.0174
1630.0,0.0174
1629.0,0.0174
1628.0,0.0175
1627.0,0.0176
1626.0,0.0176
1625.0,0.0175
1624.0,0.0175
1623.0,0.0175
1622.0,0.0175
1621.0,0.0175
1620.0,0.0175
1619.0,0.0174
1618.0,0.0173
1617.0,0.0172
1616.0,0.0171
1615.0,0.0171
1614.0,0.017
1613.0,0.0169
1612.0,0.0168
1611.0,0.0167
1610.0,0.0166
1609.0,0.0166
1608.0,0.0165
1607.0,0.0164
1606.0,0.0163
1605.0,0.0163
1604.0,0.0162
1603.0,0.0161
1602.0,0.0161
1601.0,0.0161
1600.0,0.016
1599.0,0.016
1598.0,0.0159
1597.0,0.0159
1596.0,0.0159
1595.0,0.0159
1594.0,0.0159
1593.0,0.0159
1592.0,0.0158
1591.0,0.0158
1590.0,0.0158
1589.0,0.0158
1588.0,0.0158
1587.0,0.0158
1586.0,0.0159
1585.0,0.0159
1584.0,0.0159
1583.0,0.0159
1582.0,0.0159
1581.0,0.0159
1580.0,0.0158
1579.0,0.0158
1578.0,0.0158
1577.0,0.0158
1576.0,0.0159
1575.0,0.0158
1574.0,0.0157
1573.0,0.0157
1572.0,0.0156
1571.0,0.0155
1570.0,0.0155
1569.0,0.0156
1568.0,0.0156
1567.0,0.0156
1566.0,0.0156
1565.0,0.0156
1564.0,0.0156
1563.0,0.0157
1562.0,0.0157
1561.0,0.0157
1560.0,0.0155
1559.0,0.0155
1558.0,0.0154
1557.0,0.0153
1556.0,0.0154
1555.0,0.0155
1554.0,0.0155
1553.0,0.0155
1552.0,0.0155
1551.0,0.0155
1550.0,0.0155
1549.0,0.0155
1548.0,0.0156
1547.0,0.0156
1546.0,0.0155
1545.0,0.0155
1544.0,0.0154
1543.0,0.0153
1542.0,0.0152
1541.0,0.0153
1540.0,0.0155
1539.0,0.0154
1538.0,0.0152
1537.0,0.0151
1536.0,0.0152
1535.0,0.0152
1534.0,0.0151
1533.0,0.015
1532.0,0.015
1531.0,0.0149
1530.0,0.0148
1529.0,0.0148
1528.0,0.0149
1527.0,0.0148
1526.0,0.0148
1525.0,0.0148
1524.0,0.0148
1523.0,0.0148
1522.0,0.0147
1521.0,0.0147
1520.0,0.0147
1519.0,0.0147
1518.0,0.0146
1517.0,0.0147
1516.0,0.0147
1515.0,0.0145
1514.0,0.0142
1513.0,0.0141
1512.0,0.0141
1511.0,0.0141
1510.0,0.0141
1509.0,0.0141
1508.0,0.0142
1507.0,0.0142
1506.0,0.0141
1505.0,0.0139
1504.0,0.0139
1503.0,0.0138
1502.0,0.0137
1501.0,0.0137
1500.0,0.0137
1499.0,0.0136
1498.0,0.0135
1497.0,0.0135
1496.0,0.0134
1495.0,0.0132
1494.0,0.0131
1493.0,0.013
1492.0,0.0129
1491.0,0.0127
1490.0,0.0124
1489.0,0.0123
1488.0,0.0123
1487.0,0.0121
1486.0,0.0118
1485.0,0.0117
1484.0,0.0116
1483.0,0.0114
1482.0,0.0113
1481.0,0.0114
1480.0,0.0117
1479.0,0.0126
1478.0,0.0149
1477.0,0.0201
1476.0,0.0291
1475.0,0.0412
1474.0,0.0552
1473.0,0.0667
1472.0,0.07
1471.0,0.0672
1470.0,0.0637
1469.0,0.0613
1468.0,0.06
1467.0,0.0604
1466.0,0.0643
1465.0,0.0729
1464.0,0.0825
1463.0,0.0877
1462.0,0.087
1461.0,0.0815
1460.0,0.0729
1459.0,0.0629
1458.0,0.0535
1457.0,0.047
1456.0,0.0435
1455.0,0.0415
1454.0,0.0398
1453.0,0.0381
1452.0,0.0364
1451.0,0.035
1450.0,0.034
1449.0,0.033
1448.0,0.0322
1447.0,0.0315
1446.0,0.0311
1445.0,0.0307
1444.0,0.0303
1443.0,0.0299
1442.0,0.0295
1441.0,0.0292
1440.0,0.0289
1439.0,0.0286
1438.0,0.0284
1437.0,0.0281
1436.0,0.0277
1435.0,0.0273
1434.0,0.0271
1433.0,0.0267
1432.0,0.0262
1431.0,0.0257
1430.0,0.0253
1429.0,0.0248
1428.0,0.0244
1427.0,0.024
1426.0,0.0237
1425.0,0.0233
1424.0,0.023
1423.0,0.0228
1422.0,0.0227
1421.0,0.0225
1420.0,0.0223
1419.0,0.0221
1418.0,0.022
1417.0,0.0219
1416.0,0.0217
1415.0,0.0216
1414.0,0.0215
1413.0,0.0213
1412.0,0.0212
1411.0,0.0211
1410.0,0.021
1409.0,0.0209
1408.0,0.0208
1407.0,0.0207
1406.0,0.0207
1405.0,0.0207
1404.0,0.0206
1403.0,0.0206
1402.0,0.0205
1401.0,0.0203
1400.0,0.0202
1399.0,0.0202
1398.0,0.0202
1397.0,0.0201
1396.0,0.0201
1395.0,0.0201
1394.0,0.0201
1393.0,0.02
1392.0,0.02
1391.0,0.02
1390.0,0.02
1389.0,0.02
1388.0,0.0199
1387.0,0.02
1386.0,0.02
1385.0,0.02
1384.0,0.0201
1383.0,0.0202
1382.0,0.0204
1381.0,0.0206
1380.0,0.0208
1379.0,0.0211
1378.0,0.0212
1377.0,0.0212
1376.0,0.0212
1375.0,0.0213
1374.0,0.0216
1373.0,0.0218
1372.0,0.0219
1371.0,0.022
1370.0,0.0221
1369.0,0.0222
1368.0,0.0223
1367.0,0.0223
1366.0,0.0222
1365.0,0.0221
1364.0,0.0219
1363.0,0.0218
1362.0,0.0217
1361.0,0.0216
1360.0,0.0215
1359.0,0.0214
1358.0,0.0214
1357.0,0.0214
1356.0,0.0214
1355.0,0.0214
1354.0,0.0215
1353.0,0.0215
1352.0,0.0215
1351.0,0.0215
1350.0,0.0215
1349.0,0.0214
1348.0,0.0213
1347.0,0.0212
1346.0,0.0211
1345.0,0.021
1344.0,0.0209
1343.0,0.0207
1342.0,0.0206
1341.0,0.0206
1340.0,0.0205
1339.0,0.0205
1338.0,0.0204
1337.0,0.0203
1336.0,0.0202
1335.0,0.0202
1334.0,0.0201
1333.0,0.0201
1332.0,0.02
1331.0,0.0199
1330.0,0.0199
1329.0,0.0199
1328.0,0.0199
1327.0,0.02
1326.0,0.02
1325.0,0.02
1324.0,0.02
1323.0,0.02
1322.0,0.0201
1321.0,0.0201
1320.0,0.0201
1319.0,0.0202
1318.0,0.0203
1317.0,0.0204
1316.0,0.0204
1315.0,0.0204
1314.0,0.0205
1313.0,0.0206
1312.0,0.0207
1311.0,0.0208
1310.0,0.0209
1309.0,0.0209
1308.0,0.0209
1307.0,0.021
1306.0,0.021
1305.0,0.021
1304.0,0.021
1303.0,0.021
1302.0,0.021
1301.0,0.021
1300.0,0.021
1299.0,0.021
1298.0,0.021
1297.0,0.021
1296.0,0.021
1295.0,0.0209
1294.0,0.0209
1293.0,0.0208
1292.0,0.0208
1291.0,0.0207
1290.0,0.0207
1289.0,0.0207
1288.0,0.0206
1287.0,0.0206
1286.0,0.0206
1285.0,0.0206
1284.0,0.0206
1283.0,0.0205
1282.0,0.0205
1281.0,0.0205
1280.0,0.0205
1279.0,0.0204
1278.0,0.0204
1277.0,0.0204
1276.0,0.0204
1275.0,0.0204
1274.0,0.0204
1273.0,0.0205
1272.0,0.0205
1271.0,0.0205
1270.0,0.0205
1269.0,0.0205
1268.0,0.0205
1267.0,0.0206
1266.0,0.0206
1265.0,0.0206
1264.0,0.0207
1263.0,0.0208
1262.0,0.0208
1261.0,0.0208
1260.0,0.0207
1259.0,0.0207
1258.0,0.0206
1257.0,0.0206
1256.0,0.0206
1255.0,0.0206
1254.0,0.0206
1253.0,0.0206
1252.0,0.0205
1251.0,0.0205
1250.0,0.0205
1249.0,0.0205
1248.0,0.0205
1247.0,0.0205
1246.0,0.0205
1245.0,0.0206
1244.0,0.0205
1243.0,0.0205
1242.0,0.0206
1241.0,0.0206
1240.0,0.0206
1239.0,0.0207
1238.0,0.0207
1237.0,0.0208
1236.0,0.0208
1235.0,0.0208
1234.0,0.0208
1233.0,0.0209
1232.0,0.021
1231.0,0.0211
1230.0,0.0211
1229.0,0.0211
1228.0,0.0211
1227.0,0.0211
1226.0,0.0212
1225.0,0.0213
1224.0,0.0214
1223.0,0.0215
1222.0,0.0215
1221.0,0.0216
1220.0,0.0217
1219.0,0.0217
1218.0,0.0218
1217.0,0.0219
1216.0,0.022
1215.0,0.0221
1214.0,0.0222
1213.0,0.0222
1212.0,0.0223
1211.0,0.0224
1210.0,0.0225
1209.0,0.0227
1208.0,0.0228
1207.0,0.023
1206.0,0.0232
1205.0,0.0233
1204.0,0.0235
1203.0,0.0236
1202.0,0.0238
1201.0,0.024
1200.0,0.0242
1199.0,0.0244
1198.0,0.0246
1197.0,0.0248
1196.0,0.0251
1195.0,0.0254
1194.0,0.0257
1193.0,0.026
1192.0,0.0263
1191.0,0.0267
1190.0,0.0271
1189.0,0.0276
1188.0,0.028
1187.0,0.0285
1186.0,0.029
1185.0,0.0294
1184.0,0.0299
1183.0,0.0303
1182.0,0.0309
1181.0,0.0314
1180.0,0.0319
1179.0,0.0325
1178.0,0.0331
1177.0,0.0336
1176.0,0.0341
1175.0,0.0346
1174.0,0.0351
1173.0,0.0356
1172.0,0.036
1171.0,0.0363
1170.0,0.0366
1169.0,0.037
1168.0,0.0373
1167.0,0.0377
1166.0,0.0379
1165.0,0.0381
1164.0,0.0382
1163.0,0.0383
1162.0,0.0384
1161.0,0.0385
1160.0,0.0385
1159.0,0.0385
1158.0,0.0385
1157.0,0.0385
1156.0,0.0385
1155.0,0.0385
1154.0,0.0385
1153.0,0.0384
1152.0,0.0383
1151.0,0.0382
1150.0,0.038
1149.0,0.0379
1148.0,0.0378
1147.0,0.0377
1146.0,0.0375
1145.0,0.0373
1144.0,0.0372
1143.0,0.0371
1142.0,0.037
1141.0,0.0369
1140.0,0.0368
1139.0,0.0367
1138.0,0.0365
1137.0,0.0364
1136.0,0.0362
1135.0,0.0359
1134.0,0.0357
1133.0,0.0355
1132.0,0.0353
1131.0,0.0351
1130.0,0.0349
1129.0,0.0347
1128.0,0.0345
1127.0,0.0344
1126.0,0.0343
1125.0,0.0342
1124.0,0.0341
1123.0,0.034
1122.0,0.0339
1121.0,0.0337
1120.0,0.0336
1119.0,0.0336
1118.0,0.0335
1117.0,0.0335
1116.0,0.0334
1115.0,0.0333
1114.0,0.0332
1113.0,0.0331
1112.0,0.0329
1111.0,0.0328
1110.0,0.0327
1109.0,0.0326
1108.0,0.0325
1107.0,0.0323
1106.0,0.0322
1105.0,0.032
1104.0,0.0318
1103.0,0.0315
1102.0,0.0313
1101.0,0.0311
1100.0,0.0309
1099.0,0.0306
1098.0,0.0304
1097.0,0.0302
1096.0,0.0299
1095.0,0.0297
1094.0,0.0295
1093.0,0.0293
1092.0,0.029
1091.0,0.0287
1090.0,0.0284
1089.0,0.0281
1088.0,0.0278
1087.0,0.0275
1086.0,0.0272
1085.0,0.0269
1084.0,0.0267
1083.0,0.0265
1082.0,0.0263
1081.0,0.0262
1080.0,0.026
1079.0,0.0257
1078.0,0.0255
1077.0,0.0252
1076.0,0.025
1075.0,0.0248
1074.0,0.0245
1073.0,0.0243
1072.0,0.0241
1071.0,0.0239
1070.0,0.0237
1069.0,0.0235
1068.0,0.0234
1067.0,0.0234
1066.0,0.0234
1065.0,0.0234
1064.0,0.0233
1063.0,0.0232
1062.0,0.0231
1061.0,0.023
1060.0,0.0229
1059.0,0.0229
1058.0,0.0228
1057.0,0.0227
1056.0,0.0227
1055.0,0.0226
1054.0,0.0226
1053.0,0.0226
1052.0,0.0226
1051.0,0.0225
1050.0,0.0225
1049.0,0.0225
1048.0,0.0224
1047.0,0.0223
1046.0,0.0223
1045.0,0.0222
1044.0,0.0222
1043.0,0.0222
1042.0,0.0222
1041.0,0.0222
1040.0,0.0222
1039.0,0.0223
1038.0,0.0223
1037.0,0.0222
1036.0,0.0221
1035.0,0.0221
1034.0,0.022
1033.0,0.022
1032.0,0.0221
1031.0,0.0221
1030.0,0.0221
1029.0,0.0221
1028.0,0.0221
1027.0,0.0222
1026.0,0.0222
1025.0,0.0222
1024.0,0.0221
1023.0,0.0222
1022.0,0.0222
1021.0,0.0222
1020.0,0.0222
1019.0,0.0222
1018.0,0.0222
1017.0,0.0223
1016.0,0.0224
1015.0,0.0224
1014.0,0.0225
1013.0,0.0225
1012.0,0.0225
1011.0,0.0225
1010.0,0.0225
1009.0,0.0226
1008.0,0.0226
1007.0,0.0225
1006.0,0.0225
1005.0,0.0226
1004.0,0.0227
1003.0,0.0227
1002.0,0.0227
1001.0,0.0225
1000.0,0.0223
999.0,0.0222
998.0,0.0221
997.0,0.022
996.0,0.022
995.0,0.022
994.0,0.0219
993.0,0.0218
992.0,0.0218
991.0,0.0217
990.0,0.0218
989.0,0.0218
988.0,0.0218
987.0,0.0218
986.0,0.0217
985.0,0.0216
984.0,0.0216
983.0,0.0217
982.0,0.0218
981.0,0.0219
980.0,0.022
979.0,0.0219
978.0,0.0219
977.0,0.0218
976.0,0.0219
975.0,0.0221
974.0,0.0222
973.0,0.0222
972.0,0.0222
971.0,0.0222
970.0,0.0222
969.0,0.0223
968.0,0.0223
967.0,0.0222
966.0,0.0222
965.0,0.0222
964.0,0.0222
963.0,0.0222
962.0,0.0223
961.0,0.0223
960.0,0.0223
959.0,0.0222
958.0,0.0221
957.0,0.022
956.0,0.022
955.0,0.022
954.0,0.0219
953.0,0.0219
952.0,0.0219
951.0,0.0219
950.0,0.0219
949.0,0.0219
948.0,0.0219
947.0,0.0219
946.0,0.0219
945.0,0.0219
944.0,0.0219
943.0,0.0218
942.0,0.0217
941.0,0.0218
940.0,0.0218
939.0,0.0219
938.0,0.0219
937.0,0.0219
936.0,0.0219
935.0,0.0219
934.0,0.022
933.0,0.0221
932.0,0.0221
931.0,0.0221
930.0,0.022
929.0,0.0219
928.0,0.0219
927.0,0.0219
926.0,0.0219
925.0,0.022
924.0,0.022
923.0,0.022
922.0,0.0221
921.0,0.0221
920.0,0.022
919.0,0.022
918.0,0.0219
917.0,0.022
916.0,0.0221
915.0,0.0221
914.0,0.0222
913.0,0.0223
912.0,0.0223
911.0,0.0224
910.0,0.0225
909.0,0.0225
908.0,0.0224
907.0,0.0223
906.0,0.0223
905.0,0.0223
904.0,0.0223
903.0,0.0223
902.0,0.0223
901.0,0.0222
900.0,0.0222
899.0,0.0222
898.0,0.0222
897.0,0.0222
896.0,0.0222
895.0,0.0222
894.0,0.0222
893.0,0.0223
892.0,0.0223
891.0,0.0223
890.0,0.0224
889.0,0.0224
888.0,0.0224
887.0,0.0225
886.0,0.0225
885.0,0.0225
884.0,0.0224
883.0,0.0225
882.0,0.0225
881.0,0.0226
880.0,0.0227
879.0,0.0227
878.0,0.0226
877.0,0.0225
876.0,0.0225
875.0,0.0225
874.0,0.0225
873.0,0.0224
872.0,0.0223
871.0,0.0222
870.0,0.0223
869.0,0.0224
868.0,0.0225
867.0,0.0226
866.0,0.0226
865.0,0.0226
864.0,0.0225
863.0,0.0224
862.0,0.0223
861.0,0.0224
860.0,0.0225
859.0,0.0225
858.0,0.0225
857.0,0.0225
856.0,0.0225
855.0,0.0225
854.0,0.0226
853.0,0.0227
852.0,0.0227
851.0,0.0226
850.0,0.0225
849.0,0.0225
848.0,0.0224
847.0,0.0224
846.0,0.0223
845.0,0.0223
844.0,0.0223
843.0,0.0224
842.0,0.0224
841.0,0.0225
840.0,0.0226
839.0,0.0227
838.0,0.0229
837.0,0.0229
836.0,0.0229
835.0,0.0229
834.0,0.0228
833.0,0.0227
832.0,0.0226
831.0,0.0226
830.0,0.0226
829.0,0.0226
828.0,0.0226
827.0,0.0225
826.0,0.0225
825.0,0.0224
824.0,0.0223
823.0,0.0222
822.0,0.0222
821.0,0.0224
820.0,0.0226
819.0,0.0227
818.0,0.0228
817.0,0.0229
816.0,0.0229
815.0,0.0228
814.0,0.0227
813.0,0.0226
812.0,0.0226
811.0,0.0227
810.0,0.0228
809.0,0.023
808.0,0.023
807.0,0.0229
806.0,0.0229
805.0,0.0228
804.0,0.0228
803.0,0.0227
802.0,0.0226
801.0,0.0225
800.0,0.0225
799.0,0.0227
798.0,0.0229
797.0,0.023
796.0,0.0229
795.0,0.0228
794.0,0.0228
793.0,0.0229
792.0,0.0229
791.0,0.0228
790.0,0.0228
789.0,0.0227
788.0,0.0226
787.0,0.0225
786.0,0.0224
785.0,0.0224
784.0,0.0224
783.0,0.0224
782.0,0.0225
781.0,0.0226
780.0,0.0228
779.0,0.0228
778.0,0.0228
777.0,0.0227
776.0,0.0227
775.0,0.0227
774.0,0.0226
773.0,0.0226
772.0,0.0225
771.0,0.0224
770.0,0.0223
769.0,0.0221
768.0,0.0221
767.0,0.0221
766.0,0.0221
765.0,0.0221
764.0,0.022
763.0,0.0219
762.0,0.0219
761.0,0.0219
760.0,0.0218
759.0,0.0218
758.0,0.0217
757.0,0.0216
756.0,0.0215
755.0,0.0212
754.0,0.021
753.0,0.021
752.0,0.021
751.0,0.0211
750.0,0.0209
749.0,0.0207
748.0,0.0203
747.0,0.02
746.0,0.0198
745.0,0.0197
744.0,0.0197
743.0,0.0195
742.0,0.0193
741.0,0.0191
740.0,0.019
739.0,0.0192
738.0,0.0197
737.0,0.0207
736.0,0.0226
735.0,0.0266
734.0,0.0346
733.0,0.0475
732.0,0.0639
731.0,0.0788
730.0,0.0869
729.0,0.0864
728.0,0.0799
727.0,0.0723
726.0,0.0671
725.0,0.0653
724.0,0.0673
723.0,0.0738
722.0,0.0858
721.0,0.1024
720.0,0.1178
719.0,0.1243
718.0,0.1195
717.0,0.1072
716.0,0.093
715.0,0.0804
714.0,0.0706
713.0,0.0634
712.0,0.0581
711.0,0.0539
710.0,0.0503
709.0,0.0473
708.0,0.0451
707.0,0.0438
706.0,0.0428
705.0,0.0418
704.0,0.0405
703.0,0.0392
702.0,0.0382
701.0,0.0376
700.0,0.0374
699.0,0.0376
698.0,0.0378
697.0,0.0376
696.0,0.0367
695.0,0.0353
694.0,0.034
693.0,0.0332
692.0,0.0329
691.0,0.0331
690.0,0.0331
689.0,0.0329
688.0,0.0328
687.0,0.033
686.0,0.0334
685.0,0.0337
684.0,0.0338
683.0,0.0338
682.0,0.0339
681.0,0.0338
680.0,0.0335
679.0,0.033
678.0,0.0327
677.0,0.0328
676.0,0.0332
675.0,0.0335
674.0,0.0332
673.0,0.0322
672.0,0.0309
671.0,0.0295
670.0,0.0285
669.0,0.0285
668.0,0.0293
667.0,0.0299
666.0,0.0304
665.0,0.031
664.0,0.0314
663.0,0.0313
662.0,0.0307
661.0,0.0304
660.0,0.0307
659.0,0.0318
658.0,0.033
657.0,0.0333
656.0,0.0328
655.0,0.0319
654.0,0.0312
653.0,0.0307
652.0,0.0304
651.0,0.0303
650.0,0.0304
649.0,0.0305
648.0,0.0306
647.0,0.0309
646.0,0.0311
645.0,0.0311
644.0,0.0307
643.0,0.0301
642.0,0.0298
641.0,0.0299
640.0,0.0306
639.0,0.0317
638.0,0.0331
637.0,0.0344
636.0,0.0353
635.0,0.0354
634.0,0.0347
633.0,0.0337
632.0,0.033
631.0,0.0328
630.0,0.0327
629.0,0.0324
628.0,0.0317
627.0,0.0311
626.0,0.0309
625.0,0.0311
624.0,0.0316
623.0,0.0319
622.0,0.0318
621.0,0.0316
620.0,0.0316
619.0,0.0319
618.0,0.0323
617.0,0.0323
616.0,0.0318
615.0,0.0311
614.0,0.0307
613.0,0.0308
612.0,0.0315
611.0,0.0331
610.0,0.0352
609.0,0.0373
608.0,0.0386
607.0,0.0392
606.0,0.0394
605.0,0.0395
604.0,0.0399
603.0,0.0406
602.0,0.0414
601.0,0.0417
600.0,0.0409
