cm-1,A
4000.0,0.009
3999.0,0.0091
3998.0,0.0091
3997.0,0.0092
3996.0,0.0093
3995.0,0.0093
3994.0,0.0093
3993.0,0.0093
3992.0,0.0093
3991.0,0.0093
3990.0,0.0093
3989.0,0.0092
3988.0,0.0092
3987.0,0.0092
3986.0,0.0093
3985.0,0.0093
3984.0,0.0093
3983.0,0.0092
3982.0,0.0092
3981.0,0.0092
3980.0,0.0092
3979.0,0.0092
3978.0,0.0092
3977.0,0.0092
3976.0,0.0091
3975.0,0.0091
3974.0,0.0091
3973.0,0.0092
3972.0,0.0093
3971.0,0.0093
3970.0,0.0094
3969.0,0.0094
3968.0,0.0094
3967.0,0.0094
3966.0,0.0093
3965.0,0.0093
3964.0,0.0093
3963.0,0.0093
3962.0,0.0094
3961.0,0.0094
3960.0,0.0094
3959.0,0.0093
3958.0,0.0093
3957.0,0.0093
3956.0,0.0093
3955.0,0.0093
3954.0,0.0093
3953.0,0.0092
3952.0,0.0091
3951.0,0.0091
3950.0,0.0091
3949.0,0.0091
3948.0,0.0091
3947.0,0.0091
3946.0,0.0091
3945.0,0.0092
3944.0,0.0093
3943.0,0.0093
3942.0,0.0093
3941.0,0.0093
3940.0,0.0093
3939.0,0.0093
3938.0,0.0093
3937.0,0.0094
3936.0,0.0094
3935.0,0.0094
3934.0,0.0094
3933.0,0.0094
3932.0,0.0094
3931.0,0.0095
3930.0,0.0095
3929.0,0.0095
3928.0,0.0094
3927.0,0.0094
3926.0,0.0093
3925.0,0.0093
3924.0,0.0092
3923.0,0.0092
3922.0,0.0093
3921.0,0.0095
3920.0,0.0096
3919.0,0.0096
3918.0,0.0095
3917.0,0.0094
3916.0,0.0094
3915.0,0.0095
3914.0,0.0096
3913.0,0.0098
3912.0,0.0098
3911.0,0.0098
3910.0,0.0097
3909.0,0.0095
3908.0,0.0094
3907.0,0.0093
3906.0,0.0092
3905.0,0.0091
3904.0,0.0091
3903.0,0.0091
3902.0,0.0091
3901.0,0.0092
3900.0,0.0093
3899.0,0.0094
3898.0,0.0094
3897.0,0.0094
3896.0,0.0093
3895.0,0.0092
3894.0,0.0092
3893.0,0.0092
3892.0,0.0092
3891.0,0.0093
3890.0,0.0093
3889.0,0.0092
3888.0,0.0092
3887.0,0.0092
3886.0,0.0092
3885.0,0.0092
3884.0,0.0091
3883.0,0.0091
3882.0,0.0092
3881.0,0.0094
3880.0,0.0095
3879.0,0.0096
3878.0,0.0096
3877.0,0.0096
3876.0,0.0096
3875.0,0.0096
3874.0,0.0096
3873.0,0.0095
3872.0,0.0095
3871.0,0.0094
3870.0,0.0093
3869.0,0.0092
3868.0,0.0092
3867.0,0.0094
3866.0,0.0095
3865.0,0.0097
3864.0,0.0098
3863.0,0.0098
3862.0,0.0097
3861.0,0.0095
3860.0,0.0093
3859.0,0.0091
3858.0,0.0088
3857.0,0.0086
3856.0,0.0085
3855.0,0.0087
3854.0,0.0089
3853.0,0.0088
3852.0,0.0087
3851.0,0.0088
3850.0,0.0091
3849.0,0.0093
3848.0,0.0095
3847.0,0.0095
3846.0,0.0095
3845.0,0.0095
3844.0,0.0094
3843.0,0.0093
3842.0,0.0091
3841.0,0.0089
3840.0,0.0087
3839.0,0.0085
3838.0,0.0084
3837.0,0.0085
3836.0,0.0087
3835.0,0.0089
3834.0,0.0092
3833.0,0.0094
3832.0,0.0095
3831.0,0.0095
3830.0,0.0095
3829.0,0.0095
3828.0,0.0095
3827.0,0.0096
3826.0,0.0095
3825.0,0.0093
3824.0,0.0091
3823.0,0.009
3822.0,0.0092
3821.0,0.0094
3820.0,0.0095
3819.0,0.0095
3818.0,0.0095
3817.0,0.0095
3816.0,0.0095
3815.0,0.0095
3814.0,0.0096
3813.0,0.0097
3812.0,0.0097
3811.0,0.0096
3810.0,0.0095
3809.0,0.0094
3808.0,0.0095
3807.0,0.0095
3806.0,0.0095
3805.0,0.0094
3804.0,0.0093
3803.0,0.0092
3802.0,0.009
3801.0,0.009
3800.0,0.009
3799.0,0.0091
3798.0,0.0093
3797.0,0.0094
3796.0,0.0095
3795.0,0.0096
3794.0,0.0097
3793.0,0.0098
3792.0,0.0099
3791.0,0.01
3790.0,0.01
3789.0,0.01
3788.0,0.0099
3787.0,0.0098
3786.0,0.0098
3785.0,0.0097
3784.0,0.0097
3783.0,0.0097
3782.0,0.0097
3781.0,0.0097
3780.0,0.0097
3779.0,0.0097
3778.0,0.0096
3777.0,0.0096
3776.0,0.0096
3775.0,0.0095
3774.0,0.0095
3773.0,0.0094
3772.0,0.0094
3771.0,0.0094
3770.0,0.0094
3769.0,0.0094
3768.0,0.0094
3767.0,0.0095
3766.0,0.0095
3765.0,0.0096
3764.0,0.0096
3763.0,0.0096
3762.0,0.0096
3761.0,0.0096
3760.0,0.0095
3759.0,0.0095
3758.0,0.0094
3757.0,0.0093
3756.0,0.0093
3755.0,0.0092
3754.0,0.0092
3753.0,0.0093
3752.0,0.0094
3751.0,0.0094
3750.0,0.0093
3749.0,0.0091
3748.0,0.0091
3747.0,0.0091
3746.0,0.0092
3745.0,0.0092
3744.0,0.009
3743.0,0.009
3742.0,0.0091
3741.0,0.0092
3740.0,0.0093
3739.0,0.0093
3738.0,0.0093
3737.0,0.0094
3736.0,0.0095
3735.0,0.0096
3734.0,0.0095
3733.0,0.0095
3732.0,0.0095
3731.0,0.0095
3730.0,0.0095
3729.0,0.0095
3728.0,0.0095
3727.0,0.0096
3726.0,0.0096
3725.0,0.0096
3724.0,0.0095
3723.0,0.0094
3722.0,0.0093
3721.0,0.0093
3720.0,0.0093
3719.0,0.0094
3718.0,0.0095
3717.0,0.0095
3716.0,0.0095
3715.0,0.0095
3714.0,0.0095
3713.0,0.0096
3712.0,0.0097
3711.0,0.0097
3710.0,0.0097
3709.0,0.0097
3708.0,0.0097
3707.0,0.0098
3706.0,0.0098
3705.0,0.0098
3704.0,0.0098
3703.0,0.0098
3702.0,0.0098
3701.0,0.0098
3700.0,0.0097
3699.0,0.0097
3698.0,0.0097
3697.0,0.0097
3696.0,0.0097
3695.0,0.0096
3694.0,0.0095
3693.0,0.0094
3692.0,0.0093
3691.0,0.0093
3690.0,0.0093
3689.0,0.0094
3688.0,0.0094
3687.0,0.0095
3686.0,0.0097
3685.0,0.0098
3684.0,0.0099
3683.0,0.0098
3682.0,0.0097
3681.0,0.0096
3680.0,0.0096
3679.0,0.0094
3678.0,0.0093
3677.0,0.0094
3676.0,0.0096
3675.0,0.0098
3674.0,0.0098
3673.0,0.0098
3672.0,0.0097
3671.0,0.0098
3670.0,0.0099
3669.0,0.01
3668.0,0.0101
3667.0,0.0103
3666.0,0.0104
3665.0,0.0105
3664.0,0.0105
3663.0,0.0104
3662.0,0.0104
3661.0,0.0104
3660.0,0.0104
3659.0,0.0103
3658.0,0.0103
3657.0,0.0103
3656.0,0.0104
3655.0,0.0104
3654.0,0.0103
3653.0,0.0102
3652.0,0.0101
3651.0,0.01
3650.0,0.0101
3649.0,0.0102
3648.0,0.0103
3647.0,0.0104
3646.0,0.0106
3645.0,0.0107
3644.0,0.0108
3643.0,0.0108
3642.0,0.0108
3641.0,0.0108
3640.0,0.0109
3639.0,0.011
3638.0,0.011
3637.0,0.011
3636.0,0.0109
3635.0,0.0107
3634.0,0.0106
3633.0,0.0104
3632.0,0.0102
3631.0,0.01
3630.0,0.0101
3629.0,0.0103
3628.0,0.0105
3627.0,0.0107
3626.0,0.0109
3625.0,0.0111
3624.0,0.0111
3623.0,0.011
3622.0,0.0109
3621.0,0.0108
3620.0,0.0108
3619.0,0.0109
3618.0,0.011
3617.0,0.011
3616.0,0.0112
3615.0,0.0114
3614.0,0.0116
3613.0,0.0117
3612.0,0.0117
3611.0,0.0117
3610.0,0.0116
3609.0,0.0117
3608.0,0.0118
3607.0,0.0119
3606.0,0.0119
3605.0,0.0119
3604.0,0.0119
3603.0,0.0119
3602.0,0.0119
3601.0,0.0119
3600.0,0.0119
3599.0,0.0119
3598.0,0.0119
3597.0,0.012
3596.0,0.012
3595.0,0.012
3594.0,0.0121
3593.0,0.0121
3592.0,0.0122
3591.0,0.0122
3590.0,0.0121
3589.0,0.0122
3588.0,0.0122
3587.0,0.0122
3586.0,0.0122
3585.0,0.0123
3584.0,0.0125
3583.0,0.0126
3582.0,0.0127
3581.0,0.0128
3580.0,0.0129
3579.0,0.0129
3578.0,0.0129
3577.0,0.0129
3576.0,0.013
3575.0,0.013
3574.0,0.0131
3573.0,0.0131
3572.0,0.013
3571.0,0.013
3570.0,0.0129
3569.0,0.0129
3568.0,0.0131
3567.0,0.0132
3566.0,0.0132
3565.0,0.0132
3564.0,0.0132
3563.0,0.0133
3562.0,0.0134
3561.0,0.0135
3560.0,0.0137
3559.0,0.0139
3558.0,0.0141
3557.0,0.0142
3556.0,0.0143
3555.0,0.0144
3554.0,0.0144
3553.0,0.0144
3552.0,0.0145
3551.0,0.0145
3550.0,0.0145
3549.0,0.0145
3548.0,0.0146
3547.0,0.0146
3546.0,0.0147
3545.0,0.0148
3544.0,0.0148
3543.0,0.0149
3542.0,0.0149
3541.0,0.015
3540.0,0.0151
3539.0,0.0151
3538.0,0.0152
3537.0,0.0152
3536.0,0.0151
3535.0,0.0151
3534.0,0.0152
3533.0,0.0154
3532.0,0.0156
3531.0,0.0157
3530.0,0.0158
3529.0,0.0157
3528.0,0.0157
3527.0,0.0156
3526.0,0.0157
3525.0,0.0157
3524.0,0.0158
3523.0,0.0158
3522.0,0.0159
3521.0,0.016
3520.0,0.0161
3519.0,0.0162
3518.0,0.0164
3517.0,0.0164
3516.0,0.0163
3515.0,0.0161
3514.0,0.016
3513.0,0.0159
3512.0,0.016
3511.0,0.0162
3510.0,0.0163
3509.0,0.0164
3508.0,0.0165
3507.0,0.0164
3506.0,0.0164
3505.0,0.0163
3504.0,0.0163
3503.0,0.0162
3502.0,0.0162
3501.0,0.0162
3500.0,0.0162
3499.0,0.0162
3498.0,0.0162
3497.0,0.0162
3496.0,0.0163
3495.0,0.0164
3494.0,0.0165
3493.0,0.0166
3492.0,0.0167
3491.0,0.0167
3490.0,0.0166
3489.0,0.0165
3488.0,0.0165
3487.0,0.0165
3486.0,0.0165
3485.0,0.0165
3484.0,0.0165
3483.0,0.0165
3482.0,0.0164
3481.0,0.0164
3480.0,0.0163
3479.0,0.0163
3478.0,0.0163
3477.0,0.0162
3476.0,0.0161
3475.0,0.0161
3474.0,0.016
3473.0,0.016
3472.0,0.016
3471.0,0.016
3470.0,0.016
3469.0,0.0159
3468.0,0.0159
3467.0,0.0159
3466.0,0.0159
3465.0,0.0158
3464.0,0.0158
3463.0,0.0157
3462.0,0.0157
3461.0,0.0157
3460.0,0.0157
3459.0,0.0156
3458.0,0.0156
3457.0,0.0156
3456.0,0.0156
3455.0,0.0157
3454.0,0.0157
3453.0,0.0157
3452.0,0.0157
3451.0,0.0156
3450.0,0.0156
3449.0,0.0156
3448.0,0.0155
3447.0,0.0154
3446.0,0.0153
3445.0,0.0153
3444.0,0.0153
3443.0,0.0153
3442.0,0.0153
3441.0,0.0153
3440.0,0.0153
3439.0,0.0154
3438.0,0.0154
3437.0,0.0155
3436.0,0.0157
3435.0,0.0158
3434.0,0.0159
3433.0,0.016
3432.0,0.016
3431.0,0.016
3430.0,0.016
3429.0,0.016
3428.0,0.016
3427.0,0.0161
3426.0,0.0162
3425.0,0.0163
3424.0,0.0163
3423.0,0.0164
3422.0,0.0164
3421.0,0.0165
3420.0,0.0166
3419.0,0.0166
3418.0,0.0167
3417.0,0.0168
3416.0,0.0169
3415.0,0.017
3414.0,0.0172
3413.0,0.0172
3412.0,0.0172
3411.0,0.0172
3410.0,0.0173
3409.0,0.0173
3408.0,0.0173
3407.0,0.0173
3406.0,0.0172
3405.0,0.0171
3404.0,0.017
3403.0,0.0169
3402.0,0.0169
3401.0,0.0169
3400.0,0.0169
3399.0,0.0169
3398.0,0.0168
3397.0,0.0167
3396.0,0.0166
3395.0,0.0166
3394.0,0.0165
3393.0,0.0165
3392.0,0.0164
3391.0,0.0163
3390.0,0.0162
3389.0,0.016
3388.0,0.016
3387.0,0.0159
3386.0,0.0159
3385.0,0.0159
3384.0,0.0158
3383.0,0.0158
3382.0,0.0158
3381.0,0.0157
3380.0,0.0157
3379.0,0.0157
3378.0,0.0157
3377.0,0.0156
3376.0,0.0155
3375.0,0.0154
3374.0,0.0153
3373.0,0.0152
3372.0,0.0151
3371.0,0.015
3370.0,0.0149
3369.0,0.0149
3368.0,0.0149
3367.0,0.0149
3366.0,0.0148
3365.0,0.0148
3364.0,0.0147
3363.0,0.0146
3362.0,0.0145
3361.0,0.0144
3360.0,0.0143
3359.0,0.0143
3358.0,0.0143
3357.0,0.0143
3356.0,0.0143
3355.0,0.0143
3354.0,0.0143
3353.0,0.0142
3352.0,0.0141
3351.0,0.0141
3350.0,0.0142
3349.0,0.0142
3348.0,0.0142
3347.0,0.0142
3346.0,0.0141
3345.0,0.0141
3344.0,0.0141
3343.0,0.0141
3342.0,0.014
3341.0,0.0141
3340.0,0.014
3339.0,0.014
3338.0,0.0139
3337.0,0.0138
3336.0,0.0137
3335.0,0.0137
3334.0,0.0137
3333.0,0.0138
3332.0,0.0138
3331.0,0.0138
3330.0,0.0138
3329.0,0.0137
3328.0,0.0136
3327.0,0.0136
3326.0,0.0136
3325.0,0.0136
3324.0,0.0135
3323.0,0.0134
3322.0,0.0134
3321.0,0.0133
3320.0,0.0132
3319.0,0.0132
3318.0,0.0132
3317.0,0.0132
3316.0,0.0133
3315.0,0.0134
3314.0,0.0134
3313.0,0.0134
3312.0,0.0134
3311.0,0.0133
3310.0,0.0133
3309.0,0.0132
3308.0,0.0131
3307.0,0.013
3306.0,0.013
3305.0,0.0129
3304.0,0.0129
3303.0,0.013
3302.0,0.013
3301.0,0.0129
3300.0,0.0129
3299.0,0.0128
3298.0,0.0127
3297.0,0.0127
3296.0,0.0128
3295.0,0.0128
3294.0,0.0128
3293.0,0.0129
3292.0,0.0128
3291.0,0.0128
3290.0,0.0128
3289.0,0.0127
3288.0,0.0127
3287.0,0.0126
3286.0,0.0126
3285.0,0.0125
3284.0,0.0124
3283.0,0.0124
3282.0,0.0124
3281.0,0.0123
3280.0,0.0123
3279.0,0.0124
3278.0,0.0125
3277.0,0.0126
3276.0,0.0126
3275.0,0.0126
3274.0,0.0124
3273.0,0.0123
3272.0,0.0123
3271.0,0.0122
3270.0,0.0122
3269.0,0.0121
3268.0,0.0121
3267.0,0.0121
3266.0,0.0122
3265.0,0.0122
3264.0,0.0122
3263.0,0.0122
3262.0,0.0122
3261.0,0.0122
3260.0,0.0122
3259.0,0.0122
3258.0,0.0121
3257.0,0.0121
3256.0,0.0119
3255.0,0.0118
3254.0,0.0117
3253.0,0.0116
3252.0,0.0115
3251.0,0.0115
3250.0,0.0115
3249.0,0.0116
3248.0,0.0116
3247.0,0.0116
3246.0,0.0117
3245.0,0.0117
3244.0,0.0117
3243.0,0.0117
3242.0,0.0116
3241.0,0.0116
3240.0,0.0115
3239.0,0.0115
3238.0,0.0115
3237.0,0.0115
3236.0,0.0115
3235.0,0.0115
3234.0,0.0114
3233.0,0.0114
3232.0,0.0114
3231.0,0.0115
3230.0,0.0114
3229.0,0.0114
3228.0,0.0114
3227.0,0.0114
3226.0,0.0113
3225.0,0.0112
3224.0,0.0111
3223.0,0.011
3222.0,0.0109
3221.0,0.0108
3220.0,0.0108
3219.0,0.0108
3218.0,0.0108
3217.0,0.0109
3216.0,0.011
3215.0,0.0111
3214.0,0.011
3213.0,0.0109
3212.0,0.0108
3211.0,0.0107
3210.0,0.0107
3209.0,0.0107
3208.0,0.0107
3207.0,0.0107
3206.0,0.0107
3205.0,0.0107
3204.0,0.0107
3203.0,0.0106
3202.0,0.0107
3201.0,0.0107
3200.0,0.0107
3199.0,0.0106
3198.0,0.0105
3197.0,0.0104
3196.0,0.0103
3195.0,0.0103
3194.0,0.0103
3193.0,0.0104
3192.0,0.0104
3191.0,0.0104
3190.0,0.0104
3189.0,0.0104
3188.0,0.0104
3187.0,0.0104
3186.0,0.0103
3185.0,0.0101
3184.0,0.0099
3183.0,0.0098
3182.0,0.0098
3181.0,0.0099
3180.0,0.0101
3179.0,0.0102
3178.0,0.0102
3177.0,0.0102
3176.0,0.01
3175.0,0.0099
3174.0,0.0098
3173.0,0.0098
3172.0,0.0099
3171.0,0.0099
3170.0,0.0098
3169.0,0.0097
3168.0,0.0097
3167.0,0.0097
3166.0,0.0096
3165.0,0.0096
3164.0,0.0095
3163.0,0.0094
3162.0,0.0093
3161.0,0.0092
3160.0,0.0092
3159.0,0.0092
3158.0,0.0092
3157.0,0.0093
3156.0,0.0093
3155.0,0.0092
3154.0,0.0091
3153.0,0.0091
3152.0,0.009
3151.0,0.0089
3150.0,0.0089
3149.0,0.0089
3148.0,0.0089
3147.0,0.0088
3146.0,0.0088
3145.0,0.0087
3144.0,0.0087
3143.0,0.0086
3142.0,0.0085
3141.0,0.0085
3140.0,0.0085
3139.0,0.0085
3138.0,0.0085
3137.0,0.0085
3136.0,0.0085
3135.0,0.0084
3134.0,0.0084
3133.0,0.0083
3132.0,0.0083
3131.0,0.0082
3130.0,0.0082
3129.0,0.0082
3128.0,0.0082
3127.0,0.0081
3126.0,0.0081
3125.0,0.008
3124.0,0.008
3123.0,0.0081
3122.0,0.0081
3121.0,0.008
3120.0,0.0079
3119.0,0.0078
3118.0,0.0077
3117.0,0.0076
3116.0,0.0077
3115.0,0.0078
3114.0,0.0079
3113.0,0.008
3112.0,0.008
3111.0,0.0079
3110.0,0.0078
3109.0,0.0077
3108.0,0.0076
3107.0,0.0075
3106.0,0.0075
3105.0,0.0075
3104.0,0.0075
3103.0,0.0075
3102.0,0.0074
3101.0,0.0074
3100.0,0.0074
3099.0,0.0074
3098.0,0.0075
3097.0,0.0075
3096.0,0.0075
3095.0,0.0075
3094.0,0.0075
3093.0,0.0074
3092.0,0.0073
3091.0,0.0072
3090.0,0.0072
3089.0,0.0072
3088.0,0.0072
3087.0,0.0072
3086.0,0.0072
3085.0,0.0073
3084.0,0.0073
3083.0,0.0073
3082.0,0.0073
3081.0,0.0072
3080.0,0.0072
3079.0,0.0071
3078.0,0.0071
3077.0,0.007
3076.0,0.007
3075.0,0.0069
3074.0,0.0068
3073.0,0.0068
3072.0,0.0067
3071.0,0.0067
3070.0,0.0066
3069.0,0.0065
3068.0,0.0064
3067.0,0.0064
3066.0,0.0065
3065.0,0.0066
3064.0,0.0067
3063.0,0.0068
3062.0,0.0068
3061.0,0.0067
3060.0,0.0065
3059.0,0.0065
3058.0,0.0064
3057.0,0.0064
3056.0,0.0063
3055.0,0.0062
3054.0,0.0061
3053.0,0.0061
3052.0,0.0061
3051.0,0.0062
3050.0,0.0062
3049.0,0.0062
3048.0,0.0061
3047.0,0.0059
3046.0,0.0059
3045.0,0.0058
3044.0,0.0059
3043.0,0.0059
3042.0,0.0059
3041.0,0.0058
3040.0,0.0058
3039.0,0.0057
3038.0,0.0057
3037.0,0.0056
3036.0,0.0056
3035.0,0.0056
3034.0,0.0056
3033.0,0.0056
3032.0,0.0055
3031.0,0.0054
3030.0,0.0054
3029.0,0.0053
3028.0,0.0053
3027.0,0.0053
3026.0,0.0053
3025.0,0.0052
3024.0,0.0052
3023.0,0.0052
3022.0,0.0051
3021.0,0.005
3020.0,0.005
3019.0,0.0049
3018.0,0.0049
3017.0,0.0048
3016.0,0.0048
3015.0,0.0047
3014.0,0.0046
3013.0,0.0045
3012.0,0.0044
3011.0,0.0043
3010.0,0.0041
3009.0,0.004
3008.0,0.004
3007.0,0.004
3006.0,0.0041
3005.0,0.0041
3004.0,0.004
3003.0,0.0039
3002.0,0.0038
3001.0,0.0037
3000.0,0.0037
2999.0,0.0037
2998.0,0.0037
2997.0,0.0037
2996.0,0.0036
2995.0,0.0035
2994.0,0.0034
2993.0,0.0034
2992.0,0.0035
2991.0,0.0035
2990.0,0.0036
2989.0,0.0037
2988.0,0.0037
2987.0,0.0036
2986.0,0.0036
2985.0,0.0037
2984.0,0.0038
2983.0,0.0039
2982.0,0.004
2981.0,0.004
2980.0,0.0042
2979.0,0.0043
2978.0,0.0046
2977.0,0.005
2976.0,0.0054
2975.0,0.0058
2974.0,0.0063
2973.0,0.0067
2972.0,0.0073
2971.0,0.0079
2970.0,0.0086
2969.0,0.0093
2968.0,0.0102
2967.0,0.011
2966.0,0.0119
2965.0,0.0127
2964.0,0.0136
2963.0,0.0144
2962.0,0.0152
2961.0,0.0159
2960.0,0.0165
2959.0,0.0169
2958.0,0.0174
2957.0,0.0178
2956.0,0.0182
2955.0,0.0186
2954.0,0.0188
2953.0,0.0191
2952.0,0.0193
2951.0,0.0195
2950.0,0.0199
2949.0,0.0206
2948.0,0.0216
2947.0,0.0228
2946.0,0.0244
2945.0,0.0264
2944.0,0.0286
2943.0,0.0312
2942.0,0.0342
2941.0,0.0376
2940.0,0.0413
2939.0,0.0452
2938.0,0.0493
2937.0,0.0538
2936.0,0.0586
2935.0,0.0637
2934.0,0.0694
2933.0,0.0755
2932.0,0.0821
2931.0,0.0891
2930.0,0.0966
2929.0,0.1046
2928.0,0.1133
2927.0,0.1228
2926.0,0.1331
2925.0,0.1444
2924.0,0.1568
2923.0,0.1703
2922.0,0.1849
2921.0,0.2004
2920.0,0.2161
2919.0,0.2312
2918.0,0.2441
2917.0,0.2527
2916.0,0.2557
2915.0,0.2524
2914.0,0.2441
2913.0,0.2324
2912.0,0.2193
2911.0,0.2063
2910.0,0.1943
2909.0,0.1837
2908.0,0.1745
2907.0,0.1664
2906.0,0.1595
2905.0,0.1535
2904.0,0.1483
2903.0,0.1438
2902.0,0.1398
2901.0,0.1363
2900.0,0.133
2899.0,0.1298
2898.0,0.1268
2897.0,0.1238
2896.0,0.1209
2895.0,0.118
2894.0,0.1152
2893.0,0.1124
2892.0,0.1096
2891.0,0.1066
2890.0,0.1034
2889.0,0.1002
2888.0,0.097
2887.0,0.0938
2886.0,0.0906
2885.0,0.0874
2884.0,0.0844
2883.0,0.0815
2882.0,0.0786
2881.0,0.0759
2880.0,0.0732
2879.0,0.0707
2878.0,0.0683
2877.0,0.0661
2876.0,0.064
2875.0,0.0622
2874.0,0.0607
2873.0,0.0594
2872.0,0.0583
2871.0,0.0573
2870.0,0.0565
2869.0,0.0559
2868.0,0.0556
2867.0,0.0556
2866.0,0.056
2865.0,0.057
2864.0,0.0586
2863.0,0.061
2862.0,0.0643
2861.0,0.0687
2860.0,0.0741
2859.0,0.0808
2858.0,0.0888
2857.0,0.0983
2856.0,0.1097
2855.0,0.1233
2854.0,0.1396
2853.0,0.1587
2852.0,0.1802
2851.0,0.2019
2850.0,0.2205
2849.0,0.2317
2848.0,0.2328
2847.0,0.224
2846.0,0.2084
2845.0,0.1899
2844.0,0.1714
2843.0,0.1545
2842.0,0.1397
2841.0,0.1272
2840.0,0.1167
2839.0,0.1077
2838.0,0.1001
2837.0,0.0937
2836.0,0.0882
2835.0,0.0835
2834.0,0.0795
2833.0,0.076
2832.0,0.0728
2831.0,0.07
2830.0,0.0675
2829.0,0.0653
2828.0,0.0632
2827.0,0.0614
2826.0,0.0596
2825.0,0.0581
2824.0,0.0566
2823.0,0.0553
2822.0,0.0541
2821.0,0.0529
2820.0,0.0519
2819.0,0.0509
2818.0,0.05
2817.0,0.0491
2816.0,0.0481
2815.0,0.0473
2814.0,0.0465
2813.0,0.0458
2812.0,0.0451
2811.0,0.0445
2810.0,0.0438
2809.0,0.0433
2808.0,0.0427
2807.0,0.0423
2806.0,0.0418
2805.0,0.0413
2804.0,0.0408
2803.0,0.0402
2802.0,0.0397
2801.0,0.0392
2800.0,0.0387
2799.0,0.0383
2798.0,0.0378
2797.0,0.0374
2796.0,0.0371
2795.0,0.0368
2794.0,0.0364
2793.0,0.0361
2792.0,0.0358
2791.0,0.0353
2790.0,0.0349
2789.0,0.0345
2788.0,0.0341
2787.0,0.0338
2786.0,0.0335
2785.0,0.0333
2784.0,0.033
2783.0,0.0327
2782.0,0.0324
2781.0,0.032
2780.0,0.0317
2779.0,0.0315
2778.0,0.0313
2777.0,0.0311
2776.0,0.0309
2775.0,0.0307
2774.0,0.0304
2773.0,0.0301
2772.0,0.0299
2771.0,0.0297
2770.0,0.0295
2769.0,0.0294
2768.0,0.0292
2767.0,0.029
2766.0,0.0288
2765.0,0.0287
2764.0,0.0286
2763.0,0.0284
2762.0,0.0283
2761.0,0.0281
2760.0,0.028
2759.0,0.0279
2758.0,0.0278
2757.0,0.0277
2756.0,0.0275
2755.0,0.0273
2754.0,0.0272
2753.0,0.027
2752.0,0.027
2751.0,0.0269
2750.0,0.0269
2749.0,0.0268
2748.0,0.0267
2747.0,0.0266
2746.0,0.0265
2745.0,0.0264
2744.0,0.0263
2743.0,0.0262
2742.0,0.0261
2741.0,0.026
2740.0,0.026
2739.0,0.0259
2738.0,0.0259
2737.0,0.0259
2736.0,0.0258
2735.0,0.0257
2734.0,0.0256
2733.0,0.0254
2732.0,0.0253
2731.0,0.0253
2730.0,0.0253
2729.0,0.0253
2728.0,0.0252
2727.0,0.0251
2726.0,0.025
2725.0,0.0248
2724.0,0.0247
2723.0,0.0246
2722.0,0.0245
2721.0,0.0245
2720.0,0.0245
2719.0,0.0245
2718.0,0.0244
2717.0,0.0242
2716.0,0.024
2715.0,0.024
2714.0,0.024
2713.0,0.024
2712.0,0.0239
2711.0,0.0239
2710.0,0.0238
2709.0,0.0237
2708.0,0.0237
2707.0,0.0236
2706.0,0.0235
2705.0,0.0235
2704.0,0.0234
2703.0,0.0233
2702.0,0.0232
2701.0,0.0231
2700.0,0.023
2699.0,0.0229
2698.0,0.0228
2697.0,0.0228
2696.0,0.0228
2695.0,0.0228
2694.0,0.0227
2693.0,0.0227
2692.0,0.0226
2691.0,0.0226
2690.0,0.0226
2689.0,0.0225
2688.0,0.0225
2687.0,0.0225
2686.0,0.0225
2685.0,0.0224
2684.0,0.0224
2683.0,0.0224
2682.0,0.0223
2681.0,0.0223
2680.0,0.0222
2679.0,0.0222
2678.0,0.0222
2677.0,0.0223
2676.0,0.0224
2675.0,0.0224
2674.0,0.0223
2673.0,0.0223
2672.0,0.0222
2671.0,0.0223
2670.0,0.0223
2669.0,0.0224
2668.0,0.0224
2667.0,0.0224
2666.0,0.0223
2665.0,0.0223
2664.0,0.0223
2663.0,0.0222
2662.0,0.0222
2661.0,0.0222
2660.0,0.0222
2659.0,0.0222
2658.0,0.0222
2657.0,0.0222
2656.0,0.0221
2655.0,0.022
2654.0,0.0219
2653.0,0.0218
2652.0,0.0218
2651.0,0.0217
2650.0,0.0217
2649.0,0.0217
2648.0,0.0217
2647.0,0.0218
2646.0,0.0218
2645.0,0.0218
2644.0,0.0218
2643.0,0.0218
2642.0,0.0217
2641.0,0.0216
2640.0,0.0215
2639.0,0.0215
2638.0,0.0215
2637.0,0.0215
2636.0,0.0215
2635.0,0.0215
2634.0,0.0215
2633.0,0.0215
2632.0,0.0214
2631.0,0.0213
2630.0,0.0213
2629.0,0.0212
2628.0,0.0212
2627.0,0.0211
2626.0,0.021
2625.0,0.0209
2624.0,0.0208
2623.0,0.0208
2622.0,0.0207
2621.0,0.0207
2620.0,0.0207
2619.0,0.0207
2618.0,0.0206
2617.0,0.0205
2616.0,0.0204
2615.0,0.0204
2614.0,0.0203
2613.0,0.0203
2612.0,0.0203
2611.0,0.0202
2610.0,0.0202
2609.0,0.0201
2608.0,0.02
2607.0,0.0199
2606.0,0.0198
2605.0,0.0197
2604.0,0.0196
2603.0,0.0196
2602.0,0.0195
2601.0,0.0195
2600.0,0.0196
2599.0,0.0196
2598.0,0.0196
2597.0,0.0196
2596.0,0.0195
2595.0,0.0195
2594.0,0.0194
2593.0,0.0193
2592.0,0.0192
2591.0,0.0191
2590.0,0.0191
2589.0,0.0191
2588.0,0.0191
2587.0,0.0191
2586.0,0.0191
2585.0,0.0191
2584.0,0.019
2583.0,0.019
2582.0,0.019
2581.0,0.019
2580.0,0.019
2579.0,0.0189
2578.0,0.0188
2577.0,0.0187
2576.0,0.0186
2575.0,0.0185
2574.0,0.0185
2573.0,0.0184
2572.0,0.0185
2571.0,0.0185
2570.0,0.0185
2569.0,0.0185
2568.0,0.0185
2567.0,0.0185
2566.0,0.0185
2565.0,0.0184
2564.0,0.0183
2563.0,0.0182
2562.0,0.0181
2561.0,0.018
2560.0,0.0179
2559.0,0.0179
2558.0,0.0179
2557.0,0.018
2556.0,0.018
2555.0,0.018
2554.0,0.018
2553.0,0.0181
2552.0,0.0181
2551.0,0.0181
2550.0,0.018
2549.0,0.018
2548.0,0.018
2547.0,0.0179
2546.0,0.0178
2545.0,0.0177
2544.0,0.0177
2543.0,0.0176
2542.0,0.0175
2541.0,0.0174
2540.0,0.0174
2539.0,0.0173
2538.0,0.0174
2537.0,0.0174
2536.0,0.0174
2535.0,0.0173
2534.0,0.0173
2533.0,0.0172
2532.0,0.0173
2531.0,0.0173
2530.0,0.0173
2529.0,0.0173
2528.0,0.0172
2527.0,0.0172
2526.0,0.0173
2525.0,0.0173
2524.0,0.0172
2523.0,0.0171
2522.0,0.0171
2521.0,0.0171
2520.0,0.0172
2519.0,0.0172
2518.0,0.0172
2517.0,0.0172
2516.0,0.0171
2515.0,0.0171
2514.0,0.017
2513.0,0.0169
2512.0,0.0169
2511.0,0.0169
2510.0,0.017
2509.0,0.017
2508.0,0.017
2507.0,0.017
2506.0,0.017
2505.0,0.0169
2504.0,0.0168
2503.0,0.0167
2502.0,0.0167
2501.0,0.0167
2500.0,0.0167
2499.0,0.0166
2498.0,0.0165
2497.0,0.0164
2496.0,0.0164
2495.0,0.0165
2494.0,0.0165
2493.0,0.0165
2492.0,0.0165
2491.0,0.0165
2490.0,0.0165
2489.0,0.0165
2488.0,0.0164
2487.0,0.0165
2486.0,0.0165
2485.0,0.0166
2484.0,0.0166
2483.0,0.0166
2482.0,0.0165
2481.0,0.0164
2480.0,0.0164
2479.0,0.0164
2478.0,0.0163
2477.0,0.0163
2476.0,0.0163
2475.0,0.0163
2474.0,0.0163
2473.0,0.0163
2472.0,0.0163
2471.0,0.0162
2470.0,0.0162
2469.0,0.0161
2468.0,0.0161
2467.0,0.0161
2466.0,0.0162
2465.0,0.0162
2464.0,0.0161
2463.0,0.016
2462.0,0.016
2461.0,0.0159
2460.0,0.016
2459.0,0.016
2458.0,0.016
2457.0,0.016
2456.0,0.016
2455.0,0.016
2454.0,0.016
2453.0,0.016
2452.0,0.016
2451.0,0.016
2450.0,0.016
2449.0,0.016
2448.0,0.016
2447.0,0.016
2446.0,0.016
2445.0,0.0159
2444.0,0.0159
2443.0,0.0158
2442.0,0.0158
2441.0,0.0157
2440.0,0.0158
2439.0,0.0158
2438.0,0.0159
2437.0,0.016
2436.0,0.016
2435.0,0.016
2434.0,0.0159
2433.0,0.0159
2432.0,0.0158
2431.0,0.0158
2430.0,0.0158
2429.0,0.0157
2428.0,0.0157
2427.0,0.0157
2426.0,0.0157
2425.0,0.0157
2424.0,0.0158
2423.0,0.0158
2422.0,0.0158
2421.0,0.0157
2420.0,0.0158
2419.0,0.0158
2418.0,0.0159
2417.0,0.0159
2416.0,0.0159
2415.0,0.0159
2414.0,0.0158
2413.0,0.0157
2412.0,0.0157
2411.0,0.0156
2410.0,0.0156
2409.0,0.0156
2408.0,0.0157
2407.0,0.0157
2406.0,0.0157
2405.0,0.0158
2404.0,0.0157
2403.0,0.0157
2402.0,0.0156
2401.0,0.0156
2400.0,0.0157
2399.0,0.0157
2398.0,0.0157
2397.0,0.0156
2396.0,0.0156
2395.0,0.0156
2394.0,0.0155
2393.0,0.0155
2392.0,0.0154
2391.0,0.0154
2390.0,0.0155
2389.0,0.0155
2388.0,0.0155
2387.0,0.0155
2386.0,0.0155
2385.0,0.0154
2384.0,0.0154
2383.0,0.0154
2382.0,0.0154
2381.0,0.0154
2380.0,0.0153
2379.0,0.0152
2378.0,0.0152
2377.0,0.0153
2376.0,0.0155
2375.0,0.0156
2374.0,0.0156
2373.0,0.0154
2372.0,0.0151
2371.0,0.0147
2370.0,0.0145
2369.0,0.0143
2368.0,0.014
2367.0,0.0138
2366.0,0.0143
2365.0,0.0155
2364.0,0.0163
2363.0,0.0157
2362.0,0.014
2361.0,0.0126
2360.0,0.0126
2359.0,0.0137
2358.0,0.015
2357.0,0.0158
2356.0,0.0156
2355.0,0.0148
2354.0,0.0138
2353.0,0.0127
2352.0,0.0121
2351.0,0.0122
2350.0,0.0129
2349.0,0.0137
2348.0,0.0142
2347.0,0.0141
2346.0,0.0139
2345.0,0.0138
2344.0,0.0141
2343.0,0.0143
2342.0,0.0139
2341.0,0.0133
2340.0,0.0131
2339.0,0.0136
2338.0,0.0144
2337.0,0.0149
2336.0,0.0148
2335.0,0.0143
2334.0,0.0137
2333.0,0.0133
2332.0,0.0129
2331.0,0.0126
2330.0,0.0126
2329.0,0.0131
2328.0,0.0137
2327.0,0.0142
2326.0,0.0144
2325.0,0.0144
2324.0,0.0144
2323.0,0.0142
2322.0,0.014
2321.0,0.0139
2320.0,0.014
2319.0,0.0141
2318.0,0.0142
2317.0,0.0143
2316.0,0.0143
2315.0,0.0143
2314.0,0.0144
2313.0,0.0145
2312.0,0.0145
2311.0,0.0145
2310.0,0.0144
2309.0,0.0143
2308.0,0.0145
2307.0,0.0146
2306.0,0.0147
2305.0,0.0148
2304.0,0.0148
2303.0,0.0148
2302.0,0.0149
2301.0,0.0149
2300.0,0.0149
2299.0,0.0149
2298.0,0.0149
2297.0,0.0148
2296.0,0.0148
2295.0,0.0149
2294.0,0.015
2293.0,0.0151
2292.0,0.0151
2291.0,0.0151
2290.0,0.015
2289.0,0.015
2288.0,0.0151
2287.0,0.0151
2286.0,0.0152
2285.0,0.0152
2284.0,0.0152
2283.0,0.0151
2282.0,0.0151
2281.0,0.015
2280.0,0.015
2279.0,0.0151
2278.0,0.0151
2277.0,0.0152
2276.0,0.0152
2275.0,0.0151
2274.0,0.015
2273.0,0.015
2272.0,0.0149
2271.0,0.0149
2270.0,0.0149
2269.0,0.0148
2268.0,0.0147
2267.0,0.0147
2266.0,0.0146
2265.0,0.0147
2264.0,0.0147
2263.0,0.0148
2262.0,0.0149
2261.0,0.0149
2260.0,0.0149
2259.0,0.0148
2258.0,0.0149
2257.0,0.0149
2256.0,0.015
2255.0,0.015
2254.0,0.015
2253.0,0.015
2252.0,0.0149
2251.0,0.0149
2250.0,0.0149
2249.0,0.0149
2248.0,0.0149
2247.0,0.0149
2246.0,0.0149
2245.0,0.0149
2244.0,0.0149
2243.0,0.0149
2242.0,0.0149
2241.0,0.0149
2240.0,0.0148
2239.0,0.0148
2238.0,0.0147
2237.0,0.0147
2236.0,0.0148
2235.0,0.0148
2234.0,0.0148
2233.0,0.0148
2232.0,0.0147
2231.0,0.0147
2230.0,0.0146
2229.0,0.0147
2228.0,0.0147
2227.0,0.0148
2226.0,0.0149
2225.0,0.0149
2224.0,0.0149
2223.0,0.0149
2222.0,0.0148
2221.0,0.0147
2220.0,0.0147
2219.0,0.0147
2218.0,0.0147
2217.0,0.0148
2216.0,0.0148
2215.0,0.0149
2214.0,0.0149
2213.0,0.0148
2212.0,0.0148
2211.0,0.0147
2210.0,0.0147
2209.0,0.0147
2208.0,0.0146
2207.0,0.0146
2206.0,0.0146
2205.0,0.0146
2204.0,0.0147
2203.0,0.0147
2202.0,0.0148
2201.0,0.0148
2200.0,0.0147
2199.0,0.0147
2198.0,0.0147
2197.0,0.0147
2196.0,0.0146
2195.0,0.0146
2194.0,0.0146
2193.0,0.0146
2192.0,0.0146
2191.0,0.0146
2190.0,0.0145
2189.0,0.0145
2188.0,0.0145
2187.0,0.0146
2186.0,0.0146
2185.0,0.0146
2184.0,0.0145
2183.0,0.0145
2182.0,0.0144
2181.0,0.0145
2180.0,0.0145
2179.0,0.0146
2178.0,0.0146
2177.0,0.0147
2176.0,0.0147
2175.0,0.0146
2174.0,0.0145
2173.0,0.0145
2172.0,0.0144
2171.0,0.0144
2170.0,0.0144
2169.0,0.0144
2168.0,0.0144
2167.0,0.0144
2166.0,0.0145
2165.0,0.0145
2164.0,0.0145
2163.0,0.0145
2162.0,0.0144
2161.0,0.0143
2160.0,0.0143
2159.0,0.0143
2158.0,0.0143
2157.0,0.0143
2156.0,0.0144
2155.0,0.0144
2154.0,0.0144
2153.0,0.0144
2152.0,0.0144
2151.0,0.0144
2150.0,0.0144
2149.0,0.0144
2148.0,0.0144
2147.0,0.0144
2146.0,0.0144
2145.0,0.0144
2144.0,0.0144
2143.0,0.0143
2142.0,0.0143
2141.0,0.0143
2140.0,0.0143
2139.0,0.0144
2138.0,0.0144
2137.0,0.0144
2136.0,0.0144
2135.0,0.0144
2134.0,0.0144
2133.0,0.0143
2132.0,0.0143
2131.0,0.0142
2130.0,0.0142
2129.0,0.0142
2128.0,0.0142
2127.0,0.0143
2126.0,0.0144
2125.0,0.0145
2124.0,0.0145
2123.0,0.0144
2122.0,0.0143
2121.0,0.0143
2120.0,0.0143
2119.0,0.0143
2118.0,0.0142
2117.0,0.0142
2116.0,0.0142
2115.0,0.0142
2114.0,0.0142
2113.0,0.0142
2112.0,0.0141
2111.0,0.0141
2110.0,0.0141
2109.0,0.0142
2108.0,0.0142
2107.0,0.0142
2106.0,0.0142
2105.0,0.0142
2104.0,0.0142
2103.0,0.0141
2102.0,0.0141
2101.0,0.0141
2100.0,0.0141
2099.0,0.0142
2098.0,0.0142
2097.0,0.0142
2096.0,0.0141
2095.0,0.0141
2094.0,0.0141
2093.0,0.0141
2092.0,0.0141
2091.0,0.0141
2090.0,0.0141
2089.0,0.0141
2088.0,0.0141
2087.0,0.0141
2086.0,0.014
2085.0,0.0139
2084.0,0.0139
2083.0,0.014
2082.0,0.0141
2081.0,0.0141
2080.0,0.0141
2079.0,0.0141
2078.0,0.014
2077.0,0.014
2076.0,0.014
2075.0,0.014
2074.0,0.0139
2073.0,0.0139
2072.0,0.014
2071.0,0.014
2070.0,0.014
2069.0,0.014
2068.0,0.0139
2067.0,0.0139
2066.0,0.0139
2065.0,0.014
2064.0,0.0141
2063.0,0.0142
2062.0,0.0142
2061.0,0.0142
2060.0,0.0141
2059.0,0.0141
2058.0,0.014
2057.0,0.014
2056.0,0.0139
2055.0,0.0139
2054.0,0.014
2053.0,0.0141
2052.0,0.0141
2051.0,0.014
2050.0,0.014
2049.0,0.014
2048.0,0.014
2047.0,0.014
2046.0,0.014
2045.0,0.0141
2044.0,0.0141
2043.0,0.0141
2042.0,0.0141
2041.0,0.014
2040.0,0.014
2039.0,0.0141
2038.0,0.0141
2037.0,0.0141
2036.0,0.0141
2035.0,0.0141
2034.0,0.0141
2033.0,0.0141
2032.0,0.0141
2031.0,0.0142
2030.0,0.0142
2029.0,0.0143
2028.0,0.0144
2027.0,0.0144
2026.0,0.0144
2025.0,0.0144
2024.0,0.0143
2023.0,0.0143
2022.0,0.0142
2021.0,0.0142
2020.0,0.0142
2019.0,0.0143
2018.0,0.0142
2017.0,0.0142
2016.0,0.0141
2015.0,0.014
2014.0,0.014
2013.0,0.0141
2012.0,0.0141
2011.0,0.014
2010.0,0.014
2009.0,0.014
2008.0,0.0139
2007.0,0.0139
2006.0,0.0139
2005.0,0.0138
2004.0,0.0138
2003.0,0.0139
2002.0,0.0139
2001.0,0.0139
2000.0,0.0139
1999.0,0.0139
1998.0,0.0138
1997.0,0.0138
1996.0,0.0138
1995.0,0.0139
1994.0,0.0139
1993.0,0.0139
1992.0,0.0138
1991.0,0.0137
1990.0,0.0137
1989.0,0.0137
1988.0,0.0138
1987.0,0.0139
1986.0,0.0139
1985.0,0.014
1984.0,0.0139
1983.0,0.0139
1982.0,0.0139
1981.0,0.0138
1980.0,0.0138
1979.0,0.0138
1978.0,0.0138
1977.0,0.0138
1976.0,0.0138
1975.0,0.0137
1974.0,0.0137
1973.0,0.0137
1972.0,0.0137
1971.0,0.0138
1970.0,0.0138
1969.0,0.0138
1968.0,0.0137
1967.0,0.0137
1966.0,0.0137
1965.0,0.0137
1964.0,0.0138
1963.0,0.0138
1962.0,0.0138
1961.0,0.0137
1960.0,0.0137
1959.0,0.0138
1958.0,0.0138
1957.0,0.0138
1956.0,0.0138
1955.0,0.0137
1954.0,0.0137
1953.0,0.0137
1952.0,0.0137
1951.0,0.0138
1950.0,0.0138
1949.0,0.0137
1948.0,0.0137
1947.0,0.0137
1946.0,0.0137
1945.0,0.0137
1944.0,0.0137
1943.0,0.0137
1942.0,0.0136
1941.0,0.0136
1940.0,0.0137
1939.0,0.0137
1938.0,0.0138
1937.0,0.0138
1936.0,0.0138
1935.0,0.0137
1934.0,0.0137
1933.0,0.0137
1932.0,0.0137
1931.0,0.0137
1930.0,0.0137
1929.0,0.0137
1928.0,0.0136
1927.0,0.0136
1926.0,0.0136
1925.0,0.0136
1924.0,0.0137
1923.0,0.0137
1922.0,0.0137
1921.0,0.0137
1920.0,0.0138
1919.0,0.0137
1918.0,0.0137
1917.0,0.0138
1916.0,0.0138
1915.0,0.0139
1914.0,0.014
1913.0,0.0139
1912.0,0.0139
1911.0,0.0139
1910.0,0.0139
1909.0,0.0138
1908.0,0.0138
1907.0,0.0139
1906.0,0.0139
1905.0,0.0139
1904.0,0.0139
1903.0,0.0139
1902.0,0.0139
1901.0,0.0139
1900.0,0.0139
1899.0,0.014
1898.0,0.014
1897.0,0.014
1896.0,0.014
1895.0,0.014
1894.0,0.0141
1893.0,0.0141
1892.0,0.0141
1891.0,0.014
1890.0,0.014
1889.0,0.0139
1888.0,0.0138
1887.0,0.0138
1886.0,0.0138
1885.0,0.0138
1884.0,0.0138
1883.0,0.0138
1882.0,0.0138
1881.0,0.0138
1880.0,0.0138
1879.0,0.0138
1878.0,0.0138
1877.0,0.0138
1876.0,0.0138
1875.0,0.0138
1874.0,0.0137
1873.0,0.0137
1872.0,0.0136
1871.0,0.0135
1870.0,0.0135
1869.0,0.0135
1868.0,0.0135
1867.0,0.0136
1866.0,0.0136
1865.0,0.0136
1864.0,0.0136
1863.0,0.0136
1862.0,0.0136
1861.0,0.0136
1860.0,0.0136
1859.0,0.0136
1858.0,0.0136
1857.0,0.0137
1856.0,0.0137
1855.0,0.0137
1854.0,0.0137
1853.0,0.0137
1852.0,0.0137
1851.0,0.0136
1850.0,0.0136
1849.0,0.0135
1848.0,0.0135
1847.0,0.0135
1846.0,0.0135
1845.0,0.0134
1844.0,0.0134
1843.0,0.0135
1842.0,0.0136
1841.0,0.0136
1840.0,0.0136
1839.0,0.0135
1838.0,0.0135
1837.0,0.0135
1836.0,0.0135
1835.0,0.0135
1834.0,0.0135
1833.0,0.0135
1832.0,0.0135
1831.0,0.0135
1830.0,0.0135
1829.0,0.0135
1828.0,0.0135
1827.0,0.0136
1826.0,0.0136
1825.0,0.0136
1824.0,0.0137
1823.0,0.0137
1822.0,0.0136
1821.0,0.0136
1820.0,0.0136
1819.0,0.0137
1818.0,0.0137
1817.0,0.0137
1816.0,0.0137
1815.0,0.0137
1814.0,0.0137
1813.0,0.0136
1812.0,0.0136
1811.0,0.0136
1810.0,0.0136
1809.0,0.0136
1808.0,0.0136
1807.0,0.0136
1806.0,0.0136
1805.0,0.0136
1804.0,0.0135
1803.0,0.0135
1802.0,0.0135
1801.0,0.0135
1800.0,0.0135
1799.0,0.0135
1798.0,0.0135
1797.0,0.0136
1796.0,0.0136
1795.0,0.0136
1794.0,0.0136
1793.0,0.0136
1792.0,0.0136
1791.0,0.0136
1790.0,0.0136
1789.0,0.0136
1788.0,0.0137
1787.0,0.0137
1786.0,0.0137
1785.0,0.0137
1784.0,0.0137
1783.0,0.0136
1782.0,0.0136
1781.0,0.0135
1780.0,0.0135
1779.0,0.0135
1778.0,0.0135
1777.0,0.0136
1776.0,0.0136
1775.0,0.0136
1774.0,0.0136
1773.0,0.0136
1772.0,0.0136
1771.0,0.0136
1770.0,0.0137
1769.0,0.0138
1768.0,0.0138
1767.0,0.0138
1766.0,0.0138
1765.0,0.0138
1764.0,0.0137
1763.0,0.0137
1762.0,0.0137
1761.0,0.0137
1760.0,0.0137
1759.0,0.0137
1758.0,0.0137
1757.0,0.0137
1756.0,0.0137
1755.0,0.0138
1754.0,0.0138
1753.0,0.0139
1752.0,0.0139
1751.0,0.0139
1750.0,0.0139
1749.0,0.0139
1748.0,0.0139
1747.0,0.0139
1746.0,0.014
1745.0,0.014
1744.0,0.0141
1743.0,0.0142
1742.0,0.0143
1741.0,0.0144
1740.0,0.0144
1739.0,0.0144
1738.0,0.0144
1737.0,0.0144
1736.0,0.0143
1735.0,0.0144
1734.0,0.0144
1733.0,0.0144
1732.0,0.0144
1731.0,0.0144
1730.0,0.0144
1729.0,0.0144
1728.0,0.0145
1727.0,0.0146
1726.0,0.0146
1725.0,0.0146
1724.0,0.0147
1723.0,0.0147
1722.0,0.0147
1721.0,0.0147
1720.0,0.0147
1719.0,0.0147
1718.0,0.0147
1717.0,0.0147
1716.0,0.0147
1715.0,0.0147
1714.0,0.0147
1713.0,0.0147
1712.0,0.0147
1711.0,0.0147
1710.0,0.0147
1709.0,0.0147
1708.0,0.0148
1707.0,0.0148
1706.0,0.0148
1705.0,0.0148
1704.0,0.0149
1703.0,0.015
1702.0,0.015
1701.0,0.015
1700.0,0.015
1699.0,0.0149
1698.0,0.015
1697.0,0.0152
1696.0,0.0154
1695.0,0.0156
1694.0,0.0156
1693.0,0.0158
1692.0,0.0159
1691.0,0.0159
1690.0,0.0161
1689.0,0.0163
1688.0,0.0165
1687.0,0.0167
1686.0,0.0169
1685.0,0.0171
1684.0,0.0173
1683.0,0.0172
1682.0,0.0172
1681.0,0.0172
1680.0,0.0172
1679.0,0.0171
1678.0,0.0171
1677.0,0.017
1676.0,0.0168
1675.0,0.0167
1674.0,0.0165
1673.0,0.0165
1672.0,0.0164
1671.0,0.0164
1670.0,0.0164
1669.0,0.0164
1668.0,0.0163
1667.0,0.0162
1666.0,0.0162
1665.0,0.0162
1664.0,0.0161
1663.0,0.0161
1662.0,0.0161
1661.0,0.0161
1660.0,0.0161
1659.0,0.0161
1658.0,0.0161
1657.0,0.0161
1656.0,0.0161
1655.0,0.016
1654.0,0.0161
1653.0,0.0162
1652.0,0.0161
1651.0,0.0161
1650.0,0.0163
1649.0,0.0163
1648.0,0.0163
1647.0,0.0163
1646.0,0.0164
1645.0,0.0164
1644.0,0.0165
1643.0,0.0165
1642.0,0.0165
1641.0,0.0164
1640.0,0.0163
1639.0,0.0161
1638.0,0.016
1637.0,0.0161
1636.0,0.0165
1635.0,0.0168
1634.0,0.0169
1633.0,0.0169
1632.0,0.017
1631.0,0.0172
1630.0,0.0173
1629.0,0.0176
1628.0,0.018
1627.0,0.0183
1626.0,0.0185
1625.0,0.0188
1624.0,0.0191
1623.0,0.0193
1622.0,0.0195
1621.0,0.0195
1620.0,0.0195
1619.0,0.0195
1618.0,0.0192
1617.0,0.0187
1616.0,0.0182
1615.0,0.0179
1614.0,0.0177
1613.0,0.0175
1612.0,0.0174
1611.0,0.0172
1610.0,0.017
1609.0,0.0168
1608.0,0.0166
1607.0,0.0164
1606.0,0.0163
1605.0,0.0162
1604.0,0.0161
1603.0,0.0161
1602.0,0.0161
1601.0,0.016
1600.0,0.016
1599.0,0.0159
1598.0,0.0158
1597.0,0.0158
1596.0,0.0157
1595.0,0.0157
1594.0,0.0157
1593.0,0.0157
1592.0,0.0157
1591.0,0.0157
1590.0,0.0156
1589.0,0.0156
1588.0,0.0156
1587.0,0.0156
1586.0,0.0156
1585.0,0.0156
1584.0,0.0157
1583.0,0.0156
1582.0,0.0156
1581.0,0.0155
1580.0,0.0154
1579.0,0.0153
1578.0,0.0152
1577.0,0.0152
1576.0,0.0153
1575.0,0.0153
1574.0,0.0154
1573.0,0.0154
1572.0,0.0154
1571.0,0.0153
1570.0,0.0152
1569.0,0.0152
1568.0,0.0151
1567.0,0.0151
1566.0,0.0151
1565.0,0.0151
1564.0,0.0151
1563.0,0.0151
1562.0,0.0151
1561.0,0.015
1560.0,0.0151
1559.0,0.0153
1558.0,0.0152
1557.0,0.0151
1556.0,0.0151
1555.0,0.0151
1554.0,0.015
1553.0,0.015
1552.0,0.015
1551.0,0.015
1550.0,0.015
1549.0,0.015
1548.0,0.0151
1547.0,0.0151
1546.0,0.015
1545.0,0.015
1544.0,0.015
1543.0,0.015
1542.0,0.015
1541.0,0.0151
1540.0,0.0151
1539.0,0.0148
1538.0,0.0147
1537.0,0.0148
1536.0,0.0148
1535.0,0.0147
1534.0,0.0145
1533.0,0.0146
1532.0,0.0147
1531.0,0.0147
1530.0,0.0147
1529.0,0.0147
1528.0,0.0146
1527.0,0.0146
1526.0,0.0144
1525.0,0.0144
1524.0,0.0144
1523.0,0.0143
1522.0,0.0143
1521.0,0.0144
1520.0,0.0145
1519.0,0.0145
1518.0,0.0144
1517.0,0.0143
1516.0,0.0143
1515.0,0.0143
1514.0,0.0143
1513.0,0.0143
1512.0,0.0144
1511.0,0.0143
1510.0,0.0142
1509.0,0.0143
1508.0,0.0145
1507.0,0.0145
1506.0,0.0142
1505.0,0.0141
1504.0,0.0141
1503.0,0.0141
1502.0,0.0141
1501.0,0.0141
1500.0,0.0142
1499.0,0.0141
1498.0,0.014
1497.0,0.014
1496.0,0.0141
1495.0,0.014
1494.0,0.014
1493.0,0.0139
1492.0,0.0138
1491.0,0.0135
1490.0,0.0134
1489.0,0.0135
1488.0,0.0138
1487.0,0.0138
1486.0,0.0137
1485.0,0.0138
1484.0,0.014
1483.0,0.0141
1482.0,0.0142
1481.0,0.0147
1480.0,0.0154
1479.0,0.0164
1478.0,0.0187
1477.0,0.0238
1476.0,0.0323
1475.0,0.0437
1474.0,0.0571
1473.0,0.069
1472.0,0.0739
1471.0,0.0732
1470.0,0.0721
1469.0,0.0722
1468.0,0.0733
1467.0,0.0757
1466.0,0.0812
1465.0,0.0897
1464.0,0.0968
1463.0,0.0987
1462.0,0.0954
1461.0,0.0887
1460.0,0.0804
1459.0,0.0719
1458.0,0.0645
1457.0,0.0592
1456.0,0.0558
1455.0,0.0534
1454.0,0.0512
1453.0,0.0488
1452.0,0.0463
1451.0,0.0441
1450.0,0.0425
1449.0,0.041
1448.0,0.0397
1447.0,0.0388
1446.0,0.0382
1445.0,0.0376
1444.0,0.037
1443.0,0.0365
1442.0,0.0359
1441.0,0.0353
1440.0,0.0346
1439.0,0.0341
1438.0,0.0335
1437.0,0.0329
1436.0,0.0322
1435.0,0.0315
1434.0,0.0309
1433.0,0.0301
1432.0,0.0293
1431.0,0.0284
1430.0,0.0276
1429.0,0.0269
1428.0,0.0262
1427.0,0.0256
1426.0,0.025
1425.0,0.0244
1424.0,0.0239
1423.0,0.0235
1422.0,0.0233
1421.0,0.023
1420.0,0.0226
1419.0,0.0224
1418.0,0.0223
1417.0,0.0221
1416.0,0.022
1415.0,0.0219
1414.0,0.0218
1413.0,0.0217
1412.0,0.0216
1411.0,0.0215
1410.0,0.0215
1409.0,0.0214
1408.0,0.0212
1407.0,0.0211
1406.0,0.021
1405.0,0.0209
1404.0,0.0208
1403.0,0.0207
1402.0,0.0207
1401.0,0.0205
1400.0,0.0204
1399.0,0.0204
1398.0,0.0203
1397.0,0.0203
1396.0,0.0202
1395.0,0.0203
1394.0,0.0203
1393.0,0.0202
1392.0,0.0202
1391.0,0.0202
1390.0,0.0202
1389.0,0.0202
1388.0,0.0202
1387.0,0.0204
1386.0,0.0207
1385.0,0.0211
1384.0,0.0215
1383.0,0.0221
1382.0,0.0229
1381.0,0.0239
1380.0,0.0248
1379.0,0.0257
1378.0,0.0262
1377.0,0.0262
1376.0,0.0259
1375.0,0.0256
1374.0,0.0253
1373.0,0.0253
1372.0,0.0254
1371.0,0.0255
1370.0,0.0257
1369.0,0.0258
1368.0,0.0258
1367.0,0.0256
1366.0,0.0254
1365.0,0.0251
1364.0,0.0247
1363.0,0.0244
1362.0,0.0243
1361.0,0.0241
1360.0,0.024
1359.0,0.0239
1358.0,0.0238
1357.0,0.0238
1356.0,0.0239
1355.0,0.024
1354.0,0.024
1353.0,0.024
1352.0,0.024
1351.0,0.0239
1350.0,0.0238
1349.0,0.0237
1348.0,0.0236
1347.0,0.0235
1346.0,0.0234
1345.0,0.0233
1344.0,0.0231
1343.0,0.0229
1342.0,0.0226
1341.0,0.0224
1340.0,0.0223
1339.0,0.0222
1338.0,0.0222
1337.0,0.0221
1336.0,0.022
1335.0,0.0218
1334.0,0.0217
1333.0,0.0216
1332.0,0.0215
1331.0,0.0214
1330.0,0.0214
1329.0,0.0213
1328.0,0.0213
1327.0,0.0213
1326.0,0.0213
1325.0,0.0213
1324.0,0.0214
1323.0,0.0214
1322.0,0.0215
1321.0,0.0215
1320.0,0.0216
1319.0,0.0217
1318.0,0.0218
1317.0,0.022
1316.0,0.0221
1315.0,0.0223
1314.0,0.0225
1313.0,0.0226
1312.0,0.0227
1311.0,0.0228
1310.0,0.0228
1309.0,0.0229
1308.0,0.0229
1307.0,0.023
1306.0,0.023
1305.0,0.0231
1304.0,0.0232
1303.0,0.0232
1302.0,0.0232
1301.0,0.0233
1300.0,0.0233
1299.0,0.0233
1298.0,0.0233
1297.0,0.0232
1296.0,0.0232
1295.0,0.0231
1294.0,0.023
1293.0,0.0229
1292.0,0.0228
1291.0,0.0227
1290.0,0.0226
1289.0,0.0225
1288.0,0.0224
1287.0,0.0224
1286.0,0.0224
1285.0,0.0223
1284.0,0.0223
1283.0,0.0223
1282.0,0.0223
1281.0,0.0224
1280.0,0.0224
1279.0,0.0223
1278.0,0.0223
1277.0,0.0223
1276.0,0.0223
1275.0,0.0224
1274.0,0.0224
1273.0,0.0223
1272.0,0.0223
1271.0,0.0223
1270.0,0.0223
1269.0,0.0224
1268.0,0.0225
1267.0,0.0225
1266.0,0.0226
1265.0,0.0227
1264.0,0.0227
1263.0,0.0227
1262.0,0.0226
1261.0,0.0226
1260.0,0.0226
1259.0,0.0226
1258.0,0.0226
1257.0,0.0226
1256.0,0.0226
1255.0,0.0225
1254.0,0.0225
1253.0,0.0224
1252.0,0.0223
1251.0,0.0222
1250.0,0.0223
1249.0,0.0223
1248.0,0.0223
1247.0,0.0223
1246.0,0.0223
1245.0,0.0223
1244.0,0.0223
1243.0,0.0223
1242.0,0.0223
1241.0,0.0224
1240.0,0.0224
1239.0,0.0225
1238.0,0.0225
1237.0,0.0225
1236.0,0.0225
1235.0,0.0225
1234.0,0.0225
1233.0,0.0225
1232.0,0.0225
1231.0,0.0225
1230.0,0.0226
1229.0,0.0226
1228.0,0.0226
1227.0,0.0226
1226.0,0.0225
1225.0,0.0226
1224.0,0.0227
1223.0,0.0228
1222.0,0.0229
1221.0,0.023
1220.0,0.0231
1219.0,0.0232
1218.0,0.0233
1217.0,0.0233
1216.0,0.0233
1215.0,0.0233
1214.0,0.0233
1213.0,0.0233
1212.0,0.0233
1211.0,0.0233
1210.0,0.0234
1209.0,0.0235
1208.0,0.0236
1207.0,0.0237
1206.0,0.0238
1205.0,0.0238
1204.0,0.0239
1203.0,0.0241
1202.0,0.0242
1201.0,0.0244
1200.0,0.0245
1199.0,0.0247
1198.0,0.0248
1197.0,0.0249
1196.0,0.025
1195.0,0.0251
1194.0,0.0252
1193.0,0.0253
1192.0,0.0254
1191.0,0.0256
1190.0,0.0258
1189.0,0.026
1188.0,0.0262
1187.0,0.0263
1186.0,0.0265
1185.0,0.0266
1184.0,0.0268
1183.0,0.027
1182.0,0.0272
1181.0,0.0274
1180.0,0.0276
1179.0,0.0278
1178.0,0.028
1177.0,0.0282
1176.0,0.0283
1175.0,0.0285
1174.0,0.0287
1173.0,0.0289
1172.0,0.0292
1171.0,0.0294
1170.0,0.0296
1169.0,0.0297
1168.0,0.0299
1167.0,0.0301
1166.0,0.0303
1165.0,0.0305
1164.0,0.0308
1163.0,0.031
1162.0,0.0313
1161.0,0.0315
1160.0,0.0317
1159.0,0.032
1158.0,0.0322
1157.0,0.0325
1156.0,0.0327
1155.0,0.0329
1154.0,0.0332
1153.0,0.0335
1152.0,0.0338
1151.0,0.0342
1150.0,0.0346
1149.0,0.035
1148.0,0.0355
1147.0,0.0359
1146.0,0.0363
1145.0,0.0367
1144.0,0.037
1143.0,0.0374
1142.0,0.0378
1141.0,0.0381
1140.0,0.0385
1139.0,0.0388
1138.0,0.0391
1137.0,0.0393
1136.0,0.0394
1135.0,0.0395
1134.0,0.0396
1133.0,0.0397
1132.0,0.0398
1131.0,0.0399
1130.0,0.04
1129.0,0.0401
1128.0,0.0401
1127.0,0.0402
1126.0,0.0403
1125.0,0.0404
1124.0,0.0405
1123.0,0.0407
1122.0,0.0408
1121.0,0.0409
1120.0,0.041
1119.0,0.0411
1118.0,0.0412
1117.0,0.0414
1116.0,0.0416
1115.0,0.0418
1114.0,0.0419
1113.0,0.0419
1112.0,0.042
1111.0,0.042
1110.0,0.042
1109.0,0.042
1108.0,0.042
1107.0,0.042
1106.0,0.0419
1105.0,0.0418
1104.0,0.0416
1103.0,0.0413
1102.0,0.0411
1101.0,0.0409
1100.0,0.0406
1099.0,0.0404
1098.0,0.0401
1097.0,0.0399
1096.0,0.0397
1095.0,0.0395
1094.0,0.0393
1093.0,0.039
1092.0,0.0386
1091.0,0.0383
1090.0,0.0381
1089.0,0.0379
1088.0,0.0378
1087.0,0.0376
1086.0,0.0374
1085.0,0.0371
1084.0,0.0368
1083.0,0.0365
1082.0,0.0361
1081.0,0.0359
1080.0,0.0356
1079.0,0.0353
1078.0,0.035
1077.0,0.0347
1076.0,0.0344
1075.0,0.0341
1074.0,0.0338
1073.0,0.0337
1072.0,0.0335
1071.0,0.0334
1070.0,0.0333
1069.0,0.0331
1068.0,0.0329
1067.0,0.0327
1066.0,0.0325
1065.0,0.0323
1064.0,0.032
1063.0,0.0318
1062.0,0.0317
1061.0,0.0316
1060.0,0.0314
1059.0,0.0312
1058.0,0.031
1057.0,0.0308
1056.0,0.0307
1055.0,0.0306
1054.0,0.0304
1053.0,0.0303
1052.0,0.0301
1051.0,0.0301
1050.0,0.03
1049.0,0.03
1048.0,0.0299
1047.0,0.0298
1046.0,0.0297
1045.0,0.0296
1044.0,0.0295
1043.0,0.0293
1042.0,0.0292
1041.0,0.0291
1040.0,0.029
1039.0,0.0289
1038.0,0.0288
1037.0,0.0288
1036.0,0.0287
1035.0,0.0288
1034.0,0.0288
1033.0,0.0288
1032.0,0.0288
1031.0,0.0288
1030.0,0.0286
1029.0,0.0285
1028.0,0.0285
1027.0,0.0285
1026.0,0.0286
1025.0,0.0285
1024.0,0.0284
1023.0,0.0283
1022.0,0.0282
1021.0,0.0281
1020.0,0.028
1019.0,0.028
1018.0,0.0279
1017.0,0.0279
1016.0,0.0278
1015.0,0.0278
1014.0,0.0277
1013.0,0.0277
1012.0,0.0277
1011.0,0.0277
1010.0,0.0278
1009.0,0.0278
1008.0,0.0279
1007.0,0.0281
1006.0,0.0284
1005.0,0.0285
1004.0,0.0285
1003.0,0.0283
1002.0,0.028
1001.0,0.0277
1000.0,0.0274
999.0,0.0272
998.0,0.0271
997.0,0.0271
996.0,0.0271
995.0,0.0271
994.0,0.027
993.0,0.0269
992.0,0.0268
991.0,0.0268
990.0,0.0267
989.0,0.0267
988.0,0.0266
987.0,0.0266
986.0,0.0266
985.0,0.0266
984.0,0.0266
983.0,0.0266
982.0,0.0267
981.0,0.0267
980.0,0.0267
979.0,0.0266
978.0,0.0266
977.0,0.0265
976.0,0.0265
975.0,0.0265
974.0,0.0266
973.0,0.0267
972.0,0.0267
971.0,0.0266
970.0,0.0265
969.0,0.0265
968.0,0.0265
967.0,0.0266
966.0,0.0266
965.0,0.0266
964.0,0.0266
963.0,0.0265
962.0,0.0264
961.0,0.0263
960.0,0.0264
959.0,0.0264
958.0,0.0265
957.0,0.0265
956.0,0.0264
955.0,0.0264
954.0,0.0263
953.0,0.0263
952.0,0.0263
951.0,0.0263
950.0,0.0264
949.0,0.0264
948.0,0.0266
947.0,0.0267
946.0,0.0267
945.0,0.0266
944.0,0.0265
943.0,0.0264
942.0,0.0263
941.0,0.0264
940.0,0.0266
939.0,0.0267
938.0,0.0268
937.0,0.0268
936.0,0.0267
935.0,0.0265
934.0,0.0264
933.0,0.0264
932.0,0.0264
931.0,0.0264
930.0,0.0264
929.0,0.0264
928.0,0.0265
927.0,0.0266
926.0,0.0266
925.0,0.0267
924.0,0.0267
923.0,0.0267
922.0,0.0268
921.0,0.0268
920.0,0.0269
919.0,0.0269
918.0,0.0268
917.0,0.0268
916.0,0.0268
915.0,0.0268
914.0,0.0267
913.0,0.0267
912.0,0.0268
911.0,0.0269
910.0,0.027
909.0,0.0271
908.0,0.0272
907.0,0.0272
906.0,0.0272
905.0,0.0272
904.0,0.0272
903.0,0.0272
902.0,0.0271
901.0,0.0271
900.0,0.0271
899.0,0.0271
898.0,0.0272
897.0,0.0272
896.0,0.0274
895.0,0.0275
894.0,0.0275
893.0,0.0276
892.0,0.0277
891.0,0.0278
890.0,0.0279
889.0,0.028
888.0,0.0281
887.0,0.028
886.0,0.028
885.0,0.0279
884.0,0.0278
883.0,0.0278
882.0,0.0277
881.0,0.0277
880.0,0.0276
879.0,0.0275
878.0,0.0276
877.0,0.0276
876.0,0.0276
875.0,0.0275
874.0,0.0275
873.0,0.0275
872.0,0.0275
871.0,0.0275
870.0,0.0275
869.0,0.0275
868.0,0.0275
867.0,0.0275
866.0,0.0276
865.0,0.0276
864.0,0.0275
863.0,0.0274
862.0,0.0273
861.0,0.0273
860.0,0.0273
859.0,0.0273
858.0,0.0273
857.0,0.0272
856.0,0.027
855.0,0.027
854.0,0.027
853.0,0.0271
852.0,0.0271
851.0,0.027
850.0,0.0268
849.0,0.0267
848.0,0.0268
847.0,0.027
846.0,0.0271
845.0,0.0271
844.0,0.0269
843.0,0.0268
842.0,0.0268
841.0,0.0269
840.0,0.0269
839.0,0.0269
838.0,0.0268
837.0,0.0268
836.0,0.0268
835.0,0.0268
834.0,0.0268
833.0,0.0268
832.0,0.0267
831.0,0.0266
830.0,0.0265
829.0,0.0265
828.0,0.0265
827.0,0.0265
826.0,0.0265
825.0,0.0266
824.0,0.0266
823.0,0.0266
822.0,0.0266
821.0,0.0266
820.0,0.0266
819.0,0.0265
818.0,0.0265
817.0,0.0264
816.0,0.0266
815.0,0.0269
814.0,0.0271
813.0,0.0272
812.0,0.0271
811.0,0.0269
810.0,0.0268
809.0,0.0268
808.0,0.027
807.0,0.0271
806.0,0.0272
805.0,0.0273
804.0,0.0273
803.0,0.0273
802.0,0.0272
801.0,0.0272
800.0,0.0272
799.0,0.0273
798.0,0.0274
797.0,0.0274
796.0,0.0272
795.0,0.0271
794.0,0.0271
793.0,0.0272
792.0,0.0273
791.0,0.0273
790.0,0.0273
789.0,0.0271
788.0,0.027
787.0,0.0269
786.0,0.027
785.0,0.0272
784.0,0.0274
783.0,0.0275
782.0,0.0276
781.0,0.0276
780.0,0.0277
779.0,0.0278
778.0,0.0278
777.0,0.0276
776.0,0.0275
775.0,0.0274
774.0,0.0273
773.0,0.0274
772.0,0.0274
771.0,0.0276
770.0,0.0277
769.0,0.0278
768.0,0.0278
767.0,0.0277
766.0,0.0276
765.0,0.0275
764.0,0.0274
763.0,0.0273
762.0,0.0272
761.0,0.0272
760.0,0.0272
759.0,0.0273
758.0,0.0272
757.0,0.0272
756.0,0.0271
755.0,0.027
754.0,0.027
753.0,0.0271
752.0,0.0272
751.0,0.0272
750.0,0.0271
749.0,0.0271
748.0,0.0274
747.0,0.0277
746.0,0.0278
745.0,0.0277
744.0,0.0275
743.0,0.0272
742.0,0.0272
741.0,0.0274
740.0,0.0278
739.0,0.0282
738.0,0.0285
737.0,0.029
736.0,0.0302
735.0,0.0328
734.0,0.038
733.0,0.0469
732.0,0.0588
731.0,0.0703
730.0,0.0773
729.0,0.0779
728.0,0.0741
727.0,0.0696
726.0,0.0671
725.0,0.0671
724.0,0.0696
723.0,0.0754
722.0,0.0856
721.0,0.0994
720.0,0.112
719.0,0.1169
718.0,0.1122
717.0,0.1014
716.0,0.0892
715.0,0.0787
714.0,0.0706
713.0,0.0645
712.0,0.0597
711.0,0.0557
710.0,0.0524
709.0,0.0496
708.0,0.0473
707.0,0.0454
706.0,0.0442
705.0,0.0434
704.0,0.043
703.0,0.0426
702.0,0.0417
701.0,0.0405
700.0,0.0394
699.0,0.0387
698.0,0.0382
697.0,0.0375
696.0,0.0367
695.0,0.0363
694.0,0.0365
693.0,0.0372
692.0,0.0375
691.0,0.0371
690.0,0.0359
689.0,0.0347
688.0,0.0343
687.0,0.0349
686.0,0.0357
685.0,0.0358
684.0,0.035
683.0,0.0339
682.0,0.0335
681.0,0.0341
680.0,0.0356
679.0,0.0373
678.0,0.0384
677.0,0.0388
676.0,0.0388
675.0,0.0384
674.0,0.0378
673.0,0.0374
672.0,0.0375
671.0,0.0381
670.0,0.0387
669.0,0.0383
668.0,0.0376
667.0,0.0387
666.0,0.0399
665.0,0.0398
664.0,0.0389
663.0,0.0377
662.0,0.0367
661.0,0.0357
660.0,0.0345
659.0,0.033
658.0,0.0316
657.0,0.0308
656.0,0.0312
655.0,0.0323
654.0,0.0332
653.0,0.0332
652.0,0.0324
651.0,0.0316
650.0,0.0315
649.0,0.0322
648.0,0.033
647.0,0.0333
646.0,0.0327
645.0,0.0315
644.0,0.0304
643.0,0.03
642.0,0.0303
641.0,0.0311
640.0,0.0326
639.0,0.0346
638.0,0.0365
637.0,0.0376
636.0,0.0381
635.0,0.0382
634.0,0.0377
633.0,0.0363
632.0,0.0348
631.0,0.0341
630.0,0.0346
629.0,0.0354
628.0,0.0358
627.0,0.0355
626.0,0.0349
625.0,0.0343
624.0,0.034
623.0,0.034
622.0,0.0344
621.0,0.035
620.0,0.0361
619.0,0.0375
618.0,0.039
617.0,0.0401
616.0,0.0407
615.0,0.0413
614.0,0.0418
613.0,0.0422
612.0,0.0422
611.0,0.0419
610.0,0.0414
609.0,0.0411
608.0,0.0414
607.0,0.0422
606.0,0.0431
605.0,0.0438
604.0,0.0446
603.0,0.0459
602.0,0.0479
601.0,0.0497
600.0,0.0507
