cm-1,A
4000.0,0.0064
3999.0,0.0064
3998.0,0.0065
3997.0,0.0066
3996.0,0.0067
3995.0,0.0067
3994.0,0.0066
3993.0,0.0065
3992.0,0.0065
3991.0,0.0065
3990.0,0.0066
3989.0,0.0066
3988.0,0.0066
3987.0,0.0066
3986.0,0.0065
3985.0,0.0066
3984.0,0.0066
3983.0,0.0066
3982.0,0.0066
3981.0,0.0067
3980.0,0.0067
3979.0,0.0067
3978.0,0.0068
3977.0,0.0068
3976.0,0.0068
3975.0,0.0068
3974.0,0.0068
3973.0,0.0068
3972.0,0.0067
3971.0,0.0067
3970.0,0.0067
3969.0,0.0066
3968.0,0.0066
3967.0,0.0065
3966.0,0.0066
3965.0,0.0066
3964.0,0.0066
3963.0,0.0067
3962.0,0.0067
3961.0,0.0067
3960.0,0.0067
3959.0,0.0067
3958.0,0.0067
3957.0,0.0067
3956.0,0.0068
3955.0,0.0068
3954.0,0.0068
3953.0,0.0068
3952.0,0.0068
3951.0,0.0068
3950.0,0.0068
3949.0,0.0068
3948.0,0.0068
3947.0,0.0067
3946.0,0.0068
3945.0,0.0068
3944.0,0.0069
3943.0,0.007
3942.0,0.0071
3941.0,0.007
3940.0,0.0069
3939.0,0.0068
3938.0,0.0068
3937.0,0.0068
3936.0,0.0068
3935.0,0.0069
3934.0,0.0069
3933.0,0.007
3932.0,0.007
3931.0,0.0071
3930.0,0.0071
3929.0,0.0071
3928.0,0.0071
3927.0,0.0071
3926.0,0.007
3925.0,0.007
3924.0,0.0069
3923.0,0.007
3922.0,0.0071
3921.0,0.0071
3920.0,0.0072
3919.0,0.0073
3918.0,0.0073
3917.0,0.0073
3916.0,0.0071
3915.0,0.007
3914.0,0.007
3913.0,0.007
3912.0,0.007
3911.0,0.007
3910.0,0.007
3909.0,0.0071
3908.0,0.0071
3907.0,0.0072
3906.0,0.0072
3905.0,0.0071
3904.0,0.0071
3903.0,0.0072
3902.0,0.0073
3901.0,0.0074
3900.0,0.0075
3899.0,0.0075
3898.0,0.0074
3897.0,0.0073
3896.0,0.0072
3895.0,0.0071
3894.0,0.0069
3893.0,0.0068
3892.0,0.0067
3891.0,0.0067
3890.0,0.0068
3889.0,0.0069
3888.0,0.0069
3887.0,0.0069
3886.0,0.007
3885.0,0.0071
3884.0,0.0072
3883.0,0.0072
3882.0,0.0071
3881.0,0.0071
3880.0,0.007
3879.0,0.0071
3878.0,0.0072
3877.0,0.0073
3876.0,0.0073
3875.0,0.0074
3874.0,0.0074
3873.0,0.0076
3872.0,0.0078
3871.0,0.0079
3870.0,0.0079
3869.0,0.0079
3868.0,0.0079
3867.0,0.0079
3866.0,0.0078
3865.0,0.0077
3864.0,0.0076
3863.0,0.0076
3862.0,0.0075
3861.0,0.0075
3860.0,0.0075
3859.0,0.0076
3858.0,0.0076
3857.0,0.0077
3856.0,0.0077
3855.0,0.0076
3854.0,0.0075
3853.0,0.0076
3852.0,0.0077
3851.0,0.0077
3850.0,0.0077
3849.0,0.0077
3848.0,0.0076
3847.0,0.0075
3846.0,0.0074
3845.0,0.0074
3844.0,0.0075
3843.0,0.0077
3842.0,0.0078
3841.0,0.0079
3840.0,0.0078
3839.0,0.0077
3838.0,0.0076
3837.0,0.0077
3836.0,0.0077
3835.0,0.0078
3834.0,0.0079
3833.0,0.008
3832.0,0.008
3831.0,0.0079
3830.0,0.0079
3829.0,0.0079
3828.0,0.0079
3827.0,0.0078
3826.0,0.0078
3825.0,0.0079
3824.0,0.008
3823.0,0.008
3822.0,0.008
3821.0,0.008
3820.0,0.008
3819.0,0.0081
3818.0,0.0081
3817.0,0.0081
3816.0,0.0079
3815.0,0.0078
3814.0,0.0077
3813.0,0.0076
3812.0,0.0076
3811.0,0.0075
3810.0,0.0076
3809.0,0.0077
3808.0,0.0079
3807.0,0.008
3806.0,0.0081
3805.0,0.0082
3804.0,0.0083
3803.0,0.0083
3802.0,0.0083
3801.0,0.0083
3800.0,0.0082
3799.0,0.0082
3798.0,0.008
3797.0,0.0079
3796.0,0.0078
3795.0,0.0078
3794.0,0.0078
3793.0,0.0077
3792.0,0.0077
3791.0,0.0077
3790.0,0.0078
3789.0,0.0078
3788.0,0.0078
3787.0,0.0078
3786.0,0.0079
3785.0,0.008
3784.0,0.008
3783.0,0.008
3782.0,0.008
3781.0,0.0081
3780.0,0.0081
3779.0,0.0081
3778.0,0.008
3777.0,0.0079
3776.0,0.0078
3775.0,0.0078
3774.0,0.0079
3773.0,0.0081
3772.0,0.0082
3771.0,0.0082
3770.0,0.0082
3769.0,0.0082
3768.0,0.0082
3767.0,0.0082
3766.0,0.0081
3765.0,0.008
3764.0,0.008
3763.0,0.008
3762.0,0.0079
3761.0,0.0079
3760.0,0.0081
3759.0,0.0084
3758.0,0.0085
3757.0,0.0085
3756.0,0.0085
3755.0,0.0084
3754.0,0.0083
3753.0,0.0081
3752.0,0.0079
3751.0,0.0078
3750.0,0.0078
3749.0,0.0079
3748.0,0.008
3747.0,0.0082
3746.0,0.0082
3745.0,0.0082
3744.0,0.0082
3743.0,0.0082
3742.0,0.0082
3741.0,0.0082
3740.0,0.0082
3739.0,0.0082
3738.0,0.0082
3737.0,0.008
3736.0,0.0079
3735.0,0.0079
3734.0,0.008
3733.0,0.0081
3732.0,0.008
3731.0,0.0078
3730.0,0.0077
3729.0,0.0076
3728.0,0.0075
3727.0,0.0076
3726.0,0.0078
3725.0,0.008
3724.0,0.0081
3723.0,0.0081
3722.0,0.008
3721.0,0.0079
3720.0,0.0079
3719.0,0.0078
3718.0,0.0078
3717.0,0.0078
3716.0,0.0078
3715.0,0.0079
3714.0,0.0079
3713.0,0.0079
3712.0,0.008
3711.0,0.0079
3710.0,0.0079
3709.0,0.0077
3708.0,0.0076
3707.0,0.0075
3706.0,0.0075
3705.0,0.0076
3704.0,0.0077
3703.0,0.0078
3702.0,0.0079
3701.0,0.0079
3700.0,0.0078
3699.0,0.0078
3698.0,0.0077
3697.0,0.0077
3696.0,0.0077
3695.0,0.0078
3694.0,0.0079
3693.0,0.008
3692.0,0.0081
3691.0,0.0082
3690.0,0.0083
3689.0,0.0083
3688.0,0.0082
3687.0,0.0082
3686.0,0.0082
3685.0,0.0082
3684.0,0.0082
3683.0,0.0082
3682.0,0.0083
3681.0,0.0083
3680.0,0.0084
3679.0,0.0084
3678.0,0.0085
3677.0,0.0085
3676.0,0.0086
3675.0,0.0088
3674.0,0.0089
3673.0,0.0089
3672.0,0.0087
3671.0,0.0086
3670.0,0.0085
3669.0,0.0086
3668.0,0.0086
3667.0,0.0085
3666.0,0.0085
3665.0,0.0085
3664.0,0.0085
3663.0,0.0085
3662.0,0.0085
3661.0,0.0084
3660.0,0.0084
3659.0,0.0085
3658.0,0.0085
3657.0,0.0086
3656.0,0.0087
3655.0,0.0087
3654.0,0.0087
3653.0,0.0088
3652.0,0.0088
3651.0,0.009
3650.0,0.0092
3649.0,0.0093
3648.0,0.0092
3647.0,0.009
3646.0,0.0088
3645.0,0.0086
3644.0,0.0084
3643.0,0.0082
3642.0,0.0081
3641.0,0.008
3640.0,0.008
3639.0,0.008
3638.0,0.008
3637.0,0.0081
3636.0,0.0082
3635.0,0.0082
3634.0,0.0082
3633.0,0.0082
3632.0,0.0082
3631.0,0.0082
3630.0,0.0083
3629.0,0.0084
3628.0,0.0084
3627.0,0.0083
3626.0,0.0081
3625.0,0.008
3624.0,0.008
3623.0,0.0082
3622.0,0.0085
3621.0,0.0087
3620.0,0.0089
3619.0,0.0089
3618.0,0.0089
3617.0,0.009
3616.0,0.0091
3615.0,0.0092
3614.0,0.0091
3613.0,0.009
3612.0,0.0088
3611.0,0.0087
3610.0,0.0086
3609.0,0.0086
3608.0,0.0087
3607.0,0.0088
3606.0,0.0088
3605.0,0.0087
3604.0,0.0085
3603.0,0.0084
3602.0,0.0085
3601.0,0.0086
3600.0,0.0087
3599.0,0.0088
3598.0,0.0089
3597.0,0.0088
3596.0,0.0088
3595.0,0.0088
3594.0,0.0088
3593.0,0.0088
3592.0,0.0088
3591.0,0.0089
3590.0,0.009
3589.0,0.0091
3588.0,0.0092
3587.0,0.0093
3586.0,0.0093
3585.0,0.0092
3584.0,0.0091
3583.0,0.009
3582.0,0.009
3581.0,0.009
3580.0,0.0091
3579.0,0.0092
3578.0,0.0092
3577.0,0.0092
3576.0,0.0093
3575.0,0.0093
3574.0,0.0093
3573.0,0.0093
3572.0,0.0093
3571.0,0.0092
3570.0,0.0092
3569.0,0.0093
3568.0,0.0095
3567.0,0.0097
3566.0,0.0098
3565.0,0.0098
3564.0,0.0097
3563.0,0.0096
3562.0,0.0095
3561.0,0.0095
3560.0,0.0096
3559.0,0.0097
3558.0,0.0098
3557.0,0.01
3556.0,0.01
3555.0,0.0101
3554.0,0.01
3553.0,0.0099
3552.0,0.0097
3551.0,0.0096
3550.0,0.0095
3549.0,0.0095
3548.0,0.0097
3547.0,0.0099
3546.0,0.01
3545.0,0.0101
3544.0,0.0101
3543.0,0.0101
3542.0,0.0101
3541.0,0.0101
3540.0,0.0101
3539.0,0.0101
3538.0,0.0101
3537.0,0.0101
3536.0,0.0101
3535.0,0.0101
3534.0,0.0101
3533.0,0.0101
3532.0,0.0101
3531.0,0.0101
3530.0,0.0101
3529.0,0.0101
3528.0,0.0101
3527.0,0.0101
3526.0,0.0102
3525.0,0.0102
3524.0,0.0102
3523.0,0.0102
3522.0,0.0102
3521.0,0.0102
3520.0,0.0102
3519.0,0.0103
3518.0,0.0104
3517.0,0.0105
3516.0,0.0106
3515.0,0.0105
3514.0,0.0105
3513.0,0.0105
3512.0,0.0106
3511.0,0.0107
3510.0,0.0108
3509.0,0.0107
3508.0,0.0106
3507.0,0.0105
3506.0,0.0104
3505.0,0.0105
3504.0,0.0105
3503.0,0.0106
3502.0,0.0105
3501.0,0.0104
3500.0,0.0104
3499.0,0.0104
3498.0,0.0104
3497.0,0.0105
3496.0,0.0107
3495.0,0.0108
3494.0,0.0109
3493.0,0.0109
3492.0,0.0109
3491.0,0.0108
3490.0,0.0107
3489.0,0.0107
3488.0,0.0107
3487.0,0.0107
3486.0,0.0107
3485.0,0.0108
3484.0,0.0109
3483.0,0.011
3482.0,0.0111
3481.0,0.0111
3480.0,0.011
3479.0,0.011
3478.0,0.0111
3477.0,0.0111
3476.0,0.0112
3475.0,0.0112
3474.0,0.011
3473.0,0.0109
3472.0,0.0108
3471.0,0.0108
3470.0,0.0108
3469.0,0.0109
3468.0,0.011
3467.0,0.0111
3466.0,0.0111
3465.0,0.0112
3464.0,0.0112
3463.0,0.0112
3462.0,0.011
3461.0,0.0109
3460.0,0.0107
3459.0,0.0107
3458.0,0.0107
3457.0,0.0108
3456.0,0.0109
3455.0,0.011
3454.0,0.0111
3453.0,0.0112
3452.0,0.0112
3451.0,0.0112
3450.0,0.0113
3449.0,0.0113
3448.0,0.0113
3447.0,0.0112
3446.0,0.0111
3445.0,0.011
3444.0,0.0109
3443.0,0.011
3442.0,0.0111
3441.0,0.0111
3440.0,0.0111
3439.0,0.0111
3438.0,0.0111
3437.0,0.011
3436.0,0.0109
3435.0,0.0108
3434.0,0.0108
3433.0,0.0107
3432.0,0.0106
3431.0,0.0106
3430.0,0.0105
3429.0,0.0106
3428.0,0.0106
3427.0,0.0107
3426.0,0.0107
3425.0,0.0107
3424.0,0.0107
3423.0,0.0108
3422.0,0.0109
3421.0,0.011
3420.0,0.0111
3419.0,0.011
3418.0,0.0109
3417.0,0.0108
3416.0,0.0107
3415.0,0.0106
3414.0,0.0107
3413.0,0.0107
3412.0,0.0107
3411.0,0.0106
3410.0,0.0105
3409.0,0.0105
3408.0,0.0104
3407.0,0.0104
3406.0,0.0103
3405.0,0.0102
3404.0,0.0101
3403.0,0.01
3402.0,0.01
3401.0,0.0101
3400.0,0.0101
3399.0,0.0102
3398.0,0.0102
3397.0,0.0102
3396.0,0.0102
3395.0,0.0103
3394.0,0.0103
3393.0,0.0103
3392.0,0.0101
3391.0,0.01
3390.0,0.0098
3389.0,0.0097
3388.0,0.0097
3387.0,0.0099
3386.0,0.01
3385.0,0.0101
3384.0,0.0102
3383.0,0.0101
3382.0,0.01
3381.0,0.0098
3380.0,0.0096
3379.0,0.0095
3378.0,0.0094
3377.0,0.0094
3376.0,0.0094
3375.0,0.0095
3374.0,0.0095
3373.0,0.0095
3372.0,0.0094
3371.0,0.0093
3370.0,0.0092
3369.0,0.0092
3368.0,0.0091
3367.0,0.0092
3366.0,0.0092
3365.0,0.0092
3364.0,0.0091
3363.0,0.009
3362.0,0.009
3361.0,0.009
3360.0,0.0091
3359.0,0.0091
3358.0,0.009
3357.0,0.0089
3356.0,0.0088
3355.0,0.0087
3354.0,0.0086
3353.0,0.0086
3352.0,0.0086
3351.0,0.0086
3350.0,0.0086
3349.0,0.0085
3348.0,0.0084
3347.0,0.0084
3346.0,0.0084
3345.0,0.0084
3344.0,0.0084
3343.0,0.0085
3342.0,0.0085
3341.0,0.0085
3340.0,0.0085
3339.0,0.0086
3338.0,0.0086
3337.0,0.0085
3336.0,0.0084
3335.0,0.0082
3334.0,0.0081
3333.0,0.0081
3332.0,0.0082
3331.0,0.0082
3330.0,0.0082
3329.0,0.0081
3328.0,0.0079
3327.0,0.0078
3326.0,0.0077
3325.0,0.0078
3324.0,0.0078
3323.0,0.0079
3322.0,0.0079
3321.0,0.0078
3320.0,0.0076
3319.0,0.0075
3318.0,0.0074
3317.0,0.0074
3316.0,0.0075
3315.0,0.0075
3314.0,0.0076
3313.0,0.0076
3312.0,0.0075
3311.0,0.0075
3310.0,0.0074
3309.0,0.0074
3308.0,0.0073
3307.0,0.0073
3306.0,0.0073
3305.0,0.0072
3304.0,0.0073
3303.0,0.0073
3302.0,0.0074
3301.0,0.0074
3300.0,0.0073
3299.0,0.0073
3298.0,0.0072
3297.0,0.0071
3296.0,0.0071
3295.0,0.0072
3294.0,0.0072
3293.0,0.0072
3292.0,0.0071
3291.0,0.007
3290.0,0.0069
3289.0,0.0069
3288.0,0.0069
3287.0,0.0069
3286.0,0.0069
3285.0,0.0069
3284.0,0.0069
3283.0,0.0069
3282.0,0.0069
3281.0,0.0068
3280.0,0.0067
3279.0,0.0067
3278.0,0.0067
3277.0,0.0067
3276.0,0.0067
3275.0,0.0068
3274.0,0.0068
3273.0,0.0068
3272.0,0.0068
3271.0,0.0067
3270.0,0.0066
3269.0,0.0065
3268.0,0.0065
3267.0,0.0066
3266.0,0.0067
3265.0,0.0067
3264.0,0.0067
3263.0,0.0067
3262.0,0.0066
3261.0,0.0066
3260.0,0.0065
3259.0,0.0063
3258.0,0.0062
3257.0,0.0061
3256.0,0.006
3255.0,0.006
3254.0,0.006
3253.0,0.006
3252.0,0.006
3251.0,0.006
3250.0,0.006
3249.0,0.0059
3248.0,0.0058
3247.0,0.0058
3246.0,0.0058
3245.0,0.0059
3244.0,0.006
3243.0,0.0061
3242.0,0.0062
3241.0,0.0062
3240.0,0.0062
3239.0,0.0061
3238.0,0.0059
3237.0,0.0059
3236.0,0.006
3235.0,0.0061
3234.0,0.0061
3233.0,0.006
3232.0,0.0059
3231.0,0.0058
3230.0,0.0057
3229.0,0.0057
3228.0,0.0058
3227.0,0.0059
3226.0,0.0059
3225.0,0.0059
3224.0,0.0058
3223.0,0.0057
3222.0,0.0057
3221.0,0.0059
3220.0,0.006
3219.0,0.006
3218.0,0.0059
3217.0,0.0059
3216.0,0.0059
3215.0,0.006
3214.0,0.006
3213.0,0.006
3212.0,0.006
3211.0,0.006
3210.0,0.006
3209.0,0.0059
3208.0,0.0057
3207.0,0.0056
3206.0,0.0055
3205.0,0.0056
3204.0,0.0056
3203.0,0.0057
3202.0,0.0058
3201.0,0.0058
3200.0,0.0059
3199.0,0.0059
3198.0,0.006
3197.0,0.0061
3196.0,0.0062
3195.0,0.0061
3194.0,0.006
3193.0,0.0059
3192.0,0.0058
3191.0,0.0057
3190.0,0.0057
3189.0,0.0057
3188.0,0.0057
3187.0,0.0057
3186.0,0.0056
3185.0,0.0056
3184.0,0.0056
3183.0,0.0055
3182.0,0.0054
3181.0,0.0053
3180.0,0.0053
3179.0,0.0054
3178.0,0.0054
3177.0,0.0055
3176.0,0.0054
3175.0,0.0054
3174.0,0.0053
3173.0,0.0053
3172.0,0.0053
3171.0,0.0053
3170.0,0.0053
3169.0,0.0052
3168.0,0.0051
3167.0,0.0052
3166.0,0.0053
3165.0,0.0053
3164.0,0.0052
3163.0,0.0052
3162.0,0.0052
3161.0,0.0052
3160.0,0.0053
3159.0,0.0053
3158.0,0.0052
3157.0,0.0052
3156.0,0.0052
3155.0,0.0052
3154.0,0.0053
3153.0,0.0054
3152.0,0.0054
3151.0,0.0054
3150.0,0.0054
3149.0,0.0053
3148.0,0.0052
3147.0,0.0052
3146.0,0.0052
3145.0,0.0051
3144.0,0.0051
3143.0,0.005
3142.0,0.0051
3141.0,0.0051
3140.0,0.0052
3139.0,0.0052
3138.0,0.0052
3137.0,0.0051
3136.0,0.0051
3135.0,0.0051
3134.0,0.0052
3133.0,0.0052
3132.0,0.0051
3131.0,0.005
3130.0,0.005
3129.0,0.0049
3128.0,0.005
3127.0,0.005
3126.0,0.0051
3125.0,0.0051
3124.0,0.0051
3123.0,0.0051
3122.0,0.005
3121.0,0.005
3120.0,0.005
3119.0,0.005
3118.0,0.005
3117.0,0.005
3116.0,0.0049
3115.0,0.0049
3114.0,0.0049
3113.0,0.0049
3112.0,0.0049
3111.0,0.0049
3110.0,0.0049
3109.0,0.0048
3108.0,0.0048
3107.0,0.0048
3106.0,0.0048
3105.0,0.0048
3104.0,0.0048
3103.0,0.0048
3102.0,0.0047
3101.0,0.0047
3100.0,0.0046
3099.0,0.0046
3098.0,0.0047
3097.0,0.0047
3096.0,0.0047
3095.0,0.0047
3094.0,0.0047
3093.0,0.0046
3092.0,0.0046
3091.0,0.0046
3090.0,0.0046
3089.0,0.0046
3088.0,0.0046
3087.0,0.0046
3086.0,0.0047
3085.0,0.0048
3084.0,0.0048
3083.0,0.0049
3082.0,0.0048
3081.0,0.0048
3080.0,0.0047
3079.0,0.0046
3078.0,0.0045
3077.0,0.0045
3076.0,0.0045
3075.0,0.0045
3074.0,0.0045
3073.0,0.0045
3072.0,0.0044
3071.0,0.0044
3070.0,0.0044
3069.0,0.0044
3068.0,0.0044
3067.0,0.0043
3066.0,0.0043
3065.0,0.0044
3064.0,0.0043
3063.0,0.0043
3062.0,0.0043
3061.0,0.0043
3060.0,0.0044
3059.0,0.0045
3058.0,0.0046
3057.0,0.0046
3056.0,0.0045
3055.0,0.0044
3054.0,0.0043
3053.0,0.0042
3052.0,0.0041
3051.0,0.004
3050.0,0.004
3049.0,0.0041
3048.0,0.0041
3047.0,0.0042
3046.0,0.0042
3045.0,0.0041
3044.0,0.0041
3043.0,0.004
3042.0,0.004
3041.0,0.0039
3040.0,0.0039
3039.0,0.0038
3038.0,0.0038
3037.0,0.0038
3036.0,0.0038
3035.0,0.0039
3034.0,0.0041
3033.0,0.0042
3032.0,0.0043
3031.0,0.0043
3030.0,0.0042
3029.0,0.0041
3028.0,0.004
3027.0,0.004
3026.0,0.004
3025.0,0.004
3024.0,0.004
3023.0,0.0039
3022.0,0.0038
3021.0,0.0037
3020.0,0.0037
3019.0,0.0037
3018.0,0.0037
3017.0,0.0037
3016.0,0.0038
3015.0,0.0037
3014.0,0.0037
3013.0,0.0037
3012.0,0.0036
3011.0,0.0036
3010.0,0.0036
3009.0,0.0036
3008.0,0.0037
3007.0,0.0038
3006.0,0.0039
3005.0,0.004
3004.0,0.004
3003.0,0.0039
3002.0,0.0038
3001.0,0.0038
3000.0,0.0038
2999.0,0.0038
2998.0,0.004
2997.0,0.0041
2996.0,0.0043
2995.0,0.0045
2994.0,0.0047
2993.0,0.0049
2992.0,0.0051
2991.0,0.0052
2990.0,0.0055
2989.0,0.0058
2988.0,0.0061
2987.0,0.0065
2986.0,0.007
2985.0,0.0076
2984.0,0.0082
2983.0,0.009
2982.0,0.0099
2981.0,0.0109
2980.0,0.0121
2979.0,0.0135
2978.0,0.015
2977.0,0.0168
2976.0,0.019
2975.0,0.0215
2974.0,0.0243
2973.0,0.0276
2972.0,0.0313
2971.0,0.0356
2970.0,0.0404
2969.0,0.0456
2968.0,0.0512
2967.0,0.0572
2966.0,0.0635
2965.0,0.0697
2964.0,0.0757
2963.0,0.0808
2962.0,0.0846
2961.0,0.0872
2960.0,0.0887
2959.0,0.0895
2958.0,0.0903
2957.0,0.0916
2956.0,0.0938
2955.0,0.097
2954.0,0.1011
2953.0,0.1053
2952.0,0.1089
2951.0,0.1111
2950.0,0.1111
2949.0,0.1087
2948.0,0.1041
2947.0,0.0978
2946.0,0.0906
2945.0,0.0832
2944.0,0.0762
2943.0,0.0703
2942.0,0.0656
2941.0,0.0621
2940.0,0.0599
2939.0,0.0589
2938.0,0.059
2937.0,0.06
2936.0,0.062
2935.0,0.0647
2934.0,0.0684
2933.0,0.0728
2932.0,0.0779
2931.0,0.0836
2930.0,0.0897
2929.0,0.096
2928.0,0.1023
2927.0,0.1084
2926.0,0.1144
2925.0,0.1203
2924.0,0.1261
2923.0,0.1319
2922.0,0.1377
2921.0,0.1431
2920.0,0.1476
2919.0,0.1506
2918.0,0.1516
2917.0,0.1503
2916.0,0.147
2915.0,0.1424
2914.0,0.1372
2913.0,0.1319
2912.0,0.1271
2911.0,0.123
2910.0,0.1195
2909.0,0.1165
2908.0,0.1137
2907.0,0.1109
2906.0,0.1079
2905.0,0.1047
2904.0,0.1015
2903.0,0.0982
2902.0,0.0949
2901.0,0.0917
2900.0,0.0885
2899.0,0.0855
2898.0,0.0826
2897.0,0.0801
2896.0,0.0778
2895.0,0.0758
2894.0,0.0741
2893.0,0.0727
2892.0,0.0716
2891.0,0.0708
2890.0,0.0704
2889.0,0.0701
2888.0,0.07
2887.0,0.07
2886.0,0.0701
2885.0,0.0704
2884.0,0.0708
2883.0,0.0714
2882.0,0.0723
2881.0,0.0731
2880.0,0.0739
2879.0,0.0744
2878.0,0.0744
2877.0,0.0741
2876.0,0.0736
2875.0,0.0732
2874.0,0.073
2873.0,0.0733
2872.0,0.0739
2871.0,0.0749
2870.0,0.076
2869.0,0.0772
2868.0,0.0778
2867.0,0.0776
2866.0,0.0761
2865.0,0.0732
2864.0,0.0693
2863.0,0.0648
2862.0,0.0605
2861.0,0.0567
2860.0,0.0538
2859.0,0.0517
2858.0,0.0504
2857.0,0.0498
2856.0,0.0497
2855.0,0.0503
2854.0,0.0514
2853.0,0.053
2852.0,0.0548
2851.0,0.0567
2850.0,0.0583
2849.0,0.0596
2848.0,0.0608
2847.0,0.0623
2846.0,0.0643
2845.0,0.0668
2844.0,0.0698
2843.0,0.073
2842.0,0.0761
2841.0,0.0787
2840.0,0.0804
2839.0,0.081
2838.0,0.0802
2837.0,0.0779
2836.0,0.0743
2835.0,0.0698
2834.0,0.0647
2833.0,0.0597
2832.0,0.0551
2831.0,0.0511
2830.0,0.0476
2829.0,0.0448
2828.0,0.0424
2827.0,0.0403
2826.0,0.0387
2825.0,0.0373
2824.0,0.0361
2823.0,0.0351
2822.0,0.0342
2821.0,0.0334
2820.0,0.0327
2819.0,0.0321
2818.0,0.0314
2817.0,0.0308
2816.0,0.0303
2815.0,0.0298
2814.0,0.0293
2813.0,0.0289
2812.0,0.0285
2811.0,0.0282
2810.0,0.0279
2809.0,0.0276
2808.0,0.0272
2807.0,0.0268
2806.0,0.0264
2805.0,0.0259
2804.0,0.0254
2803.0,0.025
2802.0,0.0247
2801.0,0.0244
2800.0,0.0241
2799.0,0.0239
2798.0,0.0237
2797.0,0.0235
2796.0,0.0233
2795.0,0.0231
2794.0,0.0229
2793.0,0.0227
2792.0,0.0225
2791.0,0.0223
2790.0,0.0221
2789.0,0.0218
2788.0,0.0215
2787.0,0.0211
2786.0,0.0209
2785.0,0.0207
2784.0,0.0205
2783.0,0.0205
2782.0,0.0204
2781.0,0.0202
2780.0,0.02
2779.0,0.0198
2778.0,0.0196
2777.0,0.0195
2776.0,0.0194
2775.0,0.0193
2774.0,0.0192
2773.0,0.0192
2772.0,0.0191
2771.0,0.019
2770.0,0.0189
2769.0,0.0187
2768.0,0.0187
2767.0,0.0186
2766.0,0.0186
2765.0,0.0185
2764.0,0.0184
2763.0,0.0183
2762.0,0.0182
2761.0,0.0181
2760.0,0.0181
2759.0,0.0181
2758.0,0.018
2757.0,0.018
2756.0,0.0179
2755.0,0.0179
2754.0,0.0179
2753.0,0.0179
2752.0,0.0178
2751.0,0.0177
2750.0,0.0176
2749.0,0.0176
2748.0,0.0175
2747.0,0.0175
2746.0,0.0175
2745.0,0.0175
2744.0,0.0175
2743.0,0.0176
2742.0,0.0176
2741.0,0.0176
2740.0,0.0177
2739.0,0.0177
2738.0,0.0178
2737.0,0.0179
2736.0,0.018
2735.0,0.0181
2734.0,0.0181
2733.0,0.0181
2732.0,0.0182
2731.0,0.0182
2730.0,0.0183
2729.0,0.0184
2728.0,0.0185
2727.0,0.0186
2726.0,0.0188
2725.0,0.0189
2724.0,0.0191
2723.0,0.0192
2722.0,0.0192
2721.0,0.0191
2720.0,0.019
2719.0,0.0189
2718.0,0.0187
2717.0,0.0185
2716.0,0.0184
2715.0,0.0182
2714.0,0.0179
2713.0,0.0177
2712.0,0.0175
2711.0,0.0174
2710.0,0.0173
2709.0,0.0173
2708.0,0.0172
2707.0,0.017
2706.0,0.0169
2705.0,0.0169
2704.0,0.0168
2703.0,0.0167
2702.0,0.0167
2701.0,0.0166
2700.0,0.0166
2699.0,0.0167
2698.0,0.0167
2697.0,0.0167
2696.0,0.0166
2695.0,0.0165
2694.0,0.0164
2693.0,0.0164
2692.0,0.0165
2691.0,0.0165
2690.0,0.0165
2689.0,0.0165
2688.0,0.0164
2687.0,0.0164
2686.0,0.0164
2685.0,0.0164
2684.0,0.0164
2683.0,0.0164
2682.0,0.0163
2681.0,0.0163
2680.0,0.0164
2679.0,0.0164
2678.0,0.0164
2677.0,0.0164
2676.0,0.0163
2675.0,0.0162
2674.0,0.0161
2673.0,0.0161
2672.0,0.016
2671.0,0.016
2670.0,0.016
2669.0,0.016
2668.0,0.016
2667.0,0.0161
2666.0,0.0161
2665.0,0.0161
2664.0,0.0161
2663.0,0.0161
2662.0,0.0161
2661.0,0.0161
2660.0,0.016
2659.0,0.016
2658.0,0.0159
2657.0,0.016
2656.0,0.016
2655.0,0.016
2654.0,0.016
2653.0,0.0159
2652.0,0.0159
2651.0,0.0158
2650.0,0.0158
2649.0,0.0158
2648.0,0.0157
2647.0,0.0157
2646.0,0.0158
2645.0,0.0157
2644.0,0.0157
2643.0,0.0155
2642.0,0.0154
2641.0,0.0153
2640.0,0.0152
2639.0,0.0152
2638.0,0.0151
2637.0,0.0152
2636.0,0.0152
2635.0,0.0153
2634.0,0.0154
2633.0,0.0154
2632.0,0.0154
2631.0,0.0154
2630.0,0.0153
2629.0,0.0153
2628.0,0.0154
2627.0,0.0154
2626.0,0.0154
2625.0,0.0155
2624.0,0.0155
2623.0,0.0155
2622.0,0.0155
2621.0,0.0155
2620.0,0.0155
2619.0,0.0156
2618.0,0.0156
2617.0,0.0156
2616.0,0.0155
2615.0,0.0155
2614.0,0.0155
2613.0,0.0154
2612.0,0.0154
2611.0,0.0154
2610.0,0.0153
2609.0,0.0153
2608.0,0.0152
2607.0,0.0152
2606.0,0.0152
2605.0,0.0152
2604.0,0.0152
2603.0,0.0151
2602.0,0.015
2601.0,0.015
2600.0,0.015
2599.0,0.015
2598.0,0.0151
2597.0,0.0152
2596.0,0.0151
2595.0,0.0151
2594.0,0.015
2593.0,0.015
2592.0,0.015
2591.0,0.0151
2590.0,0.0151
2589.0,0.0152
2588.0,0.0153
2587.0,0.0154
2586.0,0.0155
2585.0,0.0156
2584.0,0.0156
2583.0,0.0156
2582.0,0.0155
2581.0,0.0155
2580.0,0.0154
2579.0,0.0154
2578.0,0.0154
2577.0,0.0153
2576.0,0.0152
2575.0,0.0152
2574.0,0.0152
2573.0,0.0151
2572.0,0.0151
2571.0,0.015
2570.0,0.0149
2569.0,0.0148
2568.0,0.0148
2567.0,0.0148
2566.0,0.0148
2565.0,0.0148
2564.0,0.0149
2563.0,0.0149
2562.0,0.0149
2561.0,0.0148
2560.0,0.0148
2559.0,0.0147
2558.0,0.0146
2557.0,0.0145
2556.0,0.0145
2555.0,0.0144
2554.0,0.0144
2553.0,0.0144
2552.0,0.0145
2551.0,0.0145
2550.0,0.0145
2549.0,0.0145
2548.0,0.0145
2547.0,0.0145
2546.0,0.0144
2545.0,0.0144
2544.0,0.0143
2543.0,0.0143
2542.0,0.0143
2541.0,0.0143
2540.0,0.0143
2539.0,0.0143
2538.0,0.0143
2537.0,0.0143
2536.0,0.0143
2535.0,0.0142
2534.0,0.0141
2533.0,0.014
2532.0,0.014
2531.0,0.014
2530.0,0.014
2529.0,0.014
2528.0,0.0141
2527.0,0.0141
2526.0,0.0142
2525.0,0.0142
2524.0,0.0142
2523.0,0.0142
2522.0,0.0141
2521.0,0.014
2520.0,0.014
2519.0,0.014
2518.0,0.0139
2517.0,0.0139
2516.0,0.0138
2515.0,0.0138
2514.0,0.0137
2513.0,0.0137
2512.0,0.0138
2511.0,0.0138
2510.0,0.0138
2509.0,0.0138
2508.0,0.0138
2507.0,0.0138
2506.0,0.0137
2505.0,0.0137
2504.0,0.0137
2503.0,0.0137
2502.0,0.0137
2501.0,0.0138
2500.0,0.0137
2499.0,0.0137
2498.0,0.0138
2497.0,0.0138
2496.0,0.0138
2495.0,0.0137
2494.0,0.0137
2493.0,0.0136
2492.0,0.0136
2491.0,0.0137
2490.0,0.0137
2489.0,0.0137
2488.0,0.0137
2487.0,0.0137
2486.0,0.0138
2485.0,0.0138
2484.0,0.0137
2483.0,0.0137
2482.0,0.0137
2481.0,0.0137
2480.0,0.0136
2479.0,0.0136
2478.0,0.0136
2477.0,0.0135
2476.0,0.0136
2475.0,0.0136
2474.0,0.0137
2473.0,0.0137
2472.0,0.0137
2471.0,0.0137
2470.0,0.0137
2469.0,0.0137
2468.0,0.0137
2467.0,0.0137
2466.0,0.0137
2465.0,0.0137
2464.0,0.0137
2463.0,0.0136
2462.0,0.0136
2461.0,0.0136
2460.0,0.0136
2459.0,0.0136
2458.0,0.0136
2457.0,0.0136
2456.0,0.0137
2455.0,0.0136
2454.0,0.0136
2453.0,0.0136
2452.0,0.0135
2451.0,0.0135
2450.0,0.0135
2449.0,0.0135
2448.0,0.0135
2447.0,0.0135
2446.0,0.0135
2445.0,0.0136
2444.0,0.0136
2443.0,0.0136
2442.0,0.0136
2441.0,0.0136
2440.0,0.0136
2439.0,0.0136
2438.0,0.0136
2437.0,0.0136
2436.0,0.0137
2435.0,0.0138
2434.0,0.0139
2433.0,0.0139
2432.0,0.0139
2431.0,0.0139
2430.0,0.0138
2429.0,0.0138
2428.0,0.0138
2427.0,0.0138
2426.0,0.0138
2425.0,0.0138
2424.0,0.0139
2423.0,0.0139
2422.0,0.0139
2421.0,0.0139
2420.0,0.0138
2419.0,0.0138
2418.0,0.0138
2417.0,0.0138
2416.0,0.0138
2415.0,0.0138
2414.0,0.0138
2413.0,0.0138
2412.0,0.0137
2411.0,0.0137
2410.0,0.0136
2409.0,0.0136
2408.0,0.0137
2407.0,0.0137
2406.0,0.0138
2405.0,0.0139
2404.0,0.0139
2403.0,0.0139
2402.0,0.0138
2401.0,0.0138
2400.0,0.0137
2399.0,0.0137
2398.0,0.0138
2397.0,0.0138
2396.0,0.0139
2395.0,0.0138
2394.0,0.0138
2393.0,0.0137
2392.0,0.0136
2391.0,0.0135
2390.0,0.0134
2389.0,0.0133
2388.0,0.0133
2387.0,0.0131
2386.0,0.0129
2385.0,0.0127
2384.0,0.0124
2383.0,0.0121
2382.0,0.012
2381.0,0.012
2380.0,0.012
2379.0,0.012
2378.0,0.0119
2377.0,0.0118
2376.0,0.0116
2375.0,0.0114
2374.0,0.0113
2373.0,0.0113
2372.0,0.0113
2371.0,0.0113
2370.0,0.0114
2369.0,0.0113
2368.0,0.011
2367.0,0.0106
2366.0,0.0105
2365.0,0.011
2364.0,0.0116
2363.0,0.0118
2362.0,0.0117
2361.0,0.0114
2360.0,0.011
2359.0,0.0102
2358.0,0.0095
2357.0,0.0093
2356.0,0.0095
2355.0,0.0099
2354.0,0.01
2353.0,0.0101
2352.0,0.01
2351.0,0.0099
2350.0,0.0098
2349.0,0.0098
2348.0,0.0099
2347.0,0.0098
2346.0,0.0095
2345.0,0.0094
2344.0,0.0095
2343.0,0.0097
2342.0,0.0098
2341.0,0.0097
2340.0,0.0095
2339.0,0.009
2338.0,0.0086
2337.0,0.0085
2336.0,0.0089
2335.0,0.0096
2334.0,0.0103
2333.0,0.0109
2332.0,0.0107
2331.0,0.01
2330.0,0.0091
2329.0,0.0086
2328.0,0.0087
2327.0,0.0091
2326.0,0.0094
2325.0,0.0097
2324.0,0.0099
2323.0,0.0103
2322.0,0.0107
2321.0,0.0111
2320.0,0.0115
2319.0,0.0116
2318.0,0.0116
2317.0,0.0114
2316.0,0.0113
2315.0,0.0111
2314.0,0.011
2313.0,0.0109
2312.0,0.0108
2311.0,0.0107
2310.0,0.0108
2309.0,0.0109
2308.0,0.0111
2307.0,0.0113
2306.0,0.0115
2305.0,0.0117
2304.0,0.0117
2303.0,0.0116
2302.0,0.0116
2301.0,0.0116
2300.0,0.0116
2299.0,0.0117
2298.0,0.0119
2297.0,0.012
2296.0,0.0121
2295.0,0.0123
2294.0,0.0124
2293.0,0.0125
2292.0,0.0126
2291.0,0.0127
2290.0,0.0128
2289.0,0.013
2288.0,0.013
2287.0,0.0131
2286.0,0.0131
2285.0,0.0131
2284.0,0.0131
2283.0,0.0131
2282.0,0.0132
2281.0,0.0132
2280.0,0.0132
2279.0,0.0131
2278.0,0.0132
2277.0,0.0132
2276.0,0.0133
2275.0,0.0133
2274.0,0.0132
2273.0,0.0132
2272.0,0.0132
2271.0,0.0132
2270.0,0.0133
2269.0,0.0133
2268.0,0.0134
2267.0,0.0133
2266.0,0.0133
2265.0,0.0133
2264.0,0.0134
2263.0,0.0134
2262.0,0.0134
2261.0,0.0134
2260.0,0.0134
2259.0,0.0134
2258.0,0.0134
2257.0,0.0135
2256.0,0.0135
2255.0,0.0135
2254.0,0.0136
2253.0,0.0136
2252.0,0.0137
2251.0,0.0137
2250.0,0.0137
2249.0,0.0138
2248.0,0.0138
2247.0,0.0138
2246.0,0.0138
2245.0,0.0137
2244.0,0.0137
2243.0,0.0137
2242.0,0.0138
2241.0,0.0138
2240.0,0.0138
2239.0,0.0138
2238.0,0.0138
2237.0,0.0138
2236.0,0.0138
2235.0,0.0138
2234.0,0.0138
2233.0,0.0138
2232.0,0.0138
2231.0,0.0138
2230.0,0.0138
2229.0,0.0137
2228.0,0.0137
2227.0,0.0137
2226.0,0.0137
2225.0,0.0138
2224.0,0.0138
2223.0,0.0138
2222.0,0.0138
2221.0,0.0138
2220.0,0.0138
2219.0,0.0137
2218.0,0.0137
2217.0,0.0137
2216.0,0.0137
2215.0,0.0137
2214.0,0.0137
2213.0,0.0137
2212.0,0.0138
2211.0,0.0138
2210.0,0.0138
2209.0,0.0138
2208.0,0.0139
2207.0,0.0139
2206.0,0.0139
2205.0,0.0139
2204.0,0.0139
2203.0,0.0138
2202.0,0.0138
2201.0,0.0138
2200.0,0.0138
2199.0,0.0138
2198.0,0.0138
2197.0,0.0139
2196.0,0.014
2195.0,0.014
2194.0,0.014
2193.0,0.014
2192.0,0.014
2191.0,0.0139
2190.0,0.014
2189.0,0.014
2188.0,0.014
2187.0,0.014
2186.0,0.014
2185.0,0.0141
2184.0,0.0141
2183.0,0.0141
2182.0,0.014
2181.0,0.014
2180.0,0.014
2179.0,0.014
2178.0,0.014
2177.0,0.014
2176.0,0.014
2175.0,0.014
2174.0,0.014
2173.0,0.014
2172.0,0.014
2171.0,0.014
2170.0,0.014
2169.0,0.0139
2168.0,0.0139
2167.0,0.014
2166.0,0.0141
2165.0,0.0141
2164.0,0.0141
2163.0,0.014
2162.0,0.014
2161.0,0.014
2160.0,0.014
2159.0,0.014
2158.0,0.014
2157.0,0.014
2156.0,0.0141
2155.0,0.0141
2154.0,0.014
2153.0,0.0141
2152.0,0.0141
2151.0,0.0141
2150.0,0.014
2149.0,0.014
2148.0,0.014
2147.0,0.014
2146.0,0.014
2145.0,0.014
2144.0,0.0139
2143.0,0.0139
2142.0,0.0139
2141.0,0.014
2140.0,0.014
2139.0,0.014
2138.0,0.014
2137.0,0.0141
2136.0,0.0141
2135.0,0.0141
2134.0,0.0141
2133.0,0.0141
2132.0,0.0141
2131.0,0.0142
2130.0,0.0142
2129.0,0.0141
2128.0,0.0141
2127.0,0.014
2126.0,0.014
2125.0,0.0139
2124.0,0.0139
2123.0,0.0138
2122.0,0.0138
2121.0,0.0139
2120.0,0.0139
2119.0,0.014
2118.0,0.0139
2117.0,0.0139
2116.0,0.0139
2115.0,0.0139
2114.0,0.0139
2113.0,0.0139
2112.0,0.0139
2111.0,0.0139
2110.0,0.014
2109.0,0.0141
2108.0,0.0141
2107.0,0.0141
2106.0,0.014
2105.0,0.014
2104.0,0.0139
2103.0,0.0139
2102.0,0.0139
2101.0,0.0139
2100.0,0.0139
2099.0,0.014
2098.0,0.014
2097.0,0.014
2096.0,0.014
2095.0,0.014
2094.0,0.014
2093.0,0.014
2092.0,0.014
2091.0,0.014
2090.0,0.014
2089.0,0.014
2088.0,0.014
2087.0,0.014
2086.0,0.014
2085.0,0.014
2084.0,0.014
2083.0,0.0141
2082.0,0.0141
2081.0,0.0141
2080.0,0.0141
2079.0,0.0141
2078.0,0.0141
2077.0,0.0141
2076.0,0.0141
2075.0,0.0141
2074.0,0.0141
2073.0,0.0141
2072.0,0.0141
2071.0,0.0141
2070.0,0.0141
2069.0,0.0141
2068.0,0.0141
2067.0,0.0141
2066.0,0.014
2065.0,0.0141
2064.0,0.0141
2063.0,0.0142
2062.0,0.0142
2061.0,0.0141
2060.0,0.0141
2059.0,0.0141
2058.0,0.0141
2057.0,0.0142
2056.0,0.0142
2055.0,0.0143
2054.0,0.0142
2053.0,0.0142
2052.0,0.0142
2051.0,0.0142
2050.0,0.0142
2049.0,0.0143
2048.0,0.0143
2047.0,0.0143
2046.0,0.0142
2045.0,0.0142
2044.0,0.0141
2043.0,0.0141
2042.0,0.0142
2041.0,0.0143
2040.0,0.0143
2039.0,0.0143
2038.0,0.0143
2037.0,0.0144
2036.0,0.0144
2035.0,0.0144
2034.0,0.0144
2033.0,0.0144
2032.0,0.0144
2031.0,0.0143
2030.0,0.0143
2029.0,0.0143
2028.0,0.0143
2027.0,0.0143
2026.0,0.0143
2025.0,0.0143
2024.0,0.0143
2023.0,0.0144
2022.0,0.0145
2021.0,0.0145
2020.0,0.0145
2019.0,0.0145
2018.0,0.0145
2017.0,0.0144
2016.0,0.0144
2015.0,0.0143
2014.0,0.0143
2013.0,0.0143
2012.0,0.0143
2011.0,0.0144
2010.0,0.0144
2009.0,0.0145
2008.0,0.0145
2007.0,0.0145
2006.0,0.0145
2005.0,0.0144
2004.0,0.0144
2003.0,0.0145
2002.0,0.0145
2001.0,0.0145
2000.0,0.0145
1999.0,0.0145
1998.0,0.0145
1997.0,0.0146
1996.0,0.0146
1995.0,0.0146
1994.0,0.0146
1993.0,0.0146
1992.0,0.0147
1991.0,0.0147
1990.0,0.0147
1989.0,0.0146
1988.0,0.0146
1987.0,0.0147
1986.0,0.0147
1985.0,0.0147
1984.0,0.0147
1983.0,0.0147
1982.0,0.0147
1981.0,0.0146
1980.0,0.0146
1979.0,0.0146
1978.0,0.0146
1977.0,0.0146
1976.0,0.0147
1975.0,0.0147
1974.0,0.0146
1973.0,0.0146
1972.0,0.0146
1971.0,0.0147
1970.0,0.0147
1969.0,0.0148
1968.0,0.0148
1967.0,0.0149
1966.0,0.0149
1965.0,0.0149
1964.0,0.0149
1963.0,0.0149
1962.0,0.0149
1961.0,0.0149
1960.0,0.0149
1959.0,0.015
1958.0,0.015
1957.0,0.015
1956.0,0.0151
1955.0,0.0151
1954.0,0.015
1953.0,0.0149
1952.0,0.0149
1951.0,0.0149
1950.0,0.0149
1949.0,0.015
1948.0,0.015
1947.0,0.015
1946.0,0.015
1945.0,0.0151
1944.0,0.0151
1943.0,0.0152
1942.0,0.0152
1941.0,0.0151
1940.0,0.0151
1939.0,0.0151
1938.0,0.0151
1937.0,0.0151
1936.0,0.0151
1935.0,0.0151
1934.0,0.0151
1933.0,0.0151
1932.0,0.0152
1931.0,0.0153
1930.0,0.0153
1929.0,0.0153
1928.0,0.0153
1927.0,0.0154
1926.0,0.0154
1925.0,0.0154
1924.0,0.0154
1923.0,0.0154
1922.0,0.0154
1921.0,0.0154
1920.0,0.0154
1919.0,0.0154
1918.0,0.0154
1917.0,0.0154
1916.0,0.0154
1915.0,0.0154
1914.0,0.0153
1913.0,0.0153
1912.0,0.0153
1911.0,0.0153
1910.0,0.0154
1909.0,0.0154
1908.0,0.0154
1907.0,0.0154
1906.0,0.0154
1905.0,0.0154
1904.0,0.0154
1903.0,0.0154
1902.0,0.0154
1901.0,0.0154
1900.0,0.0155
1899.0,0.0155
1898.0,0.0155
1897.0,0.0156
1896.0,0.0156
1895.0,0.0156
1894.0,0.0156
1893.0,0.0156
1892.0,0.0155
1891.0,0.0155
1890.0,0.0155
1889.0,0.0155
1888.0,0.0155
1887.0,0.0155
1886.0,0.0155
1885.0,0.0156
1884.0,0.0156
1883.0,0.0156
1882.0,0.0157
1881.0,0.0157
1880.0,0.0157
1879.0,0.0157
1878.0,0.0157
1877.0,0.0157
1876.0,0.0157
1875.0,0.0157
1874.0,0.0158
1873.0,0.0158
1872.0,0.0158
1871.0,0.0158
1870.0,0.0157
1869.0,0.0157
1868.0,0.0157
1867.0,0.0157
1866.0,0.0157
1865.0,0.0157
1864.0,0.0157
1863.0,0.0156
1862.0,0.0156
1861.0,0.0156
1860.0,0.0157
1859.0,0.0157
1858.0,0.0157
1857.0,0.0157
1856.0,0.0157
1855.0,0.0157
1854.0,0.0157
1853.0,0.0157
1852.0,0.0157
1851.0,0.0157
1850.0,0.0157
1849.0,0.0157
1848.0,0.0157
1847.0,0.0158
1846.0,0.0158
1845.0,0.0159
1844.0,0.0159
1843.0,0.0159
1842.0,0.0159
1841.0,0.0159
1840.0,0.0159
1839.0,0.0159
1838.0,0.0158
1837.0,0.0159
1836.0,0.0159
1835.0,0.0159
1834.0,0.0159
1833.0,0.0159
1832.0,0.016
1831.0,0.016
1830.0,0.016
1829.0,0.016
1828.0,0.016
1827.0,0.0159
1826.0,0.0159
1825.0,0.0159
1824.0,0.0159
1823.0,0.0159
1822.0,0.0159
1821.0,0.0159
1820.0,0.0159
1819.0,0.0159
1818.0,0.0158
1817.0,0.0159
1816.0,0.016
1815.0,0.016
1814.0,0.0161
1813.0,0.0161
1812.0,0.0161
1811.0,0.0161
1810.0,0.0161
1809.0,0.0161
1808.0,0.0161
1807.0,0.0161
1806.0,0.0161
1805.0,0.0161
1804.0,0.0161
1803.0,0.016
1802.0,0.0161
1801.0,0.0161
1800.0,0.0161
1799.0,0.0161
1798.0,0.0161
1797.0,0.0161
1796.0,0.0161
1795.0,0.0162
1794.0,0.0162
1793.0,0.0162
1792.0,0.0162
1791.0,0.0162
1790.0,0.0162
1789.0,0.0162
1788.0,0.0162
1787.0,0.0162
1786.0,0.0163
1785.0,0.0163
1784.0,0.0163
1783.0,0.0163
1782.0,0.0163
1781.0,0.0164
1780.0,0.0164
1779.0,0.0164
1778.0,0.0164
1777.0,0.0164
1776.0,0.0164
1775.0,0.0164
1774.0,0.0164
1773.0,0.0164
1772.0,0.0164
1771.0,0.0165
1770.0,0.0165
1769.0,0.0164
1768.0,0.0164
1767.0,0.0164
1766.0,0.0164
1765.0,0.0165
1764.0,0.0166
1763.0,0.0166
1762.0,0.0167
1761.0,0.0167
1760.0,0.0168
1759.0,0.0168
1758.0,0.0169
1757.0,0.017
1756.0,0.0171
1755.0,0.0172
1754.0,0.0172
1753.0,0.0173
1752.0,0.0174
1751.0,0.0175
1750.0,0.0177
1749.0,0.0179
1748.0,0.0181
1747.0,0.0182
1746.0,0.0182
1745.0,0.0182
1744.0,0.0182
1743.0,0.0183
1742.0,0.0183
1741.0,0.0184
1740.0,0.0184
1739.0,0.0183
1738.0,0.0183
1737.0,0.0182
1736.0,0.018
1735.0,0.0178
1734.0,0.0177
1733.0,0.0178
1732.0,0.0179
1731.0,0.018
1730.0,0.018
1729.0,0.018
1728.0,0.0179
1727.0,0.0179
1726.0,0.0178
1725.0,0.0178
1724.0,0.0178
1723.0,0.0178
1722.0,0.0178
1721.0,0.0179
1720.0,0.0179
1719.0,0.0178
1718.0,0.0177
1717.0,0.0177
1716.0,0.0178
1715.0,0.0178
1714.0,0.0178
1713.0,0.0177
1712.0,0.0177
1711.0,0.0177
1710.0,0.0177
1709.0,0.0178
1708.0,0.0178
1707.0,0.0177
1706.0,0.0177
1705.0,0.0177
1704.0,0.0177
1703.0,0.0178
1702.0,0.0177
1701.0,0.0176
1700.0,0.0175
1699.0,0.0175
1698.0,0.0176
1697.0,0.0177
1696.0,0.0177
1695.0,0.0176
1694.0,0.0176
1693.0,0.0177
1692.0,0.0178
1691.0,0.0178
1690.0,0.0178
1689.0,0.0178
1688.0,0.0179
1687.0,0.0179
1686.0,0.0178
1685.0,0.0177
1684.0,0.0178
1683.0,0.0178
1682.0,0.0178
1681.0,0.0178
1680.0,0.0178
1679.0,0.0178
1678.0,0.0178
1677.0,0.0177
1676.0,0.0178
1675.0,0.0179
1674.0,0.0179
1673.0,0.0179
1672.0,0.0179
1671.0,0.0178
1670.0,0.0178
1669.0,0.0179
1668.0,0.0178
1667.0,0.0178
1666.0,0.0178
1665.0,0.0178
1664.0,0.0177
1663.0,0.0178
1662.0,0.0178
1661.0,0.0177
1660.0,0.0177
1659.0,0.0176
1658.0,0.0176
1657.0,0.0177
1656.0,0.0178
1655.0,0.0179
1654.0,0.018
1653.0,0.0181
1652.0,0.0178
1651.0,0.0177
1650.0,0.0177
1649.0,0.0178
1648.0,0.0178
1647.0,0.0179
1646.0,0.0179
1645.0,0.0178
1644.0,0.0177
1643.0,0.0177
1642.0,0.0176
1641.0,0.0175
1640.0,0.0175
1639.0,0.0175
1638.0,0.0175
1637.0,0.0175
1636.0,0.0175
1635.0,0.0175
1634.0,0.0174
1633.0,0.0174
1632.0,0.0174
1631.0,0.0174
1630.0,0.0174
1629.0,0.0174
1628.0,0.0174
1627.0,0.0174
1626.0,0.0174
1625.0,0.0175
1624.0,0.0175
1623.0,0.0176
1622.0,0.0176
1621.0,0.0175
1620.0,0.0175
1619.0,0.0174
1618.0,0.0173
1617.0,0.0173
1616.0,0.0174
1615.0,0.0174
1614.0,0.0174
1613.0,0.0175
1612.0,0.0175
1611.0,0.0175
1610.0,0.0176
1609.0,0.0177
1608.0,0.0178
1607.0,0.0179
1606.0,0.018
1605.0,0.0181
1604.0,0.0182
1603.0,0.0183
1602.0,0.0183
1601.0,0.0183
1600.0,0.0183
1599.0,0.0182
1598.0,0.0182
1597.0,0.0181
1596.0,0.0181
1595.0,0.0181
1594.0,0.0181
1593.0,0.0182
1592.0,0.0182
1591.0,0.0182
1590.0,0.0182
1589.0,0.0182
1588.0,0.0183
1587.0,0.0184
1586.0,0.0184
1585.0,0.0185
1584.0,0.0186
1583.0,0.0186
1582.0,0.0186
1581.0,0.0187
1580.0,0.0187
1579.0,0.0188
1578.0,0.0189
1577.0,0.0189
1576.0,0.0189
1575.0,0.0189
1574.0,0.0189
1573.0,0.0189
1572.0,0.0189
1571.0,0.0188
1570.0,0.0187
1569.0,0.0187
1568.0,0.0187
1567.0,0.0187
1566.0,0.0187
1565.0,0.0187
1564.0,0.0187
1563.0,0.0187
1562.0,0.0187
1561.0,0.0185
1560.0,0.0182
1559.0,0.0182
1558.0,0.0183
1557.0,0.0183
1556.0,0.0183
1555.0,0.0184
1554.0,0.0184
1553.0,0.0185
1552.0,0.0185
1551.0,0.0185
1550.0,0.0186
1549.0,0.0186
1548.0,0.0186
1547.0,0.0186
1546.0,0.0186
1545.0,0.0187
1544.0,0.0189
1543.0,0.0189
1542.0,0.0189
1541.0,0.0189
1540.0,0.0188
1539.0,0.0185
1538.0,0.0183
1537.0,0.0182
1536.0,0.0182
1535.0,0.0181
1534.0,0.0181
1533.0,0.0181
1532.0,0.0181
1531.0,0.018
1530.0,0.0179
1529.0,0.0178
1528.0,0.0178
1527.0,0.0178
1526.0,0.0178
1525.0,0.0179
1524.0,0.018
1523.0,0.018
1522.0,0.018
1521.0,0.018
1520.0,0.018
1519.0,0.0179
1518.0,0.0178
1517.0,0.0179
1516.0,0.018
1515.0,0.018
1514.0,0.0179
1513.0,0.0179
1512.0,0.0179
1511.0,0.0179
1510.0,0.0179
1509.0,0.0178
1508.0,0.0177
1507.0,0.0177
1506.0,0.0177
1505.0,0.0177
1504.0,0.0177
1503.0,0.0178
1502.0,0.0178
1501.0,0.0179
1500.0,0.018
1499.0,0.018
1498.0,0.0181
1497.0,0.0184
1496.0,0.0188
1495.0,0.0191
1494.0,0.0192
1493.0,0.0194
1492.0,0.0194
1491.0,0.0193
1490.0,0.0191
1489.0,0.0191
1488.0,0.0192
1487.0,0.0192
1486.0,0.0193
1485.0,0.0195
1484.0,0.0197
1483.0,0.0199
1482.0,0.0202
1481.0,0.0207
1480.0,0.0212
1479.0,0.0217
1478.0,0.0224
1477.0,0.0236
1476.0,0.0253
1475.0,0.0272
1474.0,0.0299
1473.0,0.0337
1472.0,0.0376
1471.0,0.0407
1470.0,0.0435
1469.0,0.0466
1468.0,0.0501
1467.0,0.0541
1466.0,0.0594
1465.0,0.0657
1464.0,0.0712
1463.0,0.0745
1462.0,0.0764
1461.0,0.0775
1460.0,0.0781
1459.0,0.0787
1458.0,0.0802
1457.0,0.0827
1456.0,0.0841
1455.0,0.0842
1454.0,0.0841
1453.0,0.0836
1452.0,0.0827
1451.0,0.0812
1450.0,0.0789
1449.0,0.0757
1448.0,0.0712
1447.0,0.0664
1446.0,0.062
1445.0,0.0581
1444.0,0.0546
1443.0,0.0515
1442.0,0.049
1441.0,0.0473
1440.0,0.046
1439.0,0.0453
1438.0,0.0452
1437.0,0.0453
1436.0,0.045
1435.0,0.0439
1434.0,0.0421
1433.0,0.0399
1432.0,0.0375
1431.0,0.0353
1430.0,0.0335
1429.0,0.032
1428.0,0.031
1427.0,0.0302
1426.0,0.0296
1425.0,0.0291
1424.0,0.0286
1423.0,0.0284
1422.0,0.0281
1421.0,0.0278
1420.0,0.0273
1419.0,0.027
1418.0,0.0268
1417.0,0.0266
1416.0,0.0264
1415.0,0.0263
1414.0,0.0262
1413.0,0.026
1412.0,0.0257
1411.0,0.0255
1410.0,0.0253
1409.0,0.0251
1408.0,0.0248
1407.0,0.0246
1406.0,0.0246
1405.0,0.0245
1404.0,0.0243
1403.0,0.0242
1402.0,0.0241
1401.0,0.0239
1400.0,0.0237
1399.0,0.0236
1398.0,0.0236
1397.0,0.0235
1396.0,0.0233
1395.0,0.0233
1394.0,0.0234
1393.0,0.0234
1392.0,0.0234
1391.0,0.0236
1390.0,0.0239
1389.0,0.0243
1388.0,0.025
1387.0,0.0265
1386.0,0.0286
1385.0,0.0314
1384.0,0.0353
1383.0,0.0411
1382.0,0.0489
1381.0,0.0591
1380.0,0.072
1379.0,0.0871
1378.0,0.1017
1377.0,0.1125
1376.0,0.1167
1375.0,0.1125
1374.0,0.1016
1373.0,0.0888
1372.0,0.0775
1371.0,0.0679
1370.0,0.0598
1369.0,0.0533
1368.0,0.0486
1367.0,0.0456
1366.0,0.0438
1365.0,0.0429
1364.0,0.0428
1363.0,0.0434
1362.0,0.0445
1361.0,0.0457
1360.0,0.0465
1359.0,0.0468
1358.0,0.0462
1357.0,0.0449
1356.0,0.0431
1355.0,0.041
1354.0,0.039
1353.0,0.0373
1352.0,0.036
1351.0,0.0348
1350.0,0.0338
1349.0,0.033
1348.0,0.0322
1347.0,0.0316
1346.0,0.031
1345.0,0.0305
1344.0,0.0301
1343.0,0.0298
1342.0,0.0295
1341.0,0.0293
1340.0,0.0291
1339.0,0.029
1338.0,0.0289
1337.0,0.0287
1336.0,0.0287
1335.0,0.0287
1334.0,0.0287
1333.0,0.0289
1332.0,0.0292
1331.0,0.0294
1330.0,0.0295
1329.0,0.0294
1328.0,0.0293
1327.0,0.029
1326.0,0.0288
1325.0,0.0285
1324.0,0.0282
1323.0,0.0279
1322.0,0.0276
1321.0,0.0274
1320.0,0.0273
1319.0,0.0271
1318.0,0.027
1317.0,0.0268
1316.0,0.0267
1315.0,0.0266
1314.0,0.0266
1313.0,0.0266
1312.0,0.0266
1311.0,0.0267
1310.0,0.0269
1309.0,0.0272
1308.0,0.0277
1307.0,0.0283
1306.0,0.029
1305.0,0.0295
1304.0,0.0296
1303.0,0.0295
1302.0,0.0292
1301.0,0.0289
1300.0,0.0287
1299.0,0.0286
1298.0,0.0286
1297.0,0.0287
1296.0,0.0286
1295.0,0.0285
1294.0,0.0283
1293.0,0.0281
1292.0,0.0278
1291.0,0.0276
1290.0,0.0274
1289.0,0.0272
1288.0,0.027
1287.0,0.0269
1286.0,0.0267
1285.0,0.0265
1284.0,0.0264
1283.0,0.0264
1282.0,0.0263
1281.0,0.0262
1280.0,0.0261
1279.0,0.0261
1278.0,0.026
1277.0,0.026
1276.0,0.026
1275.0,0.0259
1274.0,0.0259
1273.0,0.0259
1272.0,0.0259
1271.0,0.0259
1270.0,0.0259
1269.0,0.026
1268.0,0.026
1267.0,0.0261
1266.0,0.0263
1265.0,0.0264
1264.0,0.0265
1263.0,0.0267
1262.0,0.0269
1261.0,0.0271
1260.0,0.0275
1259.0,0.0279
1258.0,0.0284
1257.0,0.0288
1256.0,0.0291
1255.0,0.0291
1254.0,0.0288
1253.0,0.0283
1252.0,0.0278
1251.0,0.0274
1250.0,0.0271
1249.0,0.027
1248.0,0.0268
1247.0,0.0267
1246.0,0.0266
1245.0,0.0265
1244.0,0.0264
1243.0,0.0263
1242.0,0.0262
1241.0,0.0262
1240.0,0.0262
1239.0,0.0261
1238.0,0.0261
1237.0,0.026
1236.0,0.026
1235.0,0.026
1234.0,0.0261
1233.0,0.0261
1232.0,0.026
1231.0,0.026
1230.0,0.0259
1229.0,0.0259
1228.0,0.0259
1227.0,0.026
1226.0,0.0261
1225.0,0.0263
1224.0,0.0265
1223.0,0.0267
1222.0,0.0268
1221.0,0.0269
1220.0,0.027
1219.0,0.027
1218.0,0.027
1217.0,0.0269
1216.0,0.0268
1215.0,0.0267
1214.0,0.0265
1213.0,0.0264
1212.0,0.0263
1211.0,0.0262
1210.0,0.0261
1209.0,0.026
1208.0,0.026
1207.0,0.0259
1206.0,0.0259
1205.0,0.026
1204.0,0.0261
1203.0,0.0261
1202.0,0.0262
1201.0,0.0262
1200.0,0.0263
1199.0,0.0263
1198.0,0.0263
1197.0,0.0262
1196.0,0.0262
1195.0,0.0262
1194.0,0.0262
1193.0,0.0263
1192.0,0.0263
1191.0,0.0263
1190.0,0.0263
1189.0,0.0264
1188.0,0.0265
1187.0,0.0267
1186.0,0.0269
1185.0,0.0271
1184.0,0.0273
1183.0,0.0275
1182.0,0.0278
1181.0,0.028
1180.0,0.0282
1179.0,0.0284
1178.0,0.0287
1177.0,0.0291
1176.0,0.0297
1175.0,0.0305
1174.0,0.0316
1173.0,0.0331
1172.0,0.0349
1171.0,0.0369
1170.0,0.0389
1169.0,0.0405
1168.0,0.0415
1167.0,0.0418
1166.0,0.0413
1165.0,0.0404
1164.0,0.0393
1163.0,0.0383
1162.0,0.0373
1161.0,0.0364
1160.0,0.0357
1159.0,0.035
1158.0,0.0345
1157.0,0.0342
1156.0,0.0339
1155.0,0.0338
1154.0,0.0337
1153.0,0.0335
1152.0,0.0333
1151.0,0.033
1150.0,0.0326
1149.0,0.0321
1148.0,0.0317
1147.0,0.0312
1146.0,0.0308
1145.0,0.0304
1144.0,0.0301
1143.0,0.0298
1142.0,0.0295
1141.0,0.0293
1140.0,0.0291
1139.0,0.0289
1138.0,0.0288
1137.0,0.0287
1136.0,0.0285
1135.0,0.0284
1134.0,0.0281
1133.0,0.0279
1132.0,0.0277
1131.0,0.0275
1130.0,0.0273
1129.0,0.0272
1128.0,0.0271
1127.0,0.0271
1126.0,0.0271
1125.0,0.027
1124.0,0.027
1123.0,0.0269
1122.0,0.0268
1121.0,0.0268
1120.0,0.0268
1119.0,0.0268
1118.0,0.0267
1117.0,0.0267
1116.0,0.0267
1115.0,0.0267
1114.0,0.0267
1113.0,0.0267
1112.0,0.0268
1111.0,0.0268
1110.0,0.0269
1109.0,0.027
1108.0,0.0272
1107.0,0.0275
1106.0,0.0279
1105.0,0.0282
1104.0,0.0285
1103.0,0.0287
1102.0,0.0288
1101.0,0.0288
1100.0,0.0286
1099.0,0.0282
1098.0,0.0279
1097.0,0.0276
1096.0,0.0273
1095.0,0.0272
1094.0,0.0271
1093.0,0.027
1092.0,0.0269
1091.0,0.0267
1090.0,0.0266
1089.0,0.0265
1088.0,0.0265
1087.0,0.0265
1086.0,0.0265
1085.0,0.0265
1084.0,0.0265
1083.0,0.0266
1082.0,0.0267
1081.0,0.0268
1080.0,0.0268
1079.0,0.0269
1078.0,0.027
1077.0,0.027
1076.0,0.027
1075.0,0.027
1074.0,0.0269
1073.0,0.0268
1072.0,0.0267
1071.0,0.0267
1070.0,0.0266
1069.0,0.0266
1068.0,0.0267
1067.0,0.0268
1066.0,0.0269
1065.0,0.0271
1064.0,0.0272
1063.0,0.0272
1062.0,0.0272
1061.0,0.0272
1060.0,0.0272
1059.0,0.0271
1058.0,0.0271
1057.0,0.0271
1056.0,0.0272
1055.0,0.0273
1054.0,0.0275
1053.0,0.0277
1052.0,0.0279
1051.0,0.028
1050.0,0.0281
1049.0,0.0283
1048.0,0.0286
1047.0,0.0288
1046.0,0.029
1045.0,0.029
1044.0,0.029
1043.0,0.0289
1042.0,0.0288
1041.0,0.0287
1040.0,0.0286
1039.0,0.0285
1038.0,0.0284
1037.0,0.0284
1036.0,0.0283
1035.0,0.0283
1034.0,0.0283
1033.0,0.0284
1032.0,0.0284
1031.0,0.0285
1030.0,0.0285
1029.0,0.0285
1028.0,0.0286
1027.0,0.0286
1026.0,0.0287
1025.0,0.0288
1024.0,0.0288
1023.0,0.0288
1022.0,0.0287
1021.0,0.0287
1020.0,0.0287
1019.0,0.0288
1018.0,0.0289
1017.0,0.029
1016.0,0.029
1015.0,0.029
1014.0,0.0289
1013.0,0.0288
1012.0,0.0288
1011.0,0.0288
1010.0,0.0289
1009.0,0.0291
1008.0,0.0293
1007.0,0.0297
1006.0,0.0302
1005.0,0.0309
1004.0,0.032
1003.0,0.0335
1002.0,0.0355
1001.0,0.0381
1000.0,0.0408
999.0,0.0432
998.0,0.0445
997.0,0.0444
996.0,0.043
995.0,0.0408
994.0,0.0384
993.0,0.0364
992.0,0.0348
991.0,0.0336
990.0,0.0326
989.0,0.032
988.0,0.0316
987.0,0.0314
986.0,0.0313
985.0,0.0314
984.0,0.0315
983.0,0.0319
982.0,0.0324
981.0,0.0333
980.0,0.0345
979.0,0.0362
978.0,0.0384
977.0,0.041
976.0,0.0439
975.0,0.0467
974.0,0.0489
973.0,0.05
972.0,0.0496
971.0,0.0478
970.0,0.0451
969.0,0.0424
968.0,0.04
967.0,0.0381
966.0,0.0367
965.0,0.0356
964.0,0.0348
963.0,0.0342
962.0,0.0338
961.0,0.0334
960.0,0.033
959.0,0.0327
958.0,0.0325
957.0,0.0323
956.0,0.0322
955.0,0.0321
954.0,0.0319
953.0,0.0318
952.0,0.0317
951.0,0.0317
950.0,0.0317
949.0,0.0317
948.0,0.0318
947.0,0.0319
946.0,0.0319
945.0,0.032
944.0,0.0321
943.0,0.0323
942.0,0.0325
941.0,0.0326
940.0,0.0326
939.0,0.0325
938.0,0.0323
937.0,0.0321
936.0,0.032
935.0,0.0319
934.0,0.0319
933.0,0.0318
932.0,0.0316
931.0,0.0314
930.0,0.0314
929.0,0.0314
928.0,0.0314
927.0,0.0314
926.0,0.0314
925.0,0.0314
924.0,0.0315
923.0,0.0315
922.0,0.0316
921.0,0.0316
920.0,0.0317
919.0,0.0317
918.0,0.0317
917.0,0.0317
916.0,0.0318
915.0,0.0319
914.0,0.0319
913.0,0.0319
912.0,0.032
911.0,0.032
910.0,0.0321
909.0,0.0323
908.0,0.0325
907.0,0.0328
906.0,0.0332
905.0,0.0338
904.0,0.0346
903.0,0.0357
902.0,0.0368
901.0,0.0378
900.0,0.0385
899.0,0.0388
898.0,0.0387
897.0,0.0382
896.0,0.0375
895.0,0.0367
894.0,0.0359
893.0,0.0354
892.0,0.035
891.0,0.0347
890.0,0.0345
889.0,0.0344
888.0,0.0344
887.0,0.0344
886.0,0.0344
885.0,0.0343
884.0,0.0342
883.0,0.0341
882.0,0.0341
881.0,0.0342
880.0,0.0342
879.0,0.0342
878.0,0.0344
877.0,0.0345
876.0,0.0346
875.0,0.0346
874.0,0.0345
873.0,0.0345
872.0,0.0346
871.0,0.0347
870.0,0.0347
869.0,0.0347
868.0,0.0347
867.0,0.0347
866.0,0.0348
865.0,0.0348
864.0,0.0346
863.0,0.0345
862.0,0.0344
861.0,0.0344
860.0,0.0346
859.0,0.0348
858.0,0.035
857.0,0.035
856.0,0.0349
855.0,0.0348
854.0,0.0348
853.0,0.0349
852.0,0.035
851.0,0.0352
850.0,0.0355
849.0,0.0358
848.0,0.0362
847.0,0.0368
846.0,0.0378
845.0,0.0396
844.0,0.0423
843.0,0.0456
842.0,0.0485
841.0,0.0499
840.0,0.0492
839.0,0.0469
838.0,0.0442
837.0,0.042
836.0,0.0405
835.0,0.0397
834.0,0.0391
833.0,0.0387
832.0,0.0384
831.0,0.0382
830.0,0.0381
829.0,0.0381
828.0,0.0381
827.0,0.038
826.0,0.0378
825.0,0.0376
824.0,0.0374
823.0,0.0374
822.0,0.0374
821.0,0.0375
820.0,0.0376
819.0,0.0377
818.0,0.0377
817.0,0.0378
816.0,0.0382
815.0,0.0388
814.0,0.0396
813.0,0.0405
812.0,0.0415
811.0,0.0425
810.0,0.0433
809.0,0.0437
808.0,0.0436
807.0,0.0431
806.0,0.0423
805.0,0.0417
804.0,0.0411
803.0,0.0408
802.0,0.0404
801.0,0.0401
800.0,0.0398
799.0,0.0395
798.0,0.0393
797.0,0.0391
796.0,0.0389
795.0,0.0386
794.0,0.0384
793.0,0.0383
792.0,0.0383
791.0,0.0383
790.0,0.0383
789.0,0.0383
788.0,0.0382
787.0,0.0381
786.0,0.038
785.0,0.0379
784.0,0.0379
783.0,0.0381
782.0,0.0382
781.0,0.0382
780.0,0.0382
779.0,0.0381
778.0,0.0381
777.0,0.0381
776.0,0.0383
775.0,0.0385
774.0,0.0388
773.0,0.0389
772.0,0.039
771.0,0.0389
770.0,0.0389
769.0,0.0391
768.0,0.0394
767.0,0.0397
766.0,0.0398
765.0,0.0399
764.0,0.0399
763.0,0.0401
762.0,0.0403
761.0,0.0404
760.0,0.0405
759.0,0.0404
758.0,0.0404
757.0,0.0405
756.0,0.0405
755.0,0.0405
754.0,0.0403
753.0,0.0401
752.0,0.0401
751.0,0.0402
750.0,0.0404
749.0,0.0407
748.0,0.0411
747.0,0.0414
746.0,0.0417
745.0,0.0418
744.0,0.0418
743.0,0.0417
742.0,0.0416
741.0,0.0415
740.0,0.0415
739.0,0.0414
738.0,0.0415
737.0,0.0416
736.0,0.0418
735.0,0.0421
734.0,0.0426
733.0,0.0433
732.0,0.0442
731.0,0.045
730.0,0.0454
729.0,0.0454
728.0,0.0451
727.0,0.0448
726.0,0.0446
725.0,0.0446
724.0,0.0448
723.0,0.0454
722.0,0.0461
721.0,0.0469
720.0,0.0476
719.0,0.0479
718.0,0.0477
717.0,0.0473
716.0,0.047
715.0,0.0467
714.0,0.0464
713.0,0.0459
712.0,0.0453
711.0,0.0448
710.0,0.0447
709.0,0.0448
708.0,0.0452
707.0,0.0456
706.0,0.0462
705.0,0.0471
704.0,0.0482
703.0,0.0494
702.0,0.0504
701.0,0.0512
700.0,0.0518
699.0,0.0521
698.0,0.0516
697.0,0.0504
696.0,0.0492
695.0,0.0483
694.0,0.048
693.0,0.0478
692.0,0.0475
691.0,0.0473
690.0,0.0471
689.0,0.0467
688.0,0.0461
687.0,0.0454
686.0,0.0449
685.0,0.0445
684.0,0.0441
683.0,0.0438
682.0,0.0436
681.0,0.0437
680.0,0.044
679.0,0.0445
678.0,0.0452
677.0,0.0459
676.0,0.0463
675.0,0.0461
674.0,0.0455
673.0,0.045
672.0,0.0448
671.0,0.0454
670.0,0.0467
669.0,0.049
668.0,0.0513
667.0,0.0511
666.0,0.0486
665.0,0.0462
664.0,0.0449
663.0,0.0443
662.0,0.0439
661.0,0.0436
660.0,0.0435
659.0,0.0432
658.0,0.0428
657.0,0.0425
656.0,0.0426
655.0,0.0433
654.0,0.0441
653.0,0.0447
652.0,0.0447
651.0,0.0445
650.0,0.0443
649.0,0.0442
648.0,0.0443
647.0,0.0441
646.0,0.0435
645.0,0.043
644.0,0.0431
643.0,0.0438
642.0,0.0446
641.0,0.0454
640.0,0.0461
639.0,0.0469
638.0,0.0476
637.0,0.0481
636.0,0.0484
635.0,0.0482
634.0,0.0476
633.0,0.047
632.0,0.0468
631.0,0.0469
630.0,0.047
629.0,0.0469
628.0,0.047
627.0,0.0474
626.0,0.0478
625.0,0.0479
624.0,0.0477
623.0,0.0474
622.0,0.047
621.0,0.0469
620.0,0.0472
619.0,0.0479
618.0,0.0484
617.0,0.0485
616.0,0.0485
615.0,0.0488
614.0,0.0491
613.0,0.0492
612.0,0.0489
611.0,0.0489
610.0,0.0493
609.0,0.0495
608.0,0.0492
607.0,0.0484
606.0,0.0475
605.0,0.047
604.0,0.0471
603.0,0.0482
602.0,0.0495
601.0,0.0503
600.0,0.0497
