cm-1,A
4000.0,0.0091
3999.0,0.0092
3998.0,0.0092
3997.0,0.0092
3996.0,0.0092
3995.0,0.0092
3994.0,0.0091
3993.0,0.0091
3992.0,0.0091
3991.0,0.0092
3990.0,0.0093
3989.0,0.0093
3988.0,0.0093
3987.0,0.0093
3986.0,0.0093
3985.0,0.0093
3984.0,0.0093
3983.0,0.0092
3982.0,0.0092
3981.0,0.0091
3980.0,0.009
3979.0,0.009
3978.0,0.009
3977.0,0.009
3976.0,0.009
3975.0,0.009
3974.0,0.0091
3973.0,0.0092
3972.0,0.0093
3971.0,0.0093
3970.0,0.0093
3969.0,0.0093
3968.0,0.0092
3967.0,0.0092
3966.0,0.0092
3965.0,0.0092
3964.0,0.0092
3963.0,0.0092
3962.0,0.0092
3961.0,0.0092
3960.0,0.0092
3959.0,0.0092
3958.0,0.0092
3957.0,0.0092
3956.0,0.0092
3955.0,0.0092
3954.0,0.0091
3953.0,0.0091
3952.0,0.009
3951.0,0.009
3950.0,0.009
3949.0,0.009
3948.0,0.009
3947.0,0.009
3946.0,0.0089
3945.0,0.009
3944.0,0.0091
3943.0,0.0092
3942.0,0.0091
3941.0,0.0091
3940.0,0.009
3939.0,0.0091
3938.0,0.0091
3937.0,0.0091
3936.0,0.009
3935.0,0.009
3934.0,0.009
3933.0,0.009
3932.0,0.009
3931.0,0.009
3930.0,0.0089
3929.0,0.0089
3928.0,0.0089
3927.0,0.009
3926.0,0.0091
3925.0,0.0091
3924.0,0.0091
3923.0,0.009
3922.0,0.0089
3921.0,0.0089
3920.0,0.0089
3919.0,0.0089
3918.0,0.009
3917.0,0.009
3916.0,0.0091
3915.0,0.0091
3914.0,0.0091
3913.0,0.0092
3912.0,0.0092
3911.0,0.0093
3910.0,0.0093
3909.0,0.0093
3908.0,0.0092
3907.0,0.0091
3906.0,0.0089
3905.0,0.0087
3904.0,0.0084
3903.0,0.0082
3902.0,0.0081
3901.0,0.0083
3900.0,0.0085
3899.0,0.0088
3898.0,0.0089
3897.0,0.0089
3896.0,0.0089
3895.0,0.009
3894.0,0.009
3893.0,0.0092
3892.0,0.0093
3891.0,0.0092
3890.0,0.0089
3889.0,0.0087
3888.0,0.0088
3887.0,0.009
3886.0,0.0092
3885.0,0.0092
3884.0,0.009
3883.0,0.0088
3882.0,0.0089
3881.0,0.009
3880.0,0.0089
3879.0,0.0088
3878.0,0.0087
3877.0,0.0088
3876.0,0.009
3875.0,0.0091
3874.0,0.0091
3873.0,0.0089
3872.0,0.0088
3871.0,0.0089
3870.0,0.0088
3869.0,0.0086
3868.0,0.0084
3867.0,0.0085
3866.0,0.0087
3865.0,0.0091
3864.0,0.0093
3863.0,0.0092
3862.0,0.0091
3861.0,0.0091
3860.0,0.009
3859.0,0.0089
3858.0,0.0088
3857.0,0.0085
3856.0,0.0083
3855.0,0.0083
3854.0,0.0086
3853.0,0.0086
3852.0,0.0084
3851.0,0.0085
3850.0,0.0089
3849.0,0.0092
3848.0,0.0092
3847.0,0.0091
3846.0,0.009
3845.0,0.0089
3844.0,0.0088
3843.0,0.0087
3842.0,0.0085
3841.0,0.0083
3840.0,0.0082
3839.0,0.0083
3838.0,0.0083
3837.0,0.0083
3836.0,0.0084
3835.0,0.0086
3834.0,0.0089
3833.0,0.0092
3832.0,0.0093
3831.0,0.0094
3830.0,0.0094
3829.0,0.0094
3828.0,0.0096
3827.0,0.0096
3826.0,0.0093
3825.0,0.0089
3824.0,0.0085
3823.0,0.0084
3822.0,0.0086
3821.0,0.0089
3820.0,0.0088
3819.0,0.0086
3818.0,0.0087
3817.0,0.0091
3816.0,0.0094
3815.0,0.0095
3814.0,0.0094
3813.0,0.0095
3812.0,0.0095
3811.0,0.0094
3810.0,0.0092
3809.0,0.009
3808.0,0.0091
3807.0,0.0091
3806.0,0.009
3805.0,0.0087
3804.0,0.0087
3803.0,0.0088
3802.0,0.009
3801.0,0.0091
3800.0,0.0089
3799.0,0.009
3798.0,0.0093
3797.0,0.0096
3796.0,0.0097
3795.0,0.0096
3794.0,0.0096
3793.0,0.0096
3792.0,0.0097
3791.0,0.0098
3790.0,0.0098
3789.0,0.0097
3788.0,0.0096
3787.0,0.0096
3786.0,0.0096
3785.0,0.0096
3784.0,0.0094
3783.0,0.0093
3782.0,0.0092
3781.0,0.0093
3780.0,0.0096
3779.0,0.0097
3778.0,0.0097
3777.0,0.0097
3776.0,0.0097
3775.0,0.0097
3774.0,0.0097
3773.0,0.0096
3772.0,0.0096
3771.0,0.0096
3770.0,0.0097
3769.0,0.0096
3768.0,0.0096
3767.0,0.0097
3766.0,0.0098
3765.0,0.0098
3764.0,0.0097
3763.0,0.0095
3762.0,0.0094
3761.0,0.0093
3760.0,0.0092
3759.0,0.0092
3758.0,0.009
3757.0,0.0089
3756.0,0.0087
3755.0,0.0086
3754.0,0.0084
3753.0,0.0083
3752.0,0.0086
3751.0,0.009
3750.0,0.0091
3749.0,0.0091
3748.0,0.009
3747.0,0.0091
3746.0,0.0094
3745.0,0.0097
3744.0,0.0097
3743.0,0.0094
3742.0,0.0094
3741.0,0.0095
3740.0,0.0096
3739.0,0.0094
3738.0,0.0091
3737.0,0.0091
3736.0,0.0092
3735.0,0.0092
3734.0,0.0092
3733.0,0.0092
3732.0,0.0094
3731.0,0.0096
3730.0,0.0098
3729.0,0.0099
3728.0,0.01
3727.0,0.01
3726.0,0.0099
3725.0,0.0098
3724.0,0.0097
3723.0,0.0097
3722.0,0.0097
3721.0,0.0097
3720.0,0.0098
3719.0,0.0099
3718.0,0.0099
3717.0,0.0099
3716.0,0.0097
3715.0,0.0095
3714.0,0.0094
3713.0,0.0094
3712.0,0.0097
3711.0,0.0099
3710.0,0.01
3709.0,0.01
3708.0,0.0101
3707.0,0.0101
3706.0,0.0101
3705.0,0.01
3704.0,0.01
3703.0,0.01
3702.0,0.01
3701.0,0.01
3700.0,0.01
3699.0,0.0101
3698.0,0.0103
3697.0,0.0104
3696.0,0.0104
3695.0,0.0102
3694.0,0.01
3693.0,0.0096
3692.0,0.0093
3691.0,0.0091
3690.0,0.0092
3689.0,0.0094
3688.0,0.0095
3687.0,0.0096
3686.0,0.0099
3685.0,0.01
3684.0,0.0101
3683.0,0.01
3682.0,0.0098
3681.0,0.0097
3680.0,0.0096
3679.0,0.0093
3678.0,0.0091
3677.0,0.0091
3676.0,0.0094
3675.0,0.0094
3674.0,0.0092
3673.0,0.0091
3672.0,0.0094
3671.0,0.0097
3670.0,0.0099
3669.0,0.0098
3668.0,0.0097
3667.0,0.0098
3666.0,0.01
3665.0,0.0102
3664.0,0.0102
3663.0,0.0101
3662.0,0.01
3661.0,0.0098
3660.0,0.0096
3659.0,0.0095
3658.0,0.0095
3657.0,0.0096
3656.0,0.0097
3655.0,0.0095
3654.0,0.0093
3653.0,0.0091
3652.0,0.0087
3651.0,0.0085
3650.0,0.0084
3649.0,0.0085
3648.0,0.0087
3647.0,0.009
3646.0,0.0093
3645.0,0.0097
3644.0,0.01
3643.0,0.0103
3642.0,0.0104
3641.0,0.0104
3640.0,0.0104
3639.0,0.0105
3638.0,0.0105
3637.0,0.0105
3636.0,0.0104
3635.0,0.0104
3634.0,0.0102
3633.0,0.0099
3632.0,0.0096
3631.0,0.0093
3630.0,0.0095
3629.0,0.0099
3628.0,0.0101
3627.0,0.0101
3626.0,0.0103
3625.0,0.0105
3624.0,0.0105
3623.0,0.0103
3622.0,0.0099
3621.0,0.0097
3620.0,0.0096
3619.0,0.0097
3618.0,0.0097
3617.0,0.0097
3616.0,0.0098
3615.0,0.01
3614.0,0.0102
3613.0,0.0102
3612.0,0.0102
3611.0,0.0102
3610.0,0.0103
3609.0,0.0105
3608.0,0.0107
3607.0,0.0107
3606.0,0.0108
3605.0,0.0109
3604.0,0.011
3603.0,0.0112
3602.0,0.0112
3601.0,0.0112
3600.0,0.011
3599.0,0.0108
3598.0,0.0107
3597.0,0.0106
3596.0,0.0106
3595.0,0.0107
3594.0,0.0108
3593.0,0.0108
3592.0,0.0108
3591.0,0.0107
3590.0,0.0106
3589.0,0.0105
3588.0,0.0107
3587.0,0.0107
3586.0,0.0107
3585.0,0.0108
3584.0,0.0109
3583.0,0.011
3582.0,0.0111
3581.0,0.0111
3580.0,0.0111
3579.0,0.0111
3578.0,0.0111
3577.0,0.0112
3576.0,0.0113
3575.0,0.0113
3574.0,0.0113
3573.0,0.0113
3572.0,0.0112
3571.0,0.011
3570.0,0.0109
3569.0,0.0107
3568.0,0.0107
3567.0,0.0108
3566.0,0.0108
3565.0,0.0107
3564.0,0.0108
3563.0,0.011
3562.0,0.0111
3561.0,0.0113
3560.0,0.0114
3559.0,0.0115
3558.0,0.0115
3557.0,0.0114
3556.0,0.0114
3555.0,0.0113
3554.0,0.0113
3553.0,0.0113
3552.0,0.0113
3551.0,0.0113
3550.0,0.0112
3549.0,0.0113
3548.0,0.0113
3547.0,0.0114
3546.0,0.0115
3545.0,0.0116
3544.0,0.0117
3543.0,0.0117
3542.0,0.0118
3541.0,0.0119
3540.0,0.0119
3539.0,0.0119
3538.0,0.012
3537.0,0.0121
3536.0,0.0121
3535.0,0.0121
3534.0,0.0121
3533.0,0.0121
3532.0,0.0121
3531.0,0.0121
3530.0,0.0121
3529.0,0.0121
3528.0,0.0121
3527.0,0.0121
3526.0,0.012
3525.0,0.012
3524.0,0.012
3523.0,0.012
3522.0,0.0121
3521.0,0.0121
3520.0,0.0122
3519.0,0.0122
3518.0,0.0121
3517.0,0.0122
3516.0,0.0122
3515.0,0.0123
3514.0,0.0123
3513.0,0.0123
3512.0,0.0124
3511.0,0.0125
3510.0,0.0126
3509.0,0.0126
3508.0,0.0126
3507.0,0.0125
3506.0,0.0124
3505.0,0.0124
3504.0,0.0124
3503.0,0.0124
3502.0,0.0124
3501.0,0.0124
3500.0,0.0124
3499.0,0.0125
3498.0,0.0125
3497.0,0.0126
3496.0,0.0127
3495.0,0.0127
3494.0,0.0127
3493.0,0.0127
3492.0,0.0127
3491.0,0.0128
3490.0,0.0129
3489.0,0.0129
3488.0,0.0128
3487.0,0.0127
3486.0,0.0126
3485.0,0.0126
3484.0,0.0126
3483.0,0.0126
3482.0,0.0127
3481.0,0.0127
3480.0,0.0128
3479.0,0.0128
3478.0,0.0129
3477.0,0.0129
3476.0,0.0129
3475.0,0.0129
3474.0,0.0129
3473.0,0.0129
3472.0,0.0129
3471.0,0.0129
3470.0,0.0129
3469.0,0.013
3468.0,0.013
3467.0,0.0131
3466.0,0.0131
3465.0,0.0131
3464.0,0.0132
3463.0,0.0132
3462.0,0.0132
3461.0,0.0132
3460.0,0.0131
3459.0,0.0131
3458.0,0.0131
3457.0,0.0131
3456.0,0.0131
3455.0,0.0131
3454.0,0.013
3453.0,0.013
3452.0,0.0129
3451.0,0.0129
3450.0,0.0129
3449.0,0.0129
3448.0,0.013
3447.0,0.013
3446.0,0.0131
3445.0,0.0131
3444.0,0.0132
3443.0,0.0132
3442.0,0.0132
3441.0,0.0132
3440.0,0.0132
3439.0,0.0132
3438.0,0.0133
3437.0,0.0134
3436.0,0.0135
3435.0,0.0135
3434.0,0.0136
3433.0,0.0136
3432.0,0.0137
3431.0,0.0137
3430.0,0.0137
3429.0,0.0137
3428.0,0.0137
3427.0,0.0137
3426.0,0.0137
3425.0,0.0136
3424.0,0.0135
3423.0,0.0134
3422.0,0.0135
3421.0,0.0135
3420.0,0.0135
3419.0,0.0135
3418.0,0.0134
3417.0,0.0133
3416.0,0.0133
3415.0,0.0133
3414.0,0.0134
3413.0,0.0135
3412.0,0.0136
3411.0,0.0136
3410.0,0.0135
3409.0,0.0134
3408.0,0.0134
3407.0,0.0134
3406.0,0.0135
3405.0,0.0135
3404.0,0.0136
3403.0,0.0136
3402.0,0.0135
3401.0,0.0135
3400.0,0.0134
3399.0,0.0135
3398.0,0.0135
3397.0,0.0136
3396.0,0.0136
3395.0,0.0137
3394.0,0.0137
3393.0,0.0137
3392.0,0.0137
3391.0,0.0136
3390.0,0.0136
3389.0,0.0136
3388.0,0.0136
3387.0,0.0135
3386.0,0.0136
3385.0,0.0136
3384.0,0.0136
3383.0,0.0135
3382.0,0.0135
3381.0,0.0134
3380.0,0.0134
3379.0,0.0134
3378.0,0.0135
3377.0,0.0135
3376.0,0.0135
3375.0,0.0135
3374.0,0.0135
3373.0,0.0136
3372.0,0.0136
3371.0,0.0135
3370.0,0.0135
3369.0,0.0134
3368.0,0.0134
3367.0,0.0134
3366.0,0.0135
3365.0,0.0136
3364.0,0.0136
3363.0,0.0135
3362.0,0.0134
3361.0,0.0133
3360.0,0.0133
3359.0,0.0134
3358.0,0.0135
3357.0,0.0136
3356.0,0.0137
3355.0,0.0138
3354.0,0.0137
3353.0,0.0137
3352.0,0.0136
3351.0,0.0136
3350.0,0.0136
3349.0,0.0137
3348.0,0.0137
3347.0,0.0137
3346.0,0.0137
3345.0,0.0136
3344.0,0.0135
3343.0,0.0135
3342.0,0.0134
3341.0,0.0134
3340.0,0.0133
3339.0,0.0133
3338.0,0.0132
3337.0,0.0132
3336.0,0.0132
3335.0,0.0133
3334.0,0.0133
3333.0,0.0134
3332.0,0.0133
3331.0,0.0133
3330.0,0.0133
3329.0,0.0133
3328.0,0.0134
3327.0,0.0134
3326.0,0.0134
3325.0,0.0135
3324.0,0.0135
3323.0,0.0135
3322.0,0.0135
3321.0,0.0134
3320.0,0.0133
3319.0,0.0132
3318.0,0.0131
3317.0,0.0131
3316.0,0.0131
3315.0,0.0131
3314.0,0.013
3313.0,0.0129
3312.0,0.0128
3311.0,0.0128
3310.0,0.0129
3309.0,0.0129
3308.0,0.0129
3307.0,0.0129
3306.0,0.0129
3305.0,0.0129
3304.0,0.0128
3303.0,0.0128
3302.0,0.0127
3301.0,0.0127
3300.0,0.0126
3299.0,0.0126
3298.0,0.0127
3297.0,0.0127
3296.0,0.0128
3295.0,0.0128
3294.0,0.0128
3293.0,0.0127
3292.0,0.0127
3291.0,0.0127
3290.0,0.0127
3289.0,0.0126
3288.0,0.0125
3287.0,0.0125
3286.0,0.0125
3285.0,0.0126
3284.0,0.0126
3283.0,0.0126
3282.0,0.0125
3281.0,0.0125
3280.0,0.0125
3279.0,0.0125
3278.0,0.0125
3277.0,0.0125
3276.0,0.0125
3275.0,0.0124
3274.0,0.0123
3273.0,0.0123
3272.0,0.0122
3271.0,0.0122
3270.0,0.0122
3269.0,0.0122
3268.0,0.0122
3267.0,0.0121
3266.0,0.0121
3265.0,0.0121
3264.0,0.0122
3263.0,0.0122
3262.0,0.0122
3261.0,0.0122
3260.0,0.0122
3259.0,0.0122
3258.0,0.0122
3257.0,0.0121
3256.0,0.0121
3255.0,0.0121
3254.0,0.0121
3253.0,0.0121
3252.0,0.0121
3251.0,0.012
3250.0,0.0119
3249.0,0.0118
3248.0,0.0118
3247.0,0.0119
3246.0,0.012
3245.0,0.012
3244.0,0.012
3243.0,0.012
3242.0,0.0119
3241.0,0.0119
3240.0,0.0119
3239.0,0.0119
3238.0,0.0118
3237.0,0.0118
3236.0,0.0118
3235.0,0.0117
3234.0,0.0118
3233.0,0.0118
3232.0,0.0119
3231.0,0.0119
3230.0,0.0118
3229.0,0.0117
3228.0,0.0116
3227.0,0.0116
3226.0,0.0116
3225.0,0.0117
3224.0,0.0118
3223.0,0.0118
3222.0,0.0119
3221.0,0.0119
3220.0,0.0118
3219.0,0.0118
3218.0,0.0118
3217.0,0.0117
3216.0,0.0117
3215.0,0.0116
3214.0,0.0116
3213.0,0.0116
3212.0,0.0116
3211.0,0.0116
3210.0,0.0117
3209.0,0.0117
3208.0,0.0118
3207.0,0.0119
3206.0,0.0118
3205.0,0.0118
3204.0,0.0117
3203.0,0.0116
3202.0,0.0116
3201.0,0.0116
3200.0,0.0116
3199.0,0.0116
3198.0,0.0117
3197.0,0.0117
3196.0,0.0118
3195.0,0.0119
3194.0,0.0119
3193.0,0.0117
3192.0,0.0116
3191.0,0.0115
3190.0,0.0115
3189.0,0.0115
3188.0,0.0115
3187.0,0.0115
3186.0,0.0115
3185.0,0.0116
3184.0,0.0116
3183.0,0.0115
3182.0,0.0114
3181.0,0.0112
3180.0,0.0111
3179.0,0.011
3178.0,0.011
3177.0,0.011
3176.0,0.011
3175.0,0.0109
3174.0,0.0109
3173.0,0.0109
3172.0,0.0108
3171.0,0.0107
3170.0,0.0107
3169.0,0.0108
3168.0,0.0108
3167.0,0.0108
3166.0,0.0109
3165.0,0.0109
3164.0,0.0109
3163.0,0.0109
3162.0,0.0108
3161.0,0.0108
3160.0,0.0107
3159.0,0.0107
3158.0,0.0107
3157.0,0.0106
3156.0,0.0105
3155.0,0.0105
3154.0,0.0105
3153.0,0.0105
3152.0,0.0104
3151.0,0.0104
3150.0,0.0104
3149.0,0.0104
3148.0,0.0105
3147.0,0.0105
3146.0,0.0105
3145.0,0.0104
3144.0,0.0104
3143.0,0.0103
3142.0,0.0103
3141.0,0.0102
3140.0,0.0101
3139.0,0.01
3138.0,0.01
3137.0,0.01
3136.0,0.0099
3135.0,0.0099
3134.0,0.0099
3133.0,0.0099
3132.0,0.0099
3131.0,0.0099
3130.0,0.0098
3129.0,0.0098
3128.0,0.0097
3127.0,0.0096
3126.0,0.0095
3125.0,0.0095
3124.0,0.0094
3123.0,0.0093
3122.0,0.0092
3121.0,0.009
3120.0,0.009
3119.0,0.0089
3118.0,0.009
3117.0,0.009
3116.0,0.009
3115.0,0.0089
3114.0,0.0089
3113.0,0.0088
3112.0,0.0088
3111.0,0.0088
3110.0,0.0088
3109.0,0.0088
3108.0,0.0089
3107.0,0.0089
3106.0,0.0088
3105.0,0.0087
3104.0,0.0086
3103.0,0.0086
3102.0,0.0086
3101.0,0.0086
3100.0,0.0086
3099.0,0.0086
3098.0,0.0086
3097.0,0.0085
3096.0,0.0085
3095.0,0.0084
3094.0,0.0083
3093.0,0.0083
3092.0,0.0082
3091.0,0.0081
3090.0,0.008
3089.0,0.0079
3088.0,0.0079
3087.0,0.0079
3086.0,0.0079
3085.0,0.0078
3084.0,0.0078
3083.0,0.0078
3082.0,0.0077
3081.0,0.0077
3080.0,0.0077
3079.0,0.0076
3078.0,0.0075
3077.0,0.0075
3076.0,0.0074
3075.0,0.0073
3074.0,0.0073
3073.0,0.0073
3072.0,0.0072
3071.0,0.0072
3070.0,0.0072
3069.0,0.0071
3068.0,0.007
3067.0,0.007
3066.0,0.0069
3065.0,0.0069
3064.0,0.0069
3063.0,0.0068
3062.0,0.0068
3061.0,0.0068
3060.0,0.0068
3059.0,0.0067
3058.0,0.0067
3057.0,0.0066
3056.0,0.0066
3055.0,0.0064
3054.0,0.0063
3053.0,0.0062
3052.0,0.0061
3051.0,0.0061
3050.0,0.0061
3049.0,0.0061
3048.0,0.006
3047.0,0.0059
3046.0,0.0058
3045.0,0.0058
3044.0,0.0058
3043.0,0.0057
3042.0,0.0057
3041.0,0.0056
3040.0,0.0055
3039.0,0.0054
3038.0,0.0053
3037.0,0.0052
3036.0,0.0051
3035.0,0.005
3034.0,0.0049
3033.0,0.0049
3032.0,0.0049
3031.0,0.0049
3030.0,0.0049
3029.0,0.0048
3028.0,0.0047
3027.0,0.0047
3026.0,0.0046
3025.0,0.0046
3024.0,0.0046
3023.0,0.0046
3022.0,0.0045
3021.0,0.0044
3020.0,0.0043
3019.0,0.0042
3018.0,0.0041
3017.0,0.0041
3016.0,0.0041
3015.0,0.004
3014.0,0.004
3013.0,0.004
3012.0,0.004
3011.0,0.0039
3010.0,0.0038
3009.0,0.0038
3008.0,0.0037
3007.0,0.0037
3006.0,0.0036
3005.0,0.0036
3004.0,0.0036
3003.0,0.0037
3002.0,0.0037
3001.0,0.0037
3000.0,0.0038
2999.0,0.0038
2998.0,0.0038
2997.0,0.0039
2996.0,0.004
2995.0,0.0042
2994.0,0.0044
2993.0,0.0046
2992.0,0.0049
2991.0,0.0051
2990.0,0.0054
2989.0,0.0058
2988.0,0.0063
2987.0,0.007
2986.0,0.0076
2985.0,0.0084
2984.0,0.0092
2983.0,0.0102
2982.0,0.0114
2981.0,0.0128
2980.0,0.0144
2979.0,0.0163
2978.0,0.0184
2977.0,0.0209
2976.0,0.0238
2975.0,0.027
2974.0,0.0308
2973.0,0.035
2972.0,0.0398
2971.0,0.0451
2970.0,0.051
2969.0,0.0574
2968.0,0.0643
2967.0,0.0717
2966.0,0.0793
2965.0,0.087
2964.0,0.0945
2963.0,0.1013
2962.0,0.107
2961.0,0.1115
2960.0,0.1147
2959.0,0.117
2958.0,0.119
2957.0,0.1212
2956.0,0.124
2955.0,0.1276
2954.0,0.132
2953.0,0.1366
2952.0,0.1408
2951.0,0.1436
2950.0,0.1443
2949.0,0.1423
2948.0,0.1378
2947.0,0.1308
2946.0,0.1223
2945.0,0.113
2944.0,0.1038
2943.0,0.0956
2942.0,0.0887
2941.0,0.0833
2940.0,0.0797
2939.0,0.0776
2938.0,0.0769
2937.0,0.0776
2936.0,0.0795
2935.0,0.0825
2934.0,0.0865
2933.0,0.0915
2932.0,0.0972
2931.0,0.1035
2930.0,0.1101
2929.0,0.1169
2928.0,0.1236
2927.0,0.1301
2926.0,0.1364
2925.0,0.1424
2924.0,0.1482
2923.0,0.154
2922.0,0.1598
2921.0,0.1653
2920.0,0.1701
2919.0,0.1737
2918.0,0.1755
2917.0,0.1753
2916.0,0.1731
2915.0,0.1694
2914.0,0.1648
2913.0,0.16
2912.0,0.1554
2911.0,0.1513
2910.0,0.1476
2909.0,0.1444
2908.0,0.1414
2907.0,0.1385
2906.0,0.1353
2905.0,0.1319
2904.0,0.1283
2903.0,0.1244
2902.0,0.1204
2901.0,0.1164
2900.0,0.1125
2899.0,0.1087
2898.0,0.1051
2897.0,0.1018
2896.0,0.0989
2895.0,0.0963
2894.0,0.0942
2893.0,0.0925
2892.0,0.0912
2891.0,0.0902
2890.0,0.0896
2889.0,0.0893
2888.0,0.0894
2887.0,0.0897
2886.0,0.0903
2885.0,0.0911
2884.0,0.0922
2883.0,0.0936
2882.0,0.095
2881.0,0.0966
2880.0,0.0982
2879.0,0.0995
2878.0,0.1003
2877.0,0.1005
2876.0,0.1002
2875.0,0.0996
2874.0,0.0992
2873.0,0.0993
2872.0,0.1
2871.0,0.1013
2870.0,0.1028
2869.0,0.1043
2868.0,0.1051
2867.0,0.1048
2866.0,0.1028
2865.0,0.0991
2864.0,0.0939
2863.0,0.0877
2862.0,0.0814
2861.0,0.0754
2860.0,0.0701
2859.0,0.0658
2858.0,0.0624
2857.0,0.0598
2856.0,0.058
2855.0,0.0568
2854.0,0.0562
2853.0,0.0562
2852.0,0.0566
2851.0,0.0576
2850.0,0.0592
2849.0,0.0612
2848.0,0.0639
2847.0,0.0674
2846.0,0.0715
2845.0,0.0763
2844.0,0.0817
2843.0,0.0873
2842.0,0.0928
2841.0,0.0979
2840.0,0.1021
2839.0,0.1048
2838.0,0.1057
2837.0,0.1045
2836.0,0.1012
2835.0,0.096
2834.0,0.0897
2833.0,0.083
2832.0,0.0766
2831.0,0.0708
2830.0,0.0658
2829.0,0.0616
2828.0,0.0581
2827.0,0.0551
2826.0,0.0526
2825.0,0.0505
2824.0,0.0488
2823.0,0.0473
2822.0,0.046
2821.0,0.0448
2820.0,0.0437
2819.0,0.0428
2818.0,0.0419
2817.0,0.0411
2816.0,0.0405
2815.0,0.0398
2814.0,0.0393
2813.0,0.0387
2812.0,0.0381
2811.0,0.0376
2810.0,0.0371
2809.0,0.0366
2808.0,0.0361
2807.0,0.0356
2806.0,0.035
2805.0,0.0344
2804.0,0.0338
2803.0,0.0333
2802.0,0.0328
2801.0,0.0324
2800.0,0.032
2799.0,0.0316
2798.0,0.0314
2797.0,0.0311
2796.0,0.0308
2795.0,0.0304
2794.0,0.0301
2793.0,0.0297
2792.0,0.0295
2791.0,0.0292
2790.0,0.0289
2789.0,0.0286
2788.0,0.0282
2787.0,0.0279
2786.0,0.0276
2785.0,0.0273
2784.0,0.027
2783.0,0.0268
2782.0,0.0265
2781.0,0.0262
2780.0,0.0259
2779.0,0.0257
2778.0,0.0255
2777.0,0.0254
2776.0,0.0252
2775.0,0.025
2774.0,0.0248
2773.0,0.0247
2772.0,0.0246
2771.0,0.0245
2770.0,0.0244
2769.0,0.0243
2768.0,0.0242
2767.0,0.024
2766.0,0.0238
2765.0,0.0237
2764.0,0.0236
2763.0,0.0235
2762.0,0.0234
2761.0,0.0233
2760.0,0.0232
2759.0,0.0231
2758.0,0.023
2757.0,0.0229
2756.0,0.0227
2755.0,0.0226
2754.0,0.0226
2753.0,0.0225
2752.0,0.0225
2751.0,0.0225
2750.0,0.0224
2749.0,0.0224
2748.0,0.0224
2747.0,0.0224
2746.0,0.0224
2745.0,0.0224
2744.0,0.0224
2743.0,0.0225
2742.0,0.0225
2741.0,0.0226
2740.0,0.0227
2739.0,0.0227
2738.0,0.0228
2737.0,0.0229
2736.0,0.0229
2735.0,0.023
2734.0,0.023
2733.0,0.0231
2732.0,0.0233
2731.0,0.0234
2730.0,0.0236
2729.0,0.0237
2728.0,0.0239
2727.0,0.0242
2726.0,0.0244
2725.0,0.0246
2724.0,0.0248
2723.0,0.0248
2722.0,0.0248
2721.0,0.0246
2720.0,0.0245
2719.0,0.0243
2718.0,0.0241
2717.0,0.0239
2716.0,0.0236
2715.0,0.0233
2714.0,0.0231
2713.0,0.0228
2712.0,0.0226
2711.0,0.0223
2710.0,0.0221
2709.0,0.022
2708.0,0.0218
2707.0,0.0217
2706.0,0.0216
2705.0,0.0215
2704.0,0.0214
2703.0,0.0213
2702.0,0.0212
2701.0,0.0211
2700.0,0.021
2699.0,0.0209
2698.0,0.0208
2697.0,0.0208
2696.0,0.0207
2695.0,0.0206
2694.0,0.0206
2693.0,0.0206
2692.0,0.0206
2691.0,0.0205
2690.0,0.0205
2689.0,0.0204
2688.0,0.0203
2687.0,0.0204
2686.0,0.0204
2685.0,0.0205
2684.0,0.0205
2683.0,0.0205
2682.0,0.0204
2681.0,0.0204
2680.0,0.0205
2679.0,0.0205
2678.0,0.0205
2677.0,0.0204
2676.0,0.0204
2675.0,0.0203
2674.0,0.0202
2673.0,0.0201
2672.0,0.0201
2671.0,0.0201
2670.0,0.0201
2669.0,0.0201
2668.0,0.0201
2667.0,0.0201
2666.0,0.02
2665.0,0.02
2664.0,0.02
2663.0,0.02
2662.0,0.0199
2661.0,0.0199
2660.0,0.0199
2659.0,0.0198
2658.0,0.0198
2657.0,0.0198
2656.0,0.0198
2655.0,0.0198
2654.0,0.0197
2653.0,0.0196
2652.0,0.0195
2651.0,0.0194
2650.0,0.0193
2649.0,0.0192
2648.0,0.0192
2647.0,0.0191
2646.0,0.019
2645.0,0.019
2644.0,0.0189
2643.0,0.0189
2642.0,0.0188
2641.0,0.0188
2640.0,0.0188
2639.0,0.0188
2638.0,0.0187
2637.0,0.0187
2636.0,0.0186
2635.0,0.0186
2634.0,0.0186
2633.0,0.0185
2632.0,0.0185
2631.0,0.0185
2630.0,0.0185
2629.0,0.0185
2628.0,0.0186
2627.0,0.0186
2626.0,0.0187
2625.0,0.0186
2624.0,0.0186
2623.0,0.0186
2622.0,0.0186
2621.0,0.0187
2620.0,0.0188
2619.0,0.0188
2618.0,0.0188
2617.0,0.0187
2616.0,0.0187
2615.0,0.0186
2614.0,0.0186
2613.0,0.0186
2612.0,0.0186
2611.0,0.0185
2610.0,0.0184
2609.0,0.0183
2608.0,0.0183
2607.0,0.0182
2606.0,0.0182
2605.0,0.0182
2604.0,0.0181
2603.0,0.0181
2602.0,0.018
2601.0,0.0178
2600.0,0.0177
2599.0,0.0177
2598.0,0.0177
2597.0,0.0177
2596.0,0.0178
2595.0,0.0179
2594.0,0.0179
2593.0,0.0178
2592.0,0.0179
2591.0,0.0179
2590.0,0.018
2589.0,0.0181
2588.0,0.0182
2587.0,0.0183
2586.0,0.0184
2585.0,0.0186
2584.0,0.0187
2583.0,0.0187
2582.0,0.0188
2581.0,0.0187
2580.0,0.0186
2579.0,0.0184
2578.0,0.0183
2577.0,0.0182
2576.0,0.0181
2575.0,0.018
2574.0,0.018
2573.0,0.018
2572.0,0.0179
2571.0,0.0178
2570.0,0.0177
2569.0,0.0177
2568.0,0.0176
2567.0,0.0176
2566.0,0.0175
2565.0,0.0173
2564.0,0.0173
2563.0,0.0172
2562.0,0.0172
2561.0,0.0172
2560.0,0.0172
2559.0,0.0172
2558.0,0.0172
2557.0,0.0172
2556.0,0.0171
2555.0,0.017
2554.0,0.017
2553.0,0.017
2552.0,0.017
2551.0,0.017
2550.0,0.017
2549.0,0.0169
2548.0,0.0169
2547.0,0.0169
2546.0,0.0168
2545.0,0.0168
2544.0,0.0167
2543.0,0.0167
2542.0,0.0166
2541.0,0.0167
2540.0,0.0167
2539.0,0.0167
2538.0,0.0166
2537.0,0.0166
2536.0,0.0165
2535.0,0.0164
2534.0,0.0164
2533.0,0.0164
2532.0,0.0163
2531.0,0.0163
2530.0,0.0162
2529.0,0.0162
2528.0,0.0162
2527.0,0.0162
2526.0,0.0161
2525.0,0.0161
2524.0,0.016
2523.0,0.016
2522.0,0.016
2521.0,0.016
2520.0,0.016
2519.0,0.016
2518.0,0.016
2517.0,0.016
2516.0,0.0159
2515.0,0.0159
2514.0,0.0158
2513.0,0.0158
2512.0,0.0157
2511.0,0.0157
2510.0,0.0157
2509.0,0.0157
2508.0,0.0157
2507.0,0.0157
2506.0,0.0156
2505.0,0.0156
2504.0,0.0156
2503.0,0.0156
2502.0,0.0157
2501.0,0.0157
2500.0,0.0157
2499.0,0.0157
2498.0,0.0157
2497.0,0.0157
2496.0,0.0156
2495.0,0.0156
2494.0,0.0155
2493.0,0.0154
2492.0,0.0154
2491.0,0.0154
2490.0,0.0154
2489.0,0.0154
2488.0,0.0154
2487.0,0.0154
2486.0,0.0154
2485.0,0.0154
2484.0,0.0154
2483.0,0.0154
2482.0,0.0154
2481.0,0.0154
2480.0,0.0154
2479.0,0.0153
2478.0,0.0153
2477.0,0.0153
2476.0,0.0154
2475.0,0.0154
2474.0,0.0154
2473.0,0.0154
2472.0,0.0153
2471.0,0.0153
2470.0,0.0153
2469.0,0.0152
2468.0,0.0152
2467.0,0.0152
2466.0,0.0152
2465.0,0.0152
2464.0,0.0152
2463.0,0.0152
2462.0,0.0152
2461.0,0.0152
2460.0,0.0152
2459.0,0.0152
2458.0,0.0152
2457.0,0.0152
2456.0,0.0152
2455.0,0.0152
2454.0,0.0151
2453.0,0.0151
2452.0,0.0151
2451.0,0.0151
2450.0,0.0151
2449.0,0.015
2448.0,0.015
2447.0,0.0149
2446.0,0.0149
2445.0,0.015
2444.0,0.015
2443.0,0.015
2442.0,0.0151
2441.0,0.0151
2440.0,0.0151
2439.0,0.0152
2438.0,0.0152
2437.0,0.0152
2436.0,0.0152
2435.0,0.0152
2434.0,0.0152
2433.0,0.0151
2432.0,0.0151
2431.0,0.0151
2430.0,0.0151
2429.0,0.0151
2428.0,0.0151
2427.0,0.0151
2426.0,0.0151
2425.0,0.0151
2424.0,0.015
2423.0,0.0151
2422.0,0.0151
2421.0,0.0151
2420.0,0.0151
2419.0,0.015
2418.0,0.0149
2417.0,0.0149
2416.0,0.0149
2415.0,0.0149
2414.0,0.015
2413.0,0.015
2412.0,0.015
2411.0,0.015
2410.0,0.015
2409.0,0.015
2408.0,0.015
2407.0,0.015
2406.0,0.0151
2405.0,0.0151
2404.0,0.0151
2403.0,0.015
2402.0,0.015
2401.0,0.015
2400.0,0.015
2399.0,0.015
2398.0,0.015
2397.0,0.015
2396.0,0.015
2395.0,0.0149
2394.0,0.0149
2393.0,0.015
2392.0,0.015
2391.0,0.015
2390.0,0.015
2389.0,0.015
2388.0,0.0151
2387.0,0.0153
2386.0,0.0155
2385.0,0.0157
2384.0,0.0159
2383.0,0.0161
2382.0,0.0162
2381.0,0.0163
2380.0,0.0163
2379.0,0.0163
2378.0,0.0163
2377.0,0.0163
2376.0,0.0164
2375.0,0.0168
2374.0,0.0172
2373.0,0.0175
2372.0,0.0175
2371.0,0.0173
2370.0,0.017
2369.0,0.0168
2368.0,0.0167
2367.0,0.0166
2366.0,0.0163
2365.0,0.0159
2364.0,0.016
2363.0,0.0169
2362.0,0.0184
2361.0,0.0197
2360.0,0.0198
2359.0,0.0185
2358.0,0.0167
2357.0,0.0157
2356.0,0.016
2355.0,0.0169
2354.0,0.0174
2353.0,0.0172
2352.0,0.0168
2351.0,0.0167
2350.0,0.0171
2349.0,0.0174
2348.0,0.0175
2347.0,0.0175
2346.0,0.0176
2345.0,0.0179
2344.0,0.0182
2343.0,0.0185
2342.0,0.0185
2341.0,0.0182
2340.0,0.0181
2339.0,0.0182
2338.0,0.0183
2337.0,0.018
2336.0,0.0177
2335.0,0.0174
2334.0,0.017
2333.0,0.0167
2332.0,0.0164
2331.0,0.0165
2330.0,0.017
2329.0,0.0176
2328.0,0.0181
2327.0,0.0182
2326.0,0.0179
2325.0,0.0173
2324.0,0.0167
2323.0,0.0163
2322.0,0.0161
2321.0,0.0161
2320.0,0.0163
2319.0,0.0165
2318.0,0.0166
2317.0,0.0167
2316.0,0.0167
2315.0,0.0167
2314.0,0.0167
2313.0,0.0168
2312.0,0.0168
2311.0,0.0169
2310.0,0.017
2309.0,0.0169
2308.0,0.0166
2307.0,0.0162
2306.0,0.0159
2305.0,0.0157
2304.0,0.0157
2303.0,0.0159
2302.0,0.016
2301.0,0.016
2300.0,0.0159
2299.0,0.0158
2298.0,0.0158
2297.0,0.0158
2296.0,0.0157
2295.0,0.0156
2294.0,0.0155
2293.0,0.0153
2292.0,0.0151
2291.0,0.015
2290.0,0.0148
2289.0,0.0147
2288.0,0.0146
2287.0,0.0145
2286.0,0.0144
2285.0,0.0143
2284.0,0.0142
2283.0,0.0142
2282.0,0.0142
2281.0,0.0143
2280.0,0.0144
2279.0,0.0144
2278.0,0.0145
2277.0,0.0145
2276.0,0.0145
2275.0,0.0144
2274.0,0.0144
2273.0,0.0143
2272.0,0.0143
2271.0,0.0143
2270.0,0.0143
2269.0,0.0143
2268.0,0.0143
2267.0,0.0143
2266.0,0.0143
2265.0,0.0143
2264.0,0.0143
2263.0,0.0142
2262.0,0.0142
2261.0,0.0142
2260.0,0.0142
2259.0,0.0143
2258.0,0.0143
2257.0,0.0144
2256.0,0.0143
2255.0,0.0143
2254.0,0.0142
2253.0,0.0141
2252.0,0.0141
2251.0,0.014
2250.0,0.0139
2249.0,0.0139
2248.0,0.014
2247.0,0.014
2246.0,0.014
2245.0,0.014
2244.0,0.014
2243.0,0.014
2242.0,0.014
2241.0,0.0139
2240.0,0.0139
2239.0,0.0138
2238.0,0.0138
2237.0,0.0138
2236.0,0.0138
2235.0,0.0138
2234.0,0.0139
2233.0,0.0139
2232.0,0.0139
2231.0,0.0139
2230.0,0.0139
2229.0,0.014
2228.0,0.014
2227.0,0.014
2226.0,0.014
2225.0,0.0139
2224.0,0.0139
2223.0,0.0138
2222.0,0.0138
2221.0,0.0137
2220.0,0.0137
2219.0,0.0137
2218.0,0.0137
2217.0,0.0137
2216.0,0.0137
2215.0,0.0137
2214.0,0.0137
2213.0,0.0137
2212.0,0.0137
2211.0,0.0137
2210.0,0.0137
2209.0,0.0137
2208.0,0.0137
2207.0,0.0137
2206.0,0.0137
2205.0,0.0137
2204.0,0.0137
2203.0,0.0138
2202.0,0.0138
2201.0,0.0138
2200.0,0.0138
2199.0,0.0138
2198.0,0.0138
2197.0,0.0138
2196.0,0.0138
2195.0,0.0138
2194.0,0.0138
2193.0,0.0138
2192.0,0.0138
2191.0,0.0138
2190.0,0.0137
2189.0,0.0137
2188.0,0.0137
2187.0,0.0138
2186.0,0.0139
2185.0,0.0139
2184.0,0.0139
2183.0,0.0139
2182.0,0.0139
2181.0,0.0139
2180.0,0.0138
2179.0,0.0138
2178.0,0.0138
2177.0,0.0138
2176.0,0.0138
2175.0,0.0138
2174.0,0.0138
2173.0,0.0138
2172.0,0.0138
2171.0,0.0137
2170.0,0.0137
2169.0,0.0137
2168.0,0.0136
2167.0,0.0136
2166.0,0.0137
2165.0,0.0137
2164.0,0.0137
2163.0,0.0137
2162.0,0.0137
2161.0,0.0137
2160.0,0.0137
2159.0,0.0137
2158.0,0.0137
2157.0,0.0137
2156.0,0.0137
2155.0,0.0137
2154.0,0.0137
2153.0,0.0136
2152.0,0.0136
2151.0,0.0135
2150.0,0.0135
2149.0,0.0135
2148.0,0.0135
2147.0,0.0135
2146.0,0.0135
2145.0,0.0135
2144.0,0.0135
2143.0,0.0134
2142.0,0.0134
2141.0,0.0135
2140.0,0.0135
2139.0,0.0135
2138.0,0.0135
2137.0,0.0135
2136.0,0.0135
2135.0,0.0134
2134.0,0.0134
2133.0,0.0135
2132.0,0.0135
2131.0,0.0136
2130.0,0.0136
2129.0,0.0136
2128.0,0.0136
2127.0,0.0135
2126.0,0.0135
2125.0,0.0134
2124.0,0.0134
2123.0,0.0134
2122.0,0.0134
2121.0,0.0134
2120.0,0.0134
2119.0,0.0134
2118.0,0.0134
2117.0,0.0134
2116.0,0.0134
2115.0,0.0133
2114.0,0.0133
2113.0,0.0133
2112.0,0.0133
2111.0,0.0133
2110.0,0.0133
2109.0,0.0133
2108.0,0.0134
2107.0,0.0134
2106.0,0.0133
2105.0,0.0133
2104.0,0.0132
2103.0,0.0132
2102.0,0.0132
2101.0,0.0132
2100.0,0.0132
2099.0,0.0132
2098.0,0.0132
2097.0,0.0132
2096.0,0.0131
2095.0,0.0131
2094.0,0.0131
2093.0,0.0131
2092.0,0.0131
2091.0,0.0131
2090.0,0.0132
2089.0,0.0132
2088.0,0.0132
2087.0,0.0132
2086.0,0.0132
2085.0,0.0132
2084.0,0.0132
2083.0,0.0132
2082.0,0.0132
2081.0,0.0132
2080.0,0.0132
2079.0,0.0132
2078.0,0.0132
2077.0,0.0132
2076.0,0.0132
2075.0,0.0132
2074.0,0.0132
2073.0,0.0132
2072.0,0.0132
2071.0,0.0132
2070.0,0.0131
2069.0,0.0131
2068.0,0.0131
2067.0,0.0131
2066.0,0.0131
2065.0,0.013
2064.0,0.013
2063.0,0.013
2062.0,0.013
2061.0,0.0131
2060.0,0.0131
2059.0,0.0131
2058.0,0.0131
2057.0,0.0131
2056.0,0.013
2055.0,0.013
2054.0,0.013
2053.0,0.0131
2052.0,0.0131
2051.0,0.0131
2050.0,0.0132
2049.0,0.0132
2048.0,0.0132
2047.0,0.0132
2046.0,0.0132
2045.0,0.0132
2044.0,0.0132
2043.0,0.0131
2042.0,0.0131
2041.0,0.0132
2040.0,0.0132
2039.0,0.0132
2038.0,0.0132
2037.0,0.0132
2036.0,0.0132
2035.0,0.0132
2034.0,0.0132
2033.0,0.0132
2032.0,0.0132
2031.0,0.0132
2030.0,0.0132
2029.0,0.0132
2028.0,0.0132
2027.0,0.0131
2026.0,0.0131
2025.0,0.0131
2024.0,0.0131
2023.0,0.0132
2022.0,0.0131
2021.0,0.0131
2020.0,0.0131
2019.0,0.0131
2018.0,0.0131
2017.0,0.0132
2016.0,0.0132
2015.0,0.0132
2014.0,0.0132
2013.0,0.0132
2012.0,0.0132
2011.0,0.0132
2010.0,0.0131
2009.0,0.0132
2008.0,0.0132
2007.0,0.0132
2006.0,0.0132
2005.0,0.0132
2004.0,0.0132
2003.0,0.0131
2002.0,0.0131
2001.0,0.0131
2000.0,0.0131
1999.0,0.0131
1998.0,0.0131
1997.0,0.0131
1996.0,0.0131
1995.0,0.0131
1994.0,0.0132
1993.0,0.0132
1992.0,0.0132
1991.0,0.0132
1990.0,0.0132
1989.0,0.0132
1988.0,0.0132
1987.0,0.0131
1986.0,0.0131
1985.0,0.0131
1984.0,0.0131
1983.0,0.0132
1982.0,0.0132
1981.0,0.0132
1980.0,0.0132
1979.0,0.0132
1978.0,0.0131
1977.0,0.0131
1976.0,0.0131
1975.0,0.0131
1974.0,0.0131
1973.0,0.0131
1972.0,0.0131
1971.0,0.0131
1970.0,0.0131
1969.0,0.0131
1968.0,0.0131
1967.0,0.0131
1966.0,0.0131
1965.0,0.0131
1964.0,0.0132
1963.0,0.0132
1962.0,0.0132
1961.0,0.0132
1960.0,0.0132
1959.0,0.0132
1958.0,0.0132
1957.0,0.0131
1956.0,0.0131
1955.0,0.0131
1954.0,0.0131
1953.0,0.0131
1952.0,0.0131
1951.0,0.0131
1950.0,0.0132
1949.0,0.0132
1948.0,0.0132
1947.0,0.0131
1946.0,0.0131
1945.0,0.0131
1944.0,0.0132
1943.0,0.0132
1942.0,0.0132
1941.0,0.0132
1940.0,0.0131
1939.0,0.0131
1938.0,0.0131
1937.0,0.0132
1936.0,0.0132
1935.0,0.0132
1934.0,0.0131
1933.0,0.0131
1932.0,0.0131
1931.0,0.0131
1930.0,0.0131
1929.0,0.0131
1928.0,0.0131
1927.0,0.0132
1926.0,0.0133
1925.0,0.0133
1924.0,0.0133
1923.0,0.0133
1922.0,0.0132
1921.0,0.0132
1920.0,0.0132
1919.0,0.0133
1918.0,0.0133
1917.0,0.0133
1916.0,0.0133
1915.0,0.0134
1914.0,0.0134
1913.0,0.0134
1912.0,0.0133
1911.0,0.0133
1910.0,0.0133
1909.0,0.0133
1908.0,0.0133
1907.0,0.0133
1906.0,0.0133
1905.0,0.0134
1904.0,0.0133
1903.0,0.0133
1902.0,0.0133
1901.0,0.0133
1900.0,0.0133
1899.0,0.0133
1898.0,0.0133
1897.0,0.0134
1896.0,0.0134
1895.0,0.0134
1894.0,0.0134
1893.0,0.0134
1892.0,0.0134
1891.0,0.0134
1890.0,0.0134
1889.0,0.0134
1888.0,0.0133
1887.0,0.0133
1886.0,0.0133
1885.0,0.0133
1884.0,0.0133
1883.0,0.0134
1882.0,0.0134
1881.0,0.0134
1880.0,0.0134
1879.0,0.0134
1878.0,0.0133
1877.0,0.0133
1876.0,0.0133
1875.0,0.0133
1874.0,0.0133
1873.0,0.0132
1872.0,0.0132
1871.0,0.0132
1870.0,0.0131
1869.0,0.0132
1868.0,0.0133
1867.0,0.0133
1866.0,0.0133
1865.0,0.0133
1864.0,0.0133
1863.0,0.0133
1862.0,0.0133
1861.0,0.0133
1860.0,0.0133
1859.0,0.0134
1858.0,0.0134
1857.0,0.0134
1856.0,0.0134
1855.0,0.0134
1854.0,0.0135
1853.0,0.0135
1852.0,0.0135
1851.0,0.0135
1850.0,0.0135
1849.0,0.0134
1848.0,0.0134
1847.0,0.0135
1846.0,0.0135
1845.0,0.0136
1844.0,0.0135
1843.0,0.0135
1842.0,0.0135
1841.0,0.0136
1840.0,0.0136
1839.0,0.0136
1838.0,0.0136
1837.0,0.0137
1836.0,0.0137
1835.0,0.0136
1834.0,0.0136
1833.0,0.0135
1832.0,0.0135
1831.0,0.0136
1830.0,0.0136
1829.0,0.0136
1828.0,0.0136
1827.0,0.0136
1826.0,0.0136
1825.0,0.0136
1824.0,0.0136
1823.0,0.0136
1822.0,0.0135
1821.0,0.0135
1820.0,0.0135
1819.0,0.0135
1818.0,0.0135
1817.0,0.0135
1816.0,0.0135
1815.0,0.0134
1814.0,0.0134
1813.0,0.0134
1812.0,0.0134
1811.0,0.0134
1810.0,0.0133
1809.0,0.0133
1808.0,0.0133
1807.0,0.0134
1806.0,0.0134
1805.0,0.0134
1804.0,0.0135
1803.0,0.0135
1802.0,0.0135
1801.0,0.0135
1800.0,0.0135
1799.0,0.0135
1798.0,0.0135
1797.0,0.0135
1796.0,0.0134
1795.0,0.0134
1794.0,0.0134
1793.0,0.0135
1792.0,0.0135
1791.0,0.0135
1790.0,0.0136
1789.0,0.0137
1788.0,0.0138
1787.0,0.0138
1786.0,0.0139
1785.0,0.0139
1784.0,0.0139
1783.0,0.0138
1782.0,0.0138
1781.0,0.0138
1780.0,0.0138
1779.0,0.0137
1778.0,0.0136
1777.0,0.0136
1776.0,0.0136
1775.0,0.0136
1774.0,0.0136
1773.0,0.0136
1772.0,0.0137
1771.0,0.0137
1770.0,0.0138
1769.0,0.0139
1768.0,0.0139
1767.0,0.0139
1766.0,0.0139
1765.0,0.0139
1764.0,0.014
1763.0,0.0141
1762.0,0.0141
1761.0,0.0141
1760.0,0.0141
1759.0,0.0141
1758.0,0.0142
1757.0,0.0143
1756.0,0.0143
1755.0,0.0144
1754.0,0.0144
1753.0,0.0144
1752.0,0.0145
1751.0,0.0146
1750.0,0.0147
1749.0,0.0149
1748.0,0.0149
1747.0,0.0149
1746.0,0.0148
1745.0,0.0149
1744.0,0.0149
1743.0,0.015
1742.0,0.015
1741.0,0.015
1740.0,0.0149
1739.0,0.0148
1738.0,0.0147
1737.0,0.0147
1736.0,0.0148
1735.0,0.0147
1734.0,0.0147
1733.0,0.0146
1732.0,0.0146
1731.0,0.0146
1730.0,0.0147
1729.0,0.0147
1728.0,0.0147
1727.0,0.0147
1726.0,0.0147
1725.0,0.0147
1724.0,0.0148
1723.0,0.0148
1722.0,0.0148
1721.0,0.0148
1720.0,0.0148
1719.0,0.0148
1718.0,0.0149
1717.0,0.015
1716.0,0.015
1715.0,0.015
1714.0,0.0151
1713.0,0.0151
1712.0,0.015
1711.0,0.015
1710.0,0.015
1709.0,0.015
1708.0,0.015
1707.0,0.0149
1706.0,0.015
1705.0,0.015
1704.0,0.015
1703.0,0.0151
1702.0,0.0152
1701.0,0.0153
1700.0,0.0154
1699.0,0.0153
1698.0,0.0154
1697.0,0.0156
1696.0,0.0157
1695.0,0.0156
1694.0,0.0155
1693.0,0.0155
1692.0,0.0155
1691.0,0.0155
1690.0,0.0155
1689.0,0.0155
1688.0,0.0156
1687.0,0.0157
1686.0,0.0157
1685.0,0.0157
1684.0,0.0158
1683.0,0.0158
1682.0,0.0159
1681.0,0.016
1680.0,0.0161
1679.0,0.0161
1678.0,0.0161
1677.0,0.0161
1676.0,0.0162
1675.0,0.0162
1674.0,0.0161
1673.0,0.0162
1672.0,0.0162
1671.0,0.0163
1670.0,0.0164
1669.0,0.0164
1668.0,0.0164
1667.0,0.0163
1666.0,0.0163
1665.0,0.0164
1664.0,0.0164
1663.0,0.0165
1662.0,0.0166
1661.0,0.0165
1660.0,0.0165
1659.0,0.0165
1658.0,0.0165
1657.0,0.0165
1656.0,0.0165
1655.0,0.0164
1654.0,0.0167
1653.0,0.017
1652.0,0.0166
1651.0,0.0164
1650.0,0.0164
1649.0,0.0163
1648.0,0.0163
1647.0,0.0164
1646.0,0.0165
1645.0,0.0165
1644.0,0.0166
1643.0,0.0166
1642.0,0.0166
1641.0,0.0166
1640.0,0.0165
1639.0,0.0164
1638.0,0.0162
1637.0,0.0162
1636.0,0.0162
1635.0,0.0163
1634.0,0.0162
1633.0,0.0163
1632.0,0.0163
1631.0,0.0163
1630.0,0.0163
1629.0,0.0162
1628.0,0.0162
1627.0,0.0161
1626.0,0.0161
1625.0,0.016
1624.0,0.016
1623.0,0.016
1622.0,0.0159
1621.0,0.0159
1620.0,0.0159
1619.0,0.0159
1618.0,0.0159
1617.0,0.0159
1616.0,0.0158
1615.0,0.0157
1614.0,0.0157
1613.0,0.0157
1612.0,0.0156
1611.0,0.0155
1610.0,0.0154
1609.0,0.0154
1608.0,0.0154
1607.0,0.0154
1606.0,0.0154
1605.0,0.0154
1604.0,0.0154
1603.0,0.0154
1602.0,0.0154
1601.0,0.0153
1600.0,0.0153
1599.0,0.0152
1598.0,0.0151
1597.0,0.0151
1596.0,0.015
1595.0,0.015
1594.0,0.0151
1593.0,0.0151
1592.0,0.0151
1591.0,0.0151
1590.0,0.015
1589.0,0.015
1588.0,0.015
1587.0,0.015
1586.0,0.015
1585.0,0.015
1584.0,0.015
1583.0,0.015
1582.0,0.0151
1581.0,0.0151
1580.0,0.0151
1579.0,0.015
1578.0,0.015
1577.0,0.0149
1576.0,0.0148
1575.0,0.0148
1574.0,0.0148
1573.0,0.0149
1572.0,0.0149
1571.0,0.0148
1570.0,0.0147
1569.0,0.0147
1568.0,0.0147
1567.0,0.0148
1566.0,0.0148
1565.0,0.0147
1564.0,0.0147
1563.0,0.0147
1562.0,0.0147
1561.0,0.0145
1560.0,0.0142
1559.0,0.0144
1558.0,0.0144
1557.0,0.0145
1556.0,0.0147
1555.0,0.0148
1554.0,0.0148
1553.0,0.0147
1552.0,0.0147
1551.0,0.0146
1550.0,0.0146
1549.0,0.0146
1548.0,0.0146
1547.0,0.0145
1546.0,0.0145
1545.0,0.0144
1544.0,0.0144
1543.0,0.0144
1542.0,0.0143
1541.0,0.0143
1540.0,0.0143
1539.0,0.014
1538.0,0.0138
1537.0,0.0139
1536.0,0.014
1535.0,0.014
1534.0,0.0139
1533.0,0.0139
1532.0,0.0138
1531.0,0.0137
1530.0,0.0136
1529.0,0.0135
1528.0,0.0135
1527.0,0.0135
1526.0,0.0135
1525.0,0.0135
1524.0,0.0135
1523.0,0.0134
1522.0,0.0134
1521.0,0.0133
1520.0,0.0133
1519.0,0.0131
1518.0,0.013
1517.0,0.013
1516.0,0.0131
1515.0,0.0131
1514.0,0.0131
1513.0,0.013
1512.0,0.0129
1511.0,0.0128
1510.0,0.0126
1509.0,0.0125
1508.0,0.0127
1507.0,0.013
1506.0,0.013
1505.0,0.0129
1504.0,0.0129
1503.0,0.0129
1502.0,0.0128
1501.0,0.0128
1500.0,0.0129
1499.0,0.013
1498.0,0.013
1497.0,0.0131
1496.0,0.0132
1495.0,0.0131
1494.0,0.0131
1493.0,0.0132
1492.0,0.0132
1491.0,0.0131
1490.0,0.0131
1489.0,0.0133
1488.0,0.0136
1487.0,0.0138
1486.0,0.0139
1485.0,0.0142
1484.0,0.0145
1483.0,0.0148
1482.0,0.0151
1481.0,0.0157
1480.0,0.0164
1479.0,0.017
1478.0,0.0178
1477.0,0.019
1476.0,0.0205
1475.0,0.0222
1474.0,0.0249
1473.0,0.0297
1472.0,0.0354
1471.0,0.0401
1470.0,0.0444
1469.0,0.0489
1468.0,0.0539
1467.0,0.0597
1466.0,0.0668
1465.0,0.075
1464.0,0.0822
1463.0,0.0868
1462.0,0.0897
1461.0,0.0919
1460.0,0.0936
1459.0,0.095
1458.0,0.0972
1457.0,0.1
1456.0,0.1016
1455.0,0.1019
1454.0,0.102
1453.0,0.1017
1452.0,0.1008
1451.0,0.0991
1450.0,0.0964
1449.0,0.0921
1448.0,0.086
1447.0,0.0794
1446.0,0.0734
1445.0,0.0681
1444.0,0.0632
1443.0,0.059
1442.0,0.0557
1441.0,0.0534
1440.0,0.0518
1439.0,0.051
1438.0,0.0509
1437.0,0.0512
1436.0,0.0506
1435.0,0.0489
1434.0,0.0463
1433.0,0.043
1432.0,0.0394
1431.0,0.0361
1430.0,0.0334
1429.0,0.0313
1428.0,0.0298
1427.0,0.0288
1426.0,0.028
1425.0,0.0272
1424.0,0.0265
1423.0,0.0259
1422.0,0.0256
1421.0,0.0251
1420.0,0.0246
1419.0,0.0242
1418.0,0.024
1417.0,0.0237
1416.0,0.0233
1415.0,0.0231
1414.0,0.0229
1413.0,0.0226
1412.0,0.0223
1411.0,0.022
1410.0,0.0218
1409.0,0.0215
1408.0,0.0212
1407.0,0.021
1406.0,0.0208
1405.0,0.0206
1404.0,0.0203
1403.0,0.0202
1402.0,0.0201
1401.0,0.0199
1400.0,0.0196
1399.0,0.0195
1398.0,0.0194
1397.0,0.0193
1396.0,0.0191
1395.0,0.0191
1394.0,0.0192
1393.0,0.0192
1392.0,0.0192
1391.0,0.0194
1390.0,0.0198
1389.0,0.0204
1388.0,0.0215
1387.0,0.0237
1386.0,0.0269
1385.0,0.0313
1384.0,0.0377
1383.0,0.0467
1382.0,0.0587
1381.0,0.0736
1380.0,0.0917
1379.0,0.112
1378.0,0.1312
1377.0,0.1452
1376.0,0.1507
1375.0,0.1454
1374.0,0.131
1373.0,0.1138
1372.0,0.0983
1371.0,0.0852
1370.0,0.0738
1369.0,0.0644
1368.0,0.0575
1367.0,0.053
1366.0,0.0503
1365.0,0.049
1364.0,0.0488
1363.0,0.0497
1362.0,0.0513
1361.0,0.0531
1360.0,0.0543
1359.0,0.0548
1358.0,0.054
1357.0,0.0522
1356.0,0.0495
1355.0,0.0464
1354.0,0.0433
1353.0,0.0407
1352.0,0.0385
1351.0,0.0367
1350.0,0.0351
1349.0,0.0339
1348.0,0.0328
1347.0,0.0318
1346.0,0.0309
1345.0,0.0301
1344.0,0.0294
1343.0,0.0288
1342.0,0.0283
1341.0,0.0279
1340.0,0.0276
1339.0,0.0274
1338.0,0.0273
1337.0,0.0272
1336.0,0.0271
1335.0,0.0272
1334.0,0.0273
1333.0,0.0276
1332.0,0.0279
1331.0,0.0282
1330.0,0.0283
1329.0,0.0282
1328.0,0.0279
1327.0,0.0275
1326.0,0.027
1325.0,0.0265
1324.0,0.026
1323.0,0.0256
1322.0,0.0252
1321.0,0.0248
1320.0,0.0246
1319.0,0.0243
1318.0,0.0241
1317.0,0.0239
1316.0,0.0237
1315.0,0.0235
1314.0,0.0234
1313.0,0.0233
1312.0,0.0233
1311.0,0.0233
1310.0,0.0235
1309.0,0.0239
1308.0,0.0247
1307.0,0.0256
1306.0,0.0267
1305.0,0.0275
1304.0,0.0279
1303.0,0.0278
1302.0,0.0273
1301.0,0.0269
1300.0,0.0266
1299.0,0.0266
1298.0,0.0266
1297.0,0.0266
1296.0,0.0266
1295.0,0.0264
1294.0,0.0261
1293.0,0.0257
1292.0,0.0253
1291.0,0.0249
1290.0,0.0245
1289.0,0.0242
1288.0,0.0239
1287.0,0.0237
1286.0,0.0234
1285.0,0.0232
1284.0,0.023
1283.0,0.0228
1282.0,0.0227
1281.0,0.0225
1280.0,0.0224
1279.0,0.0223
1278.0,0.0222
1277.0,0.0221
1276.0,0.022
1275.0,0.022
1274.0,0.0219
1273.0,0.0218
1272.0,0.0218
1271.0,0.0218
1270.0,0.0218
1269.0,0.0218
1268.0,0.0218
1267.0,0.0219
1266.0,0.022
1265.0,0.0222
1264.0,0.0223
1263.0,0.0225
1262.0,0.0228
1261.0,0.0232
1260.0,0.0237
1259.0,0.0244
1258.0,0.0252
1257.0,0.0259
1256.0,0.0264
1255.0,0.0264
1254.0,0.026
1253.0,0.0254
1252.0,0.0247
1251.0,0.0241
1250.0,0.0237
1249.0,0.0233
1248.0,0.023
1247.0,0.0227
1246.0,0.0226
1245.0,0.0224
1244.0,0.0223
1243.0,0.0222
1242.0,0.022
1241.0,0.0219
1240.0,0.0218
1239.0,0.0217
1238.0,0.0217
1237.0,0.0217
1236.0,0.0216
1235.0,0.0216
1234.0,0.0215
1233.0,0.0215
1232.0,0.0215
1231.0,0.0215
1230.0,0.0215
1229.0,0.0215
1228.0,0.0215
1227.0,0.0216
1226.0,0.0218
1225.0,0.022
1224.0,0.0223
1223.0,0.0225
1222.0,0.0227
1221.0,0.0229
1220.0,0.023
1219.0,0.0231
1218.0,0.023
1217.0,0.0229
1216.0,0.0227
1215.0,0.0225
1214.0,0.0222
1213.0,0.022
1212.0,0.0218
1211.0,0.0216
1210.0,0.0215
1209.0,0.0214
1208.0,0.0213
1207.0,0.0212
1206.0,0.0211
1205.0,0.0211
1204.0,0.021
1203.0,0.021
1202.0,0.0209
1201.0,0.0208
1200.0,0.0208
1199.0,0.0207
1198.0,0.0207
1197.0,0.0207
1196.0,0.0207
1195.0,0.0207
1194.0,0.0207
1193.0,0.0206
1192.0,0.0206
1191.0,0.0205
1190.0,0.0204
1189.0,0.0204
1188.0,0.0204
1187.0,0.0204
1186.0,0.0204
1185.0,0.0204
1184.0,0.0204
1183.0,0.0205
1182.0,0.0206
1181.0,0.0207
1180.0,0.0209
1179.0,0.0213
1178.0,0.0217
1177.0,0.0224
1176.0,0.0233
1175.0,0.0247
1174.0,0.0266
1173.0,0.029
1172.0,0.0319
1171.0,0.0351
1170.0,0.0382
1169.0,0.0407
1168.0,0.0422
1167.0,0.0427
1166.0,0.0422
1165.0,0.0411
1164.0,0.0398
1163.0,0.0385
1162.0,0.0373
1161.0,0.0363
1160.0,0.0355
1159.0,0.0349
1158.0,0.0344
1157.0,0.0341
1156.0,0.034
1155.0,0.0338
1154.0,0.0336
1153.0,0.0334
1152.0,0.0331
1151.0,0.0326
1150.0,0.0319
1149.0,0.031
1148.0,0.0301
1147.0,0.0292
1146.0,0.0284
1145.0,0.0276
1144.0,0.027
1143.0,0.0264
1142.0,0.0258
1141.0,0.0253
1140.0,0.0247
1139.0,0.0242
1138.0,0.0238
1137.0,0.0235
1136.0,0.0233
1135.0,0.0231
1134.0,0.0229
1133.0,0.0227
1132.0,0.0225
1131.0,0.0224
1130.0,0.0222
1129.0,0.0221
1128.0,0.0219
1127.0,0.0219
1126.0,0.0218
1125.0,0.0218
1124.0,0.0219
1123.0,0.0219
1122.0,0.0218
1121.0,0.0218
1120.0,0.0217
1119.0,0.0217
1118.0,0.0217
1117.0,0.0217
1116.0,0.0217
1115.0,0.0218
1114.0,0.0218
1113.0,0.0219
1112.0,0.022
1111.0,0.0222
1110.0,0.0224
1109.0,0.0227
1108.0,0.0231
1107.0,0.0236
1106.0,0.0243
1105.0,0.0248
1104.0,0.0253
1103.0,0.0256
1102.0,0.0256
1101.0,0.0254
1100.0,0.025
1099.0,0.0245
1098.0,0.024
1097.0,0.0236
1096.0,0.0232
1095.0,0.0229
1094.0,0.0226
1093.0,0.0224
1092.0,0.0222
1091.0,0.022
1090.0,0.0219
1089.0,0.0217
1088.0,0.0214
1087.0,0.0213
1086.0,0.0212
1085.0,0.0212
1084.0,0.0213
1083.0,0.0213
1082.0,0.0212
1081.0,0.0211
1080.0,0.0209
1079.0,0.0208
1078.0,0.0207
1077.0,0.0206
1076.0,0.0205
1075.0,0.0205
1074.0,0.0205
1073.0,0.0204
1072.0,0.0204
1071.0,0.0204
1070.0,0.0204
1069.0,0.0204
1068.0,0.0203
1067.0,0.0202
1066.0,0.02
1065.0,0.0199
1064.0,0.0199
1063.0,0.0199
1062.0,0.0199
1061.0,0.02
1060.0,0.02
1059.0,0.02
1058.0,0.02
1057.0,0.02
1056.0,0.02
1055.0,0.02
1054.0,0.0201
1053.0,0.0201
1052.0,0.0203
1051.0,0.0204
1050.0,0.0206
1049.0,0.0209
1048.0,0.0211
1047.0,0.0214
1046.0,0.0217
1045.0,0.0218
1044.0,0.0217
1043.0,0.0216
1042.0,0.0214
1041.0,0.0212
1040.0,0.021
1039.0,0.0209
1038.0,0.0208
1037.0,0.0207
1036.0,0.0207
1035.0,0.0207
1034.0,0.0206
1033.0,0.0205
1032.0,0.0203
1031.0,0.0202
1030.0,0.02
1029.0,0.0198
1028.0,0.0197
1027.0,0.0197
1026.0,0.0197
1025.0,0.0197
1024.0,0.0197
1023.0,0.0197
1022.0,0.0197
1021.0,0.0197
1020.0,0.0197
1019.0,0.0198
1018.0,0.02
1017.0,0.0201
1016.0,0.0202
1015.0,0.0202
1014.0,0.0203
1013.0,0.0204
1012.0,0.0206
1011.0,0.0208
1010.0,0.021
1009.0,0.0212
1008.0,0.0216
1007.0,0.0221
1006.0,0.0228
1005.0,0.0238
1004.0,0.0252
1003.0,0.0274
1002.0,0.0304
1001.0,0.0342
1000.0,0.0383
999.0,0.042
998.0,0.0442
997.0,0.0442
996.0,0.0422
995.0,0.039
994.0,0.0355
993.0,0.0324
992.0,0.0299
991.0,0.028
990.0,0.0266
989.0,0.0256
988.0,0.0248
987.0,0.0243
986.0,0.0239
985.0,0.0236
984.0,0.0237
983.0,0.0241
982.0,0.0249
981.0,0.0262
980.0,0.0282
979.0,0.031
978.0,0.0346
977.0,0.0389
976.0,0.0435
975.0,0.0479
974.0,0.0512
973.0,0.0527
972.0,0.0519
971.0,0.049
970.0,0.045
969.0,0.0407
968.0,0.037
967.0,0.0341
966.0,0.0319
965.0,0.0302
964.0,0.0289
963.0,0.0279
962.0,0.0271
961.0,0.0264
960.0,0.0258
959.0,0.0253
958.0,0.0248
957.0,0.0243
956.0,0.024
955.0,0.0236
954.0,0.0233
953.0,0.023
952.0,0.0227
951.0,0.0226
950.0,0.0225
949.0,0.0224
948.0,0.0223
947.0,0.0224
946.0,0.0225
945.0,0.0227
944.0,0.0229
943.0,0.0231
942.0,0.0233
941.0,0.0235
940.0,0.0235
939.0,0.0234
938.0,0.0231
937.0,0.0226
936.0,0.0221
935.0,0.0217
934.0,0.0214
933.0,0.0212
932.0,0.021
931.0,0.0208
930.0,0.0208
929.0,0.0208
928.0,0.0207
927.0,0.0207
926.0,0.0206
925.0,0.0206
924.0,0.0205
923.0,0.0204
922.0,0.0203
921.0,0.0202
920.0,0.0202
919.0,0.0202
918.0,0.0202
917.0,0.0203
916.0,0.0203
915.0,0.0204
914.0,0.0204
913.0,0.0205
912.0,0.0205
911.0,0.0206
910.0,0.0207
909.0,0.0209
908.0,0.0211
907.0,0.0216
906.0,0.0222
905.0,0.0231
904.0,0.0243
903.0,0.0259
902.0,0.0279
901.0,0.0297
900.0,0.0311
899.0,0.0316
898.0,0.0312
897.0,0.0302
896.0,0.0287
895.0,0.0272
894.0,0.0259
893.0,0.0247
892.0,0.0238
891.0,0.0232
890.0,0.0228
889.0,0.0225
888.0,0.0223
887.0,0.0222
886.0,0.0221
885.0,0.0219
884.0,0.0218
883.0,0.0217
882.0,0.0216
881.0,0.0216
880.0,0.0216
879.0,0.0216
878.0,0.0217
877.0,0.0217
876.0,0.0217
875.0,0.0217
874.0,0.0216
873.0,0.0216
872.0,0.0217
871.0,0.0218
870.0,0.0219
869.0,0.022
868.0,0.022
867.0,0.0219
866.0,0.0219
865.0,0.0218
864.0,0.0218
863.0,0.0219
862.0,0.022
861.0,0.022
860.0,0.0221
859.0,0.0222
858.0,0.0223
857.0,0.0224
856.0,0.0226
855.0,0.0227
854.0,0.0227
853.0,0.0228
852.0,0.0228
851.0,0.023
850.0,0.0234
849.0,0.0239
848.0,0.0247
847.0,0.0259
846.0,0.0276
845.0,0.0304
844.0,0.0345
843.0,0.0394
842.0,0.0436
841.0,0.0454
840.0,0.0441
839.0,0.0404
838.0,0.0362
837.0,0.0327
836.0,0.0304
835.0,0.0288
834.0,0.0278
833.0,0.0271
832.0,0.0266
831.0,0.0261
830.0,0.0257
829.0,0.0253
828.0,0.0251
827.0,0.0249
826.0,0.0247
825.0,0.0245
824.0,0.0243
823.0,0.0242
822.0,0.0242
821.0,0.0243
820.0,0.0245
819.0,0.0246
818.0,0.0248
817.0,0.0251
816.0,0.0257
815.0,0.0266
814.0,0.0278
813.0,0.0293
812.0,0.031
811.0,0.0326
810.0,0.0339
809.0,0.0348
808.0,0.0349
807.0,0.0341
806.0,0.0328
805.0,0.0312
804.0,0.0297
803.0,0.0285
802.0,0.0277
801.0,0.027
800.0,0.0265
799.0,0.0262
798.0,0.0259
797.0,0.0255
796.0,0.0251
795.0,0.0248
794.0,0.0244
793.0,0.0242
792.0,0.024
791.0,0.024
790.0,0.0239
789.0,0.0236
788.0,0.0232
787.0,0.0228
786.0,0.0225
785.0,0.0223
784.0,0.0222
783.0,0.0221
782.0,0.0219
781.0,0.0217
780.0,0.0215
779.0,0.0212
778.0,0.0211
777.0,0.0211
776.0,0.0211
775.0,0.0211
774.0,0.0211
773.0,0.0211
772.0,0.0211
771.0,0.0212
770.0,0.0213
769.0,0.0214
768.0,0.0214
767.0,0.0215
766.0,0.0214
765.0,0.0214
764.0,0.0213
763.0,0.0212
762.0,0.0211
761.0,0.021
760.0,0.021
759.0,0.0211
758.0,0.0212
757.0,0.0212
756.0,0.0211
755.0,0.021
754.0,0.021
753.0,0.0211
752.0,0.0214
751.0,0.0216
750.0,0.0219
749.0,0.0219
748.0,0.0218
747.0,0.0216
746.0,0.0213
745.0,0.0212
744.0,0.0212
743.0,0.0213
742.0,0.0213
741.0,0.0214
740.0,0.0215
739.0,0.0215
738.0,0.0214
737.0,0.0213
736.0,0.0211
735.0,0.0208
734.0,0.0206
733.0,0.0206
732.0,0.0207
731.0,0.021
730.0,0.0212
729.0,0.0214
728.0,0.0215
727.0,0.0214
726.0,0.0213
725.0,0.0213
724.0,0.0213
723.0,0.0213
722.0,0.0212
721.0,0.0213
720.0,0.0214
719.0,0.0215
718.0,0.0215
717.0,0.0214
716.0,0.0212
715.0,0.0211
714.0,0.0212
713.0,0.0212
712.0,0.0212
711.0,0.0213
710.0,0.0214
709.0,0.0214
708.0,0.0215
707.0,0.0216
706.0,0.0217
705.0,0.0219
704.0,0.022
703.0,0.022
702.0,0.0219
701.0,0.0219
700.0,0.0219
699.0,0.0219
698.0,0.0221
697.0,0.0222
696.0,0.0224
695.0,0.0226
694.0,0.0229
693.0,0.0231
692.0,0.023
691.0,0.0224
690.0,0.0215
689.0,0.0208
688.0,0.0206
687.0,0.0209
686.0,0.0212
685.0,0.0213
684.0,0.0215
683.0,0.0218
682.0,0.0222
681.0,0.0222
680.0,0.0217
679.0,0.0211
678.0,0.0207
677.0,0.0204
676.0,0.0201
675.0,0.0198
674.0,0.0198
673.0,0.0202
672.0,0.0206
671.0,0.0205
670.0,0.0196
669.0,0.0179
668.0,0.0161
667.0,0.0166
666.0,0.0189
665.0,0.0207
664.0,0.0217
663.0,0.0221
662.0,0.0221
661.0,0.0219
660.0,0.0216
659.0,0.0212
658.0,0.0207
657.0,0.0201
656.0,0.0196
655.0,0.0192
654.0,0.0191
653.0,0.0193
652.0,0.0199
651.0,0.0206
650.0,0.0211
649.0,0.0211
648.0,0.0207
647.0,0.0204
646.0,0.0204
645.0,0.0206
644.0,0.0208
643.0,0.021
642.0,0.0208
641.0,0.0206
640.0,0.0203
639.0,0.0203
638.0,0.0206
637.0,0.021
636.0,0.0214
635.0,0.0215
634.0,0.0216
633.0,0.0219
632.0,0.0224
631.0,0.0227
630.0,0.0222
629.0,0.0212
628.0,0.0202
627.0,0.0195
626.0,0.0194
625.0,0.0198
624.0,0.0206
623.0,0.0214
622.0,0.0219
621.0,0.022
620.0,0.0218
619.0,0.0217
618.0,0.0215
617.0,0.0213
616.0,0.021
615.0,0.0211
614.0,0.0217
613.0,0.0225
612.0,0.023
611.0,0.023
610.0,0.0226
609.0,0.0221
608.0,0.0219
607.0,0.0218
606.0,0.0219
605.0,0.0221
604.0,0.0226
603.0,0.0232
602.0,0.0234
601.0,0.023
600.0,0.0224
