cm-1,A
4000.0,0.0047
3999.0,0.0048
3998.0,0.0048
3997.0,0.0047
3996.0,0.0047
3995.0,0.0047
3994.0,0.0046
3993.0,0.0046
3992.0,0.0046
3991.0,0.0047
3990.0,0.0047
3989.0,0.0048
3988.0,0.0048
3987.0,0.0048
3986.0,0.0048
3985.0,0.0048
3984.0,0.0048
3983.0,0.0048
3982.0,0.0049
3981.0,0.0049
3980.0,0.0049
3979.0,0.0049
3978.0,0.0048
3977.0,0.0047
3976.0,0.0047
3975.0,0.0047
3974.0,0.0047
3973.0,0.0047
3972.0,0.0048
3971.0,0.0048
3970.0,0.0049
3969.0,0.005
3968.0,0.005
3967.0,0.005
3966.0,0.005
3965.0,0.0049
3964.0,0.0049
3963.0,0.0049
3962.0,0.0049
3961.0,0.0049
3960.0,0.0049
3959.0,0.0049
3958.0,0.0049
3957.0,0.0049
3956.0,0.005
3955.0,0.005
3954.0,0.0051
3953.0,0.0052
3952.0,0.0052
3951.0,0.0052
3950.0,0.0051
3949.0,0.0051
3948.0,0.0052
3947.0,0.0052
3946.0,0.0053
3945.0,0.0053
3944.0,0.0052
3943.0,0.0051
3942.0,0.0051
3941.0,0.0051
3940.0,0.0051
3939.0,0.0051
3938.0,0.0051
3937.0,0.0051
3936.0,0.005
3935.0,0.005
3934.0,0.005
3933.0,0.005
3932.0,0.0049
3931.0,0.0049
3930.0,0.005
3929.0,0.0051
3928.0,0.0053
3927.0,0.0054
3926.0,0.0055
3925.0,0.0055
3924.0,0.0054
3923.0,0.0054
3922.0,0.0054
3921.0,0.0054
3920.0,0.0054
3919.0,0.0053
3918.0,0.0052
3917.0,0.0051
3916.0,0.005
3915.0,0.005
3914.0,0.005
3913.0,0.005
3912.0,0.0051
3911.0,0.0053
3910.0,0.0055
3909.0,0.0057
3908.0,0.0058
3907.0,0.0058
3906.0,0.0057
3905.0,0.0056
3904.0,0.0056
3903.0,0.0056
3902.0,0.0056
3901.0,0.0056
3900.0,0.0056
3899.0,0.0056
3898.0,0.0056
3897.0,0.0055
3896.0,0.0054
3895.0,0.0053
3894.0,0.0053
3893.0,0.0053
3892.0,0.0054
3891.0,0.0056
3890.0,0.0058
3889.0,0.0058
3888.0,0.0058
3887.0,0.0058
3886.0,0.0058
3885.0,0.0059
3884.0,0.006
3883.0,0.0059
3882.0,0.0058
3881.0,0.0058
3880.0,0.0057
3879.0,0.0057
3878.0,0.0056
3877.0,0.0055
3876.0,0.0054
3875.0,0.0055
3874.0,0.0056
3873.0,0.0056
3872.0,0.0055
3871.0,0.0055
3870.0,0.0057
3869.0,0.0058
3868.0,0.0058
3867.0,0.0057
3866.0,0.0056
3865.0,0.0055
3864.0,0.0056
3863.0,0.0056
3862.0,0.0056
3861.0,0.0055
3860.0,0.0055
3859.0,0.0056
3858.0,0.0057
3857.0,0.0058
3856.0,0.0058
3855.0,0.0058
3854.0,0.0058
3853.0,0.0057
3852.0,0.0056
3851.0,0.0055
3850.0,0.0055
3849.0,0.0054
3848.0,0.0054
3847.0,0.0054
3846.0,0.0054
3845.0,0.0055
3844.0,0.0056
3843.0,0.0058
3842.0,0.0058
3841.0,0.0058
3840.0,0.0056
3839.0,0.0054
3838.0,0.0054
3837.0,0.0055
3836.0,0.0056
3835.0,0.0056
3834.0,0.0056
3833.0,0.0056
3832.0,0.0056
3831.0,0.0056
3830.0,0.0056
3829.0,0.0055
3828.0,0.0055
3827.0,0.0055
3826.0,0.0056
3825.0,0.0055
3824.0,0.0054
3823.0,0.0052
3822.0,0.0052
3821.0,0.0054
3820.0,0.0057
3819.0,0.0058
3818.0,0.0057
3817.0,0.0057
3816.0,0.0057
3815.0,0.0058
3814.0,0.0057
3813.0,0.0057
3812.0,0.0056
3811.0,0.0056
3810.0,0.0057
3809.0,0.0057
3808.0,0.0058
3807.0,0.0059
3806.0,0.006
3805.0,0.006
3804.0,0.0059
3803.0,0.0058
3802.0,0.0059
3801.0,0.006
3800.0,0.0061
3799.0,0.006
3798.0,0.0058
3797.0,0.0057
3796.0,0.0056
3795.0,0.0056
3794.0,0.0056
3793.0,0.0056
3792.0,0.0056
3791.0,0.0056
3790.0,0.0056
3789.0,0.0056
3788.0,0.0056
3787.0,0.0056
3786.0,0.0056
3785.0,0.0056
3784.0,0.0056
3783.0,0.0056
3782.0,0.0056
3781.0,0.0056
3780.0,0.0057
3779.0,0.0058
3778.0,0.0059
3777.0,0.0059
3776.0,0.0058
3775.0,0.0058
3774.0,0.0057
3773.0,0.0057
3772.0,0.0058
3771.0,0.0059
3770.0,0.0061
3769.0,0.0061
3768.0,0.0061
3767.0,0.006
3766.0,0.006
3765.0,0.006
3764.0,0.0059
3763.0,0.0058
3762.0,0.0057
3761.0,0.0057
3760.0,0.0058
3759.0,0.006
3758.0,0.0061
3757.0,0.0062
3756.0,0.0063
3755.0,0.0063
3754.0,0.0062
3753.0,0.006
3752.0,0.0058
3751.0,0.0058
3750.0,0.0058
3749.0,0.0058
3748.0,0.0057
3747.0,0.0056
3746.0,0.0056
3745.0,0.0059
3744.0,0.0061
3743.0,0.0062
3742.0,0.0061
3741.0,0.0061
3740.0,0.0061
3739.0,0.0062
3738.0,0.0062
3737.0,0.0062
3736.0,0.0063
3735.0,0.0065
3734.0,0.0065
3733.0,0.0065
3732.0,0.0065
3731.0,0.0065
3730.0,0.0064
3729.0,0.0064
3728.0,0.0063
3727.0,0.0063
3726.0,0.0062
3725.0,0.0062
3724.0,0.0061
3723.0,0.0061
3722.0,0.0061
3721.0,0.0061
3720.0,0.006
3719.0,0.0059
3718.0,0.0059
3717.0,0.0059
3716.0,0.0059
3715.0,0.0059
3714.0,0.0059
3713.0,0.0059
3712.0,0.0061
3711.0,0.0063
3710.0,0.0063
3709.0,0.0063
3708.0,0.0061
3707.0,0.0059
3706.0,0.0058
3705.0,0.0057
3704.0,0.0058
3703.0,0.0059
3702.0,0.0061
3701.0,0.0061
3700.0,0.0061
3699.0,0.006
3698.0,0.0059
3697.0,0.0059
3696.0,0.006
3695.0,0.0062
3694.0,0.0063
3693.0,0.0064
3692.0,0.0065
3691.0,0.0064
3690.0,0.0064
3689.0,0.0063
3688.0,0.0063
3687.0,0.0063
3686.0,0.0062
3685.0,0.0061
3684.0,0.0061
3683.0,0.006
3682.0,0.006
3681.0,0.006
3680.0,0.0061
3679.0,0.0062
3678.0,0.0062
3677.0,0.0062
3676.0,0.0063
3675.0,0.0064
3674.0,0.0064
3673.0,0.0064
3672.0,0.0063
3671.0,0.0063
3670.0,0.0063
3669.0,0.0063
3668.0,0.0062
3667.0,0.0061
3666.0,0.0061
3665.0,0.0061
3664.0,0.0062
3663.0,0.0063
3662.0,0.0063
3661.0,0.0063
3660.0,0.0063
3659.0,0.0062
3658.0,0.0062
3657.0,0.0063
3656.0,0.0065
3655.0,0.0067
3654.0,0.0068
3653.0,0.0069
3652.0,0.007
3651.0,0.007
3650.0,0.0071
3649.0,0.0071
3648.0,0.0071
3647.0,0.007
3646.0,0.0069
3645.0,0.0069
3644.0,0.0068
3643.0,0.0067
3642.0,0.0065
3641.0,0.0064
3640.0,0.0064
3639.0,0.0064
3638.0,0.0064
3637.0,0.0065
3636.0,0.0066
3635.0,0.0067
3634.0,0.0068
3633.0,0.0069
3632.0,0.0069
3631.0,0.0068
3630.0,0.0068
3629.0,0.0069
3628.0,0.0071
3627.0,0.0071
3626.0,0.0071
3625.0,0.0072
3624.0,0.0074
3623.0,0.0076
3622.0,0.0077
3621.0,0.0079
3620.0,0.0079
3619.0,0.0079
3618.0,0.0078
3617.0,0.0077
3616.0,0.0077
3615.0,0.0077
3614.0,0.0079
3613.0,0.008
3612.0,0.008
3611.0,0.0078
3610.0,0.0076
3609.0,0.0075
3608.0,0.0075
3607.0,0.0076
3606.0,0.0077
3605.0,0.0077
3604.0,0.0076
3603.0,0.0076
3602.0,0.0076
3601.0,0.0077
3600.0,0.0079
3599.0,0.0081
3598.0,0.0082
3597.0,0.0083
3596.0,0.0082
3595.0,0.0082
3594.0,0.0082
3593.0,0.0083
3592.0,0.0084
3591.0,0.0085
3590.0,0.0086
3589.0,0.0086
3588.0,0.0085
3587.0,0.0085
3586.0,0.0084
3585.0,0.0083
3584.0,0.0082
3583.0,0.0082
3582.0,0.0082
3581.0,0.0082
3580.0,0.0083
3579.0,0.0084
3578.0,0.0085
3577.0,0.0085
3576.0,0.0085
3575.0,0.0085
3574.0,0.0086
3573.0,0.0088
3572.0,0.009
3571.0,0.0093
3570.0,0.0094
3569.0,0.0096
3568.0,0.0098
3567.0,0.0099
3566.0,0.0098
3565.0,0.0096
3564.0,0.0094
3563.0,0.0093
3562.0,0.0093
3561.0,0.0093
3560.0,0.0093
3559.0,0.0093
3558.0,0.0093
3557.0,0.0094
3556.0,0.0095
3555.0,0.0096
3554.0,0.0097
3553.0,0.0098
3552.0,0.0098
3551.0,0.0099
3550.0,0.0099
3549.0,0.01
3548.0,0.01
3547.0,0.01
3546.0,0.01
3545.0,0.01
3544.0,0.0099
3543.0,0.0099
3542.0,0.0099
3541.0,0.0099
3540.0,0.01
3539.0,0.01
3538.0,0.01
3537.0,0.01
3536.0,0.01
3535.0,0.01
3534.0,0.01
3533.0,0.0099
3532.0,0.01
3531.0,0.0101
3530.0,0.0104
3529.0,0.0107
3528.0,0.0109
3527.0,0.0109
3526.0,0.0108
3525.0,0.0107
3524.0,0.0106
3523.0,0.0106
3522.0,0.0106
3521.0,0.0106
3520.0,0.0105
3519.0,0.0105
3518.0,0.0106
3517.0,0.0107
3516.0,0.0107
3515.0,0.0108
3514.0,0.011
3513.0,0.011
3512.0,0.011
3511.0,0.011
3510.0,0.0109
3509.0,0.011
3508.0,0.0111
3507.0,0.0112
3506.0,0.0114
3505.0,0.0114
3504.0,0.0114
3503.0,0.0114
3502.0,0.0114
3501.0,0.0114
3500.0,0.0113
3499.0,0.0113
3498.0,0.0113
3497.0,0.0113
3496.0,0.0114
3495.0,0.0115
3494.0,0.0116
3493.0,0.0117
3492.0,0.0119
3491.0,0.012
3490.0,0.0121
3489.0,0.0121
3488.0,0.0122
3487.0,0.0123
3486.0,0.0125
3485.0,0.0125
3484.0,0.0125
3483.0,0.0124
3482.0,0.0124
3481.0,0.0124
3480.0,0.0123
3479.0,0.0123
3478.0,0.0123
3477.0,0.0123
3476.0,0.0123
3475.0,0.0124
3474.0,0.0124
3473.0,0.0126
3472.0,0.0127
3471.0,0.0127
3470.0,0.0128
3469.0,0.0128
3468.0,0.0128
3467.0,0.0129
3466.0,0.0129
3465.0,0.013
3464.0,0.013
3463.0,0.0131
3462.0,0.0131
3461.0,0.0132
3460.0,0.0133
3459.0,0.0133
3458.0,0.0132
3457.0,0.0131
3456.0,0.0131
3455.0,0.0132
3454.0,0.0134
3453.0,0.0136
3452.0,0.0138
3451.0,0.0139
3450.0,0.0139
3449.0,0.0138
3448.0,0.0136
3447.0,0.0135
3446.0,0.0135
3445.0,0.0135
3444.0,0.0136
3443.0,0.0137
3442.0,0.0137
3441.0,0.0137
3440.0,0.0136
3439.0,0.0136
3438.0,0.0136
3437.0,0.0137
3436.0,0.0137
3435.0,0.0137
3434.0,0.0137
3433.0,0.0138
3432.0,0.0138
3431.0,0.0139
3430.0,0.014
3429.0,0.0141
3428.0,0.0142
3427.0,0.0144
3426.0,0.0145
3425.0,0.0145
3424.0,0.0145
3423.0,0.0143
3422.0,0.0142
3421.0,0.0142
3420.0,0.0143
3419.0,0.0143
3418.0,0.0144
3417.0,0.0143
3416.0,0.0143
3415.0,0.0144
3414.0,0.0145
3413.0,0.0146
3412.0,0.0147
3411.0,0.0147
3410.0,0.0147
3409.0,0.0146
3408.0,0.0146
3407.0,0.0146
3406.0,0.0146
3405.0,0.0146
3404.0,0.0145
3403.0,0.0144
3402.0,0.0144
3401.0,0.0143
3400.0,0.0143
3399.0,0.0143
3398.0,0.0143
3397.0,0.0143
3396.0,0.0143
3395.0,0.0143
3394.0,0.0143
3393.0,0.0143
3392.0,0.0143
3391.0,0.0145
3390.0,0.0146
3389.0,0.0147
3388.0,0.0147
3387.0,0.0147
3386.0,0.0145
3385.0,0.0145
3384.0,0.0145
3383.0,0.0146
3382.0,0.0147
3381.0,0.0147
3380.0,0.0147
3379.0,0.0147
3378.0,0.0147
3377.0,0.0148
3376.0,0.0149
3375.0,0.0149
3374.0,0.0148
3373.0,0.0148
3372.0,0.0147
3371.0,0.0146
3370.0,0.0146
3369.0,0.0147
3368.0,0.0148
3367.0,0.0149
3366.0,0.015
3365.0,0.0151
3364.0,0.0151
3363.0,0.0151
3362.0,0.0151
3361.0,0.015
3360.0,0.0149
3359.0,0.0148
3358.0,0.0149
3357.0,0.0149
3356.0,0.015
3355.0,0.015
3354.0,0.0149
3353.0,0.0148
3352.0,0.0148
3351.0,0.0148
3350.0,0.0149
3349.0,0.015
3348.0,0.015
3347.0,0.015
3346.0,0.0149
3345.0,0.0148
3344.0,0.0147
3343.0,0.0147
3342.0,0.0146
3341.0,0.0146
3340.0,0.0145
3339.0,0.0144
3338.0,0.0144
3337.0,0.0143
3336.0,0.0143
3335.0,0.0143
3334.0,0.0143
3333.0,0.0143
3332.0,0.0142
3331.0,0.0142
3330.0,0.0141
3329.0,0.0141
3328.0,0.0142
3327.0,0.0142
3326.0,0.0143
3325.0,0.0142
3324.0,0.014
3323.0,0.0138
3322.0,0.0137
3321.0,0.0137
3320.0,0.0138
3319.0,0.0138
3318.0,0.0139
3317.0,0.0139
3316.0,0.0139
3315.0,0.0138
3314.0,0.0138
3313.0,0.0138
3312.0,0.0137
3311.0,0.0137
3310.0,0.0137
3309.0,0.0137
3308.0,0.0136
3307.0,0.0135
3306.0,0.0134
3305.0,0.0134
3304.0,0.0134
3303.0,0.0134
3302.0,0.0133
3301.0,0.0133
3300.0,0.0132
3299.0,0.0131
3298.0,0.0131
3297.0,0.0131
3296.0,0.013
3295.0,0.013
3294.0,0.0129
3293.0,0.0129
3292.0,0.013
3291.0,0.0131
3290.0,0.0132
3289.0,0.0132
3288.0,0.0131
3287.0,0.0131
3286.0,0.0131
3285.0,0.0131
3284.0,0.0129
3283.0,0.0127
3282.0,0.0125
3281.0,0.0124
3280.0,0.0124
3279.0,0.0125
3278.0,0.0127
3277.0,0.0128
3276.0,0.0129
3275.0,0.0129
3274.0,0.0129
3273.0,0.0127
3272.0,0.0125
3271.0,0.0124
3270.0,0.0124
3269.0,0.0125
3268.0,0.0126
3267.0,0.0126
3266.0,0.0126
3265.0,0.0126
3264.0,0.0125
3263.0,0.0124
3262.0,0.0123
3261.0,0.0122
3260.0,0.0122
3259.0,0.0121
3258.0,0.0121
3257.0,0.0121
3256.0,0.0121
3255.0,0.0121
3254.0,0.0121
3253.0,0.0121
3252.0,0.012
3251.0,0.012
3250.0,0.012
3249.0,0.0121
3248.0,0.0123
3247.0,0.0123
3246.0,0.0124
3245.0,0.0123
3244.0,0.0122
3243.0,0.0121
3242.0,0.012
3241.0,0.012
3240.0,0.012
3239.0,0.012
3238.0,0.012
3237.0,0.012
3236.0,0.012
3235.0,0.0121
3234.0,0.0122
3233.0,0.0121
3232.0,0.012
3231.0,0.0118
3230.0,0.0116
3229.0,0.0116
3228.0,0.0116
3227.0,0.0117
3226.0,0.0117
3225.0,0.0117
3224.0,0.0117
3223.0,0.0117
3222.0,0.0118
3221.0,0.0119
3220.0,0.0119
3219.0,0.0119
3218.0,0.0119
3217.0,0.0118
3216.0,0.0118
3215.0,0.0116
3214.0,0.0116
3213.0,0.0115
3212.0,0.0115
3211.0,0.0115
3210.0,0.0114
3209.0,0.0114
3208.0,0.0114
3207.0,0.0114
3206.0,0.0114
3205.0,0.0114
3204.0,0.0114
3203.0,0.0114
3202.0,0.0114
3201.0,0.0114
3200.0,0.0114
3199.0,0.0113
3198.0,0.0112
3197.0,0.0111
3196.0,0.011
3195.0,0.0109
3194.0,0.0109
3193.0,0.0108
3192.0,0.0108
3191.0,0.0108
3190.0,0.0108
3189.0,0.0108
3188.0,0.0108
3187.0,0.0108
3186.0,0.0108
3185.0,0.0108
3184.0,0.0108
3183.0,0.0107
3182.0,0.0106
3181.0,0.0105
3180.0,0.0104
3179.0,0.0103
3178.0,0.0103
3177.0,0.0103
3176.0,0.0103
3175.0,0.0102
3174.0,0.0101
3173.0,0.0101
3172.0,0.01
3171.0,0.01
3170.0,0.01
3169.0,0.0099
3168.0,0.0099
3167.0,0.0098
3166.0,0.0097
3165.0,0.0096
3164.0,0.0097
3163.0,0.0097
3162.0,0.0098
3161.0,0.0098
3160.0,0.0098
3159.0,0.0097
3158.0,0.0097
3157.0,0.0096
3156.0,0.0095
3155.0,0.0095
3154.0,0.0094
3153.0,0.0094
3152.0,0.0094
3151.0,0.0095
3150.0,0.0095
3149.0,0.0096
3148.0,0.0096
3147.0,0.0096
3146.0,0.0095
3145.0,0.0095
3144.0,0.0095
3143.0,0.0094
3142.0,0.0093
3141.0,0.0092
3140.0,0.0092
3139.0,0.0091
3138.0,0.0091
3137.0,0.009
3136.0,0.009
3135.0,0.009
3134.0,0.0091
3133.0,0.0091
3132.0,0.0091
3131.0,0.009
3130.0,0.0089
3129.0,0.0089
3128.0,0.0088
3127.0,0.0088
3126.0,0.0088
3125.0,0.0088
3124.0,0.0088
3123.0,0.0087
3122.0,0.0086
3121.0,0.0085
3120.0,0.0084
3119.0,0.0084
3118.0,0.0084
3117.0,0.0084
3116.0,0.0084
3115.0,0.0085
3114.0,0.0086
3113.0,0.0086
3112.0,0.0085
3111.0,0.0084
3110.0,0.0083
3109.0,0.0083
3108.0,0.0083
3107.0,0.0084
3106.0,0.0084
3105.0,0.0083
3104.0,0.0083
3103.0,0.0082
3102.0,0.0082
3101.0,0.0081
3100.0,0.0081
3099.0,0.0081
3098.0,0.008
3097.0,0.008
3096.0,0.008
3095.0,0.0079
3094.0,0.0079
3093.0,0.0078
3092.0,0.0078
3091.0,0.0078
3090.0,0.0078
3089.0,0.0077
3088.0,0.0077
3087.0,0.0076
3086.0,0.0076
3085.0,0.0076
3084.0,0.0076
3083.0,0.0076
3082.0,0.0076
3081.0,0.0076
3080.0,0.0076
3079.0,0.0075
3078.0,0.0074
3077.0,0.0074
3076.0,0.0074
3075.0,0.0074
3074.0,0.0074
3073.0,0.0073
3072.0,0.0073
3071.0,0.0073
3070.0,0.0073
3069.0,0.0073
3068.0,0.0073
3067.0,0.0073
3066.0,0.0072
3065.0,0.0072
3064.0,0.0072
3063.0,0.0072
3062.0,0.0072
3061.0,0.0071
3060.0,0.007
3059.0,0.0069
3058.0,0.0068
3057.0,0.0067
3056.0,0.0066
3055.0,0.0065
3054.0,0.0065
3053.0,0.0065
3052.0,0.0064
3051.0,0.0064
3050.0,0.0064
3049.0,0.0064
3048.0,0.0064
3047.0,0.0063
3046.0,0.0062
3045.0,0.0061
3044.0,0.006
3043.0,0.006
3042.0,0.006
3041.0,0.006
3040.0,0.0059
3039.0,0.0059
3038.0,0.0059
3037.0,0.0059
3036.0,0.0059
3035.0,0.0059
3034.0,0.006
3033.0,0.006
3032.0,0.0059
3031.0,0.0059
3030.0,0.0059
3029.0,0.0059
3028.0,0.0059
3027.0,0.0058
3026.0,0.0056
3025.0,0.0055
3024.0,0.0054
3023.0,0.0053
3022.0,0.0053
3021.0,0.0052
3020.0,0.0052
3019.0,0.0052
3018.0,0.0052
3017.0,0.0052
3016.0,0.0051
3015.0,0.0051
3014.0,0.0051
3013.0,0.0052
3012.0,0.0052
3011.0,0.0051
3010.0,0.0051
3009.0,0.005
3008.0,0.005
3007.0,0.0049
3006.0,0.0049
3005.0,0.0048
3004.0,0.0048
3003.0,0.0048
3002.0,0.0048
3001.0,0.0048
3000.0,0.0048
2999.0,0.0049
2998.0,0.0049
2997.0,0.0049
2996.0,0.0049
2995.0,0.005
2994.0,0.0051
2993.0,0.0052
2992.0,0.0052
2991.0,0.0054
2990.0,0.0056
2989.0,0.0059
2988.0,0.0063
2987.0,0.0067
2986.0,0.007
2985.0,0.0074
2984.0,0.0078
2983.0,0.0083
2982.0,0.0089
2981.0,0.0096
2980.0,0.0104
2979.0,0.0114
2978.0,0.0126
2977.0,0.0141
2976.0,0.0158
2975.0,0.0179
2974.0,0.0201
2973.0,0.0227
2972.0,0.0255
2971.0,0.0287
2970.0,0.0324
2969.0,0.0365
2968.0,0.041
2967.0,0.0458
2966.0,0.0509
2965.0,0.056
2964.0,0.0608
2963.0,0.0651
2962.0,0.0684
2961.0,0.0707
2960.0,0.0721
2959.0,0.0728
2958.0,0.0734
2957.0,0.0743
2956.0,0.0758
2955.0,0.0782
2954.0,0.0812
2953.0,0.0845
2952.0,0.0873
2951.0,0.089
2950.0,0.089
2949.0,0.087
2948.0,0.0834
2947.0,0.0785
2946.0,0.0729
2945.0,0.0673
2944.0,0.062
2943.0,0.0575
2942.0,0.0538
2941.0,0.0512
2940.0,0.0495
2939.0,0.0488
2938.0,0.049
2937.0,0.0501
2936.0,0.0519
2935.0,0.0543
2934.0,0.0573
2933.0,0.0608
2932.0,0.0649
2931.0,0.0695
2930.0,0.0745
2929.0,0.0798
2928.0,0.0851
2927.0,0.0904
2926.0,0.0956
2925.0,0.1008
2924.0,0.1059
2923.0,0.111
2922.0,0.1161
2921.0,0.1208
2920.0,0.1247
2919.0,0.1272
2918.0,0.128
2917.0,0.1268
2916.0,0.1238
2915.0,0.1196
2914.0,0.1148
2913.0,0.1101
2912.0,0.1057
2911.0,0.102
2910.0,0.0989
2909.0,0.0962
2908.0,0.0938
2907.0,0.0915
2906.0,0.0891
2905.0,0.0866
2904.0,0.0841
2903.0,0.0814
2902.0,0.0787
2901.0,0.0761
2900.0,0.0735
2899.0,0.0711
2898.0,0.0687
2897.0,0.0666
2896.0,0.0646
2895.0,0.0629
2894.0,0.0614
2893.0,0.0602
2892.0,0.0593
2891.0,0.0585
2890.0,0.058
2889.0,0.0576
2888.0,0.0574
2887.0,0.0574
2886.0,0.0574
2885.0,0.0576
2884.0,0.0579
2883.0,0.0583
2882.0,0.0589
2881.0,0.0596
2880.0,0.0601
2879.0,0.0604
2878.0,0.0605
2877.0,0.0602
2876.0,0.0599
2875.0,0.0595
2874.0,0.0594
2873.0,0.0596
2872.0,0.0601
2871.0,0.0609
2870.0,0.0618
2869.0,0.0627
2868.0,0.0632
2867.0,0.0632
2866.0,0.0623
2865.0,0.0605
2864.0,0.058
2863.0,0.055
2862.0,0.052
2861.0,0.0493
2860.0,0.0473
2859.0,0.0458
2858.0,0.0451
2857.0,0.045
2856.0,0.0455
2855.0,0.0466
2854.0,0.0481
2853.0,0.0498
2852.0,0.0516
2851.0,0.0532
2850.0,0.0542
2849.0,0.0546
2848.0,0.0546
2847.0,0.0547
2846.0,0.0552
2845.0,0.0564
2844.0,0.0581
2843.0,0.0602
2842.0,0.0624
2841.0,0.0645
2840.0,0.066
2839.0,0.0666
2838.0,0.0661
2837.0,0.0644
2836.0,0.0617
2835.0,0.0582
2834.0,0.0543
2833.0,0.0505
2832.0,0.0469
2831.0,0.0437
2830.0,0.0411
2829.0,0.0388
2828.0,0.0369
2827.0,0.0352
2826.0,0.0338
2825.0,0.0327
2824.0,0.0318
2823.0,0.0309
2822.0,0.0301
2821.0,0.0294
2820.0,0.0287
2819.0,0.0282
2818.0,0.0277
2817.0,0.0273
2816.0,0.027
2815.0,0.0266
2814.0,0.0262
2813.0,0.0259
2812.0,0.0256
2811.0,0.0253
2810.0,0.0249
2809.0,0.0246
2808.0,0.0242
2807.0,0.0238
2806.0,0.0235
2805.0,0.0232
2804.0,0.0229
2803.0,0.0226
2802.0,0.0222
2801.0,0.0219
2800.0,0.0216
2799.0,0.0214
2798.0,0.0213
2797.0,0.0212
2796.0,0.0211
2795.0,0.021
2794.0,0.0209
2793.0,0.0208
2792.0,0.0205
2791.0,0.0203
2790.0,0.02
2789.0,0.0198
2788.0,0.0195
2787.0,0.0193
2786.0,0.0191
2785.0,0.019
2784.0,0.0189
2783.0,0.0188
2782.0,0.0186
2781.0,0.0184
2780.0,0.0182
2779.0,0.018
2778.0,0.0179
2777.0,0.0177
2776.0,0.0177
2775.0,0.0177
2774.0,0.0177
2773.0,0.0176
2772.0,0.0175
2771.0,0.0174
2770.0,0.0174
2769.0,0.0173
2768.0,0.0172
2767.0,0.0172
2766.0,0.0171
2765.0,0.0171
2764.0,0.017
2763.0,0.0169
2762.0,0.0168
2761.0,0.0167
2760.0,0.0167
2759.0,0.0166
2758.0,0.0165
2757.0,0.0164
2756.0,0.0163
2755.0,0.0162
2754.0,0.0162
2753.0,0.0162
2752.0,0.0162
2751.0,0.0161
2750.0,0.016
2749.0,0.016
2748.0,0.016
2747.0,0.016
2746.0,0.016
2745.0,0.016
2744.0,0.016
2743.0,0.016
2742.0,0.0159
2741.0,0.0159
2740.0,0.0159
2739.0,0.016
2738.0,0.016
2737.0,0.0161
2736.0,0.0163
2735.0,0.0163
2734.0,0.0164
2733.0,0.0164
2732.0,0.0164
2731.0,0.0164
2730.0,0.0164
2729.0,0.0165
2728.0,0.0166
2727.0,0.0167
2726.0,0.0168
2725.0,0.0169
2724.0,0.017
2723.0,0.0171
2722.0,0.0171
2721.0,0.017
2720.0,0.0168
2719.0,0.0167
2718.0,0.0165
2717.0,0.0164
2716.0,0.0163
2715.0,0.0163
2714.0,0.0162
2713.0,0.0161
2712.0,0.016
2711.0,0.0159
2710.0,0.0158
2709.0,0.0157
2708.0,0.0157
2707.0,0.0156
2706.0,0.0155
2705.0,0.0154
2704.0,0.0153
2703.0,0.0152
2702.0,0.0151
2701.0,0.015
2700.0,0.0149
2699.0,0.0149
2698.0,0.0149
2697.0,0.015
2696.0,0.015
2695.0,0.015
2694.0,0.0149
2693.0,0.0149
2692.0,0.0148
2691.0,0.0148
2690.0,0.0148
2689.0,0.0148
2688.0,0.0147
2687.0,0.0146
2686.0,0.0146
2685.0,0.0146
2684.0,0.0147
2683.0,0.0148
2682.0,0.0148
2681.0,0.0148
2680.0,0.0148
2679.0,0.0147
2678.0,0.0147
2677.0,0.0147
2676.0,0.0147
2675.0,0.0148
2674.0,0.0147
2673.0,0.0147
2672.0,0.0147
2671.0,0.0147
2670.0,0.0147
2669.0,0.0147
2668.0,0.0145
2667.0,0.0144
2666.0,0.0143
2665.0,0.0143
2664.0,0.0144
2663.0,0.0144
2662.0,0.0145
2661.0,0.0145
2660.0,0.0145
2659.0,0.0145
2658.0,0.0145
2657.0,0.0145
2656.0,0.0144
2655.0,0.0143
2654.0,0.0142
2653.0,0.0142
2652.0,0.0143
2651.0,0.0143
2650.0,0.0142
2649.0,0.0142
2648.0,0.0141
2647.0,0.0141
2646.0,0.014
2645.0,0.014
2644.0,0.014
2643.0,0.0141
2642.0,0.0141
2641.0,0.0141
2640.0,0.014
2639.0,0.0139
2638.0,0.0139
2637.0,0.0138
2636.0,0.0139
2635.0,0.014
2634.0,0.014
2633.0,0.014
2632.0,0.0139
2631.0,0.0138
2630.0,0.0138
2629.0,0.0138
2628.0,0.0138
2627.0,0.0138
2626.0,0.0139
2625.0,0.0138
2624.0,0.0138
2623.0,0.0139
2622.0,0.0139
2621.0,0.014
2620.0,0.014
2619.0,0.0141
2618.0,0.014
2617.0,0.014
2616.0,0.0139
2615.0,0.0139
2614.0,0.0138
2613.0,0.0138
2612.0,0.0137
2611.0,0.0137
2610.0,0.0137
2609.0,0.0136
2608.0,0.0136
2607.0,0.0136
2606.0,0.0136
2605.0,0.0136
2604.0,0.0135
2603.0,0.0135
2602.0,0.0134
2601.0,0.0133
2600.0,0.0133
2599.0,0.0133
2598.0,0.0134
2597.0,0.0134
2596.0,0.0134
2595.0,0.0134
2594.0,0.0134
2593.0,0.0133
2592.0,0.0133
2591.0,0.0132
2590.0,0.0133
2589.0,0.0133
2588.0,0.0134
2587.0,0.0135
2586.0,0.0136
2585.0,0.0137
2584.0,0.0138
2583.0,0.0138
2582.0,0.0139
2581.0,0.0138
2580.0,0.0138
2579.0,0.0136
2578.0,0.0136
2577.0,0.0135
2576.0,0.0135
2575.0,0.0135
2574.0,0.0135
2573.0,0.0135
2572.0,0.0134
2571.0,0.0134
2570.0,0.0133
2569.0,0.0132
2568.0,0.0132
2567.0,0.0132
2566.0,0.0133
2565.0,0.0133
2564.0,0.0134
2563.0,0.0133
2562.0,0.0133
2561.0,0.0132
2560.0,0.0131
2559.0,0.013
2558.0,0.013
2557.0,0.0131
2556.0,0.0131
2555.0,0.0131
2554.0,0.013
2553.0,0.013
2552.0,0.013
2551.0,0.013
2550.0,0.0129
2549.0,0.0128
2548.0,0.0128
2547.0,0.0127
2546.0,0.0128
2545.0,0.0128
2544.0,0.0128
2543.0,0.0128
2542.0,0.0128
2541.0,0.0128
2540.0,0.0128
2539.0,0.0128
2538.0,0.0127
2537.0,0.0127
2536.0,0.0126
2535.0,0.0127
2534.0,0.0127
2533.0,0.0127
2532.0,0.0126
2531.0,0.0127
2530.0,0.0127
2529.0,0.0127
2528.0,0.0127
2527.0,0.0127
2526.0,0.0127
2525.0,0.0127
2524.0,0.0127
2523.0,0.0127
2522.0,0.0126
2521.0,0.0126
2520.0,0.0126
2519.0,0.0126
2518.0,0.0126
2517.0,0.0126
2516.0,0.0126
2515.0,0.0126
2514.0,0.0126
2513.0,0.0125
2512.0,0.0125
2511.0,0.0125
2510.0,0.0125
2509.0,0.0124
2508.0,0.0124
2507.0,0.0124
2506.0,0.0123
2505.0,0.0123
2504.0,0.0122
2503.0,0.0123
2502.0,0.0123
2501.0,0.0124
2500.0,0.0124
2499.0,0.0124
2498.0,0.0124
2497.0,0.0124
2496.0,0.0124
2495.0,0.0124
2494.0,0.0123
2493.0,0.0123
2492.0,0.0123
2491.0,0.0123
2490.0,0.0123
2489.0,0.0123
2488.0,0.0123
2487.0,0.0123
2486.0,0.0123
2485.0,0.0122
2484.0,0.0122
2483.0,0.0121
2482.0,0.0122
2481.0,0.0122
2480.0,0.0122
2479.0,0.0123
2478.0,0.0123
2477.0,0.0123
2476.0,0.0124
2475.0,0.0124
2474.0,0.0124
2473.0,0.0123
2472.0,0.0122
2471.0,0.0122
2470.0,0.0122
2469.0,0.0122
2468.0,0.0122
2467.0,0.0122
2466.0,0.0121
2465.0,0.0121
2464.0,0.0121
2463.0,0.0121
2462.0,0.0121
2461.0,0.0121
2460.0,0.012
2459.0,0.0121
2458.0,0.0121
2457.0,0.0121
2456.0,0.0122
2455.0,0.0121
2454.0,0.012
2453.0,0.012
2452.0,0.0121
2451.0,0.0122
2450.0,0.0123
2449.0,0.0123
2448.0,0.0123
2447.0,0.0122
2446.0,0.0122
2445.0,0.0122
2444.0,0.0122
2443.0,0.0122
2442.0,0.0122
2441.0,0.0123
2440.0,0.0123
2439.0,0.0123
2438.0,0.0123
2437.0,0.0123
2436.0,0.0123
2435.0,0.0123
2434.0,0.0123
2433.0,0.0123
2432.0,0.0122
2431.0,0.0122
2430.0,0.0122
2429.0,0.0122
2428.0,0.0123
2427.0,0.0123
2426.0,0.0124
2425.0,0.0124
2424.0,0.0124
2423.0,0.0124
2422.0,0.0124
2421.0,0.0124
2420.0,0.0124
2419.0,0.0124
2418.0,0.0123
2417.0,0.0123
2416.0,0.0124
2415.0,0.0123
2414.0,0.0123
2413.0,0.0123
2412.0,0.0123
2411.0,0.0123
2410.0,0.0122
2409.0,0.0122
2408.0,0.0122
2407.0,0.0122
2406.0,0.0122
2405.0,0.0122
2404.0,0.0122
2403.0,0.0122
2402.0,0.0123
2401.0,0.0123
2400.0,0.0122
2399.0,0.0122
2398.0,0.0121
2397.0,0.0122
2396.0,0.0122
2395.0,0.0123
2394.0,0.0123
2393.0,0.0123
2392.0,0.0123
2391.0,0.0122
2390.0,0.0122
2389.0,0.0122
2388.0,0.0121
2387.0,0.012
2386.0,0.0119
2385.0,0.0117
2384.0,0.0117
2383.0,0.0117
2382.0,0.0118
2381.0,0.012
2380.0,0.0122
2379.0,0.0122
2378.0,0.0121
2377.0,0.0119
2376.0,0.0117
2375.0,0.0114
2374.0,0.011
2373.0,0.0106
2372.0,0.0104
2371.0,0.0106
2370.0,0.0109
2369.0,0.0114
2368.0,0.0119
2367.0,0.0123
2366.0,0.0125
2365.0,0.0125
2364.0,0.0122
2363.0,0.0115
2362.0,0.0106
2361.0,0.0101
2360.0,0.0101
2359.0,0.0101
2358.0,0.0101
2357.0,0.0101
2356.0,0.0105
2355.0,0.0112
2354.0,0.0121
2353.0,0.0127
2352.0,0.0128
2351.0,0.0123
2350.0,0.0118
2349.0,0.0116
2348.0,0.0118
2347.0,0.0122
2346.0,0.0126
2345.0,0.0124
2344.0,0.012
2343.0,0.0116
2342.0,0.0118
2341.0,0.0121
2340.0,0.0123
2339.0,0.0122
2338.0,0.012
2337.0,0.0118
2336.0,0.0117
2335.0,0.0114
2334.0,0.0113
2333.0,0.0116
2332.0,0.012
2331.0,0.0123
2330.0,0.0125
2329.0,0.0125
2328.0,0.0123
2327.0,0.0121
2326.0,0.012
2325.0,0.012
2324.0,0.012
2323.0,0.0121
2322.0,0.012
2321.0,0.0119
2320.0,0.0118
2319.0,0.0118
2318.0,0.0118
2317.0,0.0119
2316.0,0.012
2315.0,0.0119
2314.0,0.0118
2313.0,0.0117
2312.0,0.0116
2311.0,0.0116
2310.0,0.0117
2309.0,0.0118
2308.0,0.0119
2307.0,0.0119
2306.0,0.012
2305.0,0.012
2304.0,0.0119
2303.0,0.0118
2302.0,0.0117
2301.0,0.0117
2300.0,0.0118
2299.0,0.0118
2298.0,0.0118
2297.0,0.0118
2296.0,0.0118
2295.0,0.0118
2294.0,0.0118
2293.0,0.0119
2292.0,0.0119
2291.0,0.0119
2290.0,0.0119
2289.0,0.0119
2288.0,0.0118
2287.0,0.0118
2286.0,0.0118
2285.0,0.0119
2284.0,0.012
2283.0,0.0121
2282.0,0.0121
2281.0,0.0122
2280.0,0.0122
2279.0,0.0122
2278.0,0.0122
2277.0,0.0122
2276.0,0.0122
2275.0,0.0122
2274.0,0.0122
2273.0,0.0123
2272.0,0.0123
2271.0,0.0123
2270.0,0.0123
2269.0,0.0123
2268.0,0.0123
2267.0,0.0122
2266.0,0.0122
2265.0,0.0122
2264.0,0.0123
2263.0,0.0123
2262.0,0.0123
2261.0,0.0123
2260.0,0.0123
2259.0,0.0124
2258.0,0.0124
2257.0,0.0124
2256.0,0.0124
2255.0,0.0124
2254.0,0.0124
2253.0,0.0124
2252.0,0.0124
2251.0,0.0124
2250.0,0.0123
2249.0,0.0124
2248.0,0.0124
2247.0,0.0124
2246.0,0.0124
2245.0,0.0123
2244.0,0.0123
2243.0,0.0122
2242.0,0.0122
2241.0,0.0122
2240.0,0.0122
2239.0,0.0123
2238.0,0.0124
2237.0,0.0124
2236.0,0.0124
2235.0,0.0124
2234.0,0.0123
2233.0,0.0124
2232.0,0.0124
2231.0,0.0124
2230.0,0.0123
2229.0,0.0122
2228.0,0.0122
2227.0,0.0123
2226.0,0.0124
2225.0,0.0124
2224.0,0.0124
2223.0,0.0124
2222.0,0.0124
2221.0,0.0124
2220.0,0.0124
2219.0,0.0124
2218.0,0.0124
2217.0,0.0123
2216.0,0.0123
2215.0,0.0123
2214.0,0.0123
2213.0,0.0124
2212.0,0.0124
2211.0,0.0124
2210.0,0.0123
2209.0,0.0124
2208.0,0.0124
2207.0,0.0124
2206.0,0.0124
2205.0,0.0124
2204.0,0.0124
2203.0,0.0124
2202.0,0.0124
2201.0,0.0124
2200.0,0.0124
2199.0,0.0124
2198.0,0.0124
2197.0,0.0124
2196.0,0.0124
2195.0,0.0125
2194.0,0.0125
2193.0,0.0125
2192.0,0.0126
2191.0,0.0125
2190.0,0.0125
2189.0,0.0124
2188.0,0.0124
2187.0,0.0124
2186.0,0.0125
2185.0,0.0126
2184.0,0.0126
2183.0,0.0126
2182.0,0.0126
2181.0,0.0126
2180.0,0.0127
2179.0,0.0127
2178.0,0.0127
2177.0,0.0126
2176.0,0.0126
2175.0,0.0126
2174.0,0.0126
2173.0,0.0127
2172.0,0.0126
2171.0,0.0126
2170.0,0.0125
2169.0,0.0125
2168.0,0.0125
2167.0,0.0125
2166.0,0.0125
2165.0,0.0125
2164.0,0.0125
2163.0,0.0125
2162.0,0.0126
2161.0,0.0126
2160.0,0.0127
2159.0,0.0127
2158.0,0.0127
2157.0,0.0127
2156.0,0.0127
2155.0,0.0126
2154.0,0.0126
2153.0,0.0126
2152.0,0.0125
2151.0,0.0125
2150.0,0.0125
2149.0,0.0126
2148.0,0.0126
2147.0,0.0127
2146.0,0.0127
2145.0,0.0127
2144.0,0.0127
2143.0,0.0127
2142.0,0.0127
2141.0,0.0127
2140.0,0.0126
2139.0,0.0126
2138.0,0.0126
2137.0,0.0126
2136.0,0.0126
2135.0,0.0126
2134.0,0.0126
2133.0,0.0126
2132.0,0.0126
2131.0,0.0127
2130.0,0.0127
2129.0,0.0128
2128.0,0.0128
2127.0,0.0128
2126.0,0.0128
2125.0,0.0128
2124.0,0.0128
2123.0,0.0128
2122.0,0.0128
2121.0,0.0128
2120.0,0.0127
2119.0,0.0127
2118.0,0.0127
2117.0,0.0127
2116.0,0.0127
2115.0,0.0126
2114.0,0.0126
2113.0,0.0126
2112.0,0.0126
2111.0,0.0126
2110.0,0.0126
2109.0,0.0126
2108.0,0.0126
2107.0,0.0126
2106.0,0.0126
2105.0,0.0126
2104.0,0.0126
2103.0,0.0126
2102.0,0.0127
2101.0,0.0127
2100.0,0.0127
2099.0,0.0126
2098.0,0.0126
2097.0,0.0126
2096.0,0.0126
2095.0,0.0126
2094.0,0.0126
2093.0,0.0126
2092.0,0.0126
2091.0,0.0126
2090.0,0.0126
2089.0,0.0126
2088.0,0.0127
2087.0,0.0127
2086.0,0.0127
2085.0,0.0128
2084.0,0.0128
2083.0,0.0127
2082.0,0.0127
2081.0,0.0127
2080.0,0.0127
2079.0,0.0127
2078.0,0.0127
2077.0,0.0127
2076.0,0.0128
2075.0,0.0128
2074.0,0.0128
2073.0,0.0128
2072.0,0.0127
2071.0,0.0126
2070.0,0.0126
2069.0,0.0126
2068.0,0.0127
2067.0,0.0127
2066.0,0.0128
2065.0,0.0128
2064.0,0.0128
2063.0,0.0128
2062.0,0.0128
2061.0,0.0128
2060.0,0.0128
2059.0,0.0128
2058.0,0.0128
2057.0,0.0128
2056.0,0.0129
2055.0,0.0129
2054.0,0.013
2053.0,0.013
2052.0,0.013
2051.0,0.0129
2050.0,0.0129
2049.0,0.0129
2048.0,0.0129
2047.0,0.0129
2046.0,0.0128
2045.0,0.0128
2044.0,0.0128
2043.0,0.0128
2042.0,0.0128
2041.0,0.0128
2040.0,0.0128
2039.0,0.0128
2038.0,0.0128
2037.0,0.0129
2036.0,0.0129
2035.0,0.0129
2034.0,0.0129
2033.0,0.0129
2032.0,0.0129
2031.0,0.0129
2030.0,0.013
2029.0,0.013
2028.0,0.013
2027.0,0.013
2026.0,0.013
2025.0,0.013
2024.0,0.013
2023.0,0.013
2022.0,0.013
2021.0,0.013
2020.0,0.013
2019.0,0.0131
2018.0,0.0131
2017.0,0.013
2016.0,0.013
2015.0,0.0129
2014.0,0.0129
2013.0,0.013
2012.0,0.013
2011.0,0.013
2010.0,0.013
2009.0,0.013
2008.0,0.013
2007.0,0.013
2006.0,0.0129
2005.0,0.0129
2004.0,0.0129
2003.0,0.0129
2002.0,0.013
2001.0,0.013
2000.0,0.0131
1999.0,0.013
1998.0,0.013
1997.0,0.013
1996.0,0.013
1995.0,0.013
1994.0,0.0131
1993.0,0.0132
1992.0,0.0132
1991.0,0.0131
1990.0,0.013
1989.0,0.013
1988.0,0.013
1987.0,0.013
1986.0,0.0131
1985.0,0.0131
1984.0,0.0131
1983.0,0.013
1982.0,0.013
1981.0,0.0129
1980.0,0.013
1979.0,0.013
1978.0,0.0131
1977.0,0.0132
1976.0,0.0132
1975.0,0.0132
1974.0,0.0132
1973.0,0.0131
1972.0,0.0132
1971.0,0.0132
1970.0,0.0133
1969.0,0.0133
1968.0,0.0133
1967.0,0.0133
1966.0,0.0133
1965.0,0.0133
1964.0,0.0132
1963.0,0.0132
1962.0,0.0132
1961.0,0.0132
1960.0,0.0132
1959.0,0.0132
1958.0,0.0132
1957.0,0.0132
1956.0,0.0133
1955.0,0.0133
1954.0,0.0133
1953.0,0.0133
1952.0,0.0133
1951.0,0.0133
1950.0,0.0133
1949.0,0.0133
1948.0,0.0133
1947.0,0.0133
1946.0,0.0133
1945.0,0.0133
1944.0,0.0134
1943.0,0.0134
1942.0,0.0134
1941.0,0.0134
1940.0,0.0135
1939.0,0.0134
1938.0,0.0134
1937.0,0.0134
1936.0,0.0134
1935.0,0.0134
1934.0,0.0134
1933.0,0.0134
1932.0,0.0135
1931.0,0.0135
1930.0,0.0134
1929.0,0.0134
1928.0,0.0134
1927.0,0.0134
1926.0,0.0134
1925.0,0.0135
1924.0,0.0135
1923.0,0.0135
1922.0,0.0135
1921.0,0.0135
1920.0,0.0135
1919.0,0.0135
1918.0,0.0135
1917.0,0.0135
1916.0,0.0136
1915.0,0.0136
1914.0,0.0136
1913.0,0.0136
1912.0,0.0136
1911.0,0.0136
1910.0,0.0137
1909.0,0.0136
1908.0,0.0136
1907.0,0.0135
1906.0,0.0135
1905.0,0.0135
1904.0,0.0135
1903.0,0.0136
1902.0,0.0136
1901.0,0.0136
1900.0,0.0137
1899.0,0.0137
1898.0,0.0137
1897.0,0.0137
1896.0,0.0137
1895.0,0.0137
1894.0,0.0138
1893.0,0.0138
1892.0,0.0138
1891.0,0.0138
1890.0,0.0137
1889.0,0.0137
1888.0,0.0137
1887.0,0.0137
1886.0,0.0137
1885.0,0.0138
1884.0,0.0138
1883.0,0.0138
1882.0,0.0138
1881.0,0.0138
1880.0,0.0138
1879.0,0.0138
1878.0,0.0137
1877.0,0.0137
1876.0,0.0136
1875.0,0.0136
1874.0,0.0136
1873.0,0.0136
1872.0,0.0137
1871.0,0.0138
1870.0,0.0139
1869.0,0.014
1868.0,0.014
1867.0,0.014
1866.0,0.014
1865.0,0.0139
1864.0,0.0139
1863.0,0.0138
1862.0,0.0138
1861.0,0.0138
1860.0,0.0138
1859.0,0.0138
1858.0,0.0138
1857.0,0.0138
1856.0,0.0138
1855.0,0.0137
1854.0,0.0137
1853.0,0.0137
1852.0,0.0138
1851.0,0.0138
1850.0,0.0138
1849.0,0.0139
1848.0,0.0139
1847.0,0.0139
1846.0,0.014
1845.0,0.0139
1844.0,0.0139
1843.0,0.0138
1842.0,0.0138
1841.0,0.0138
1840.0,0.0139
1839.0,0.0139
1838.0,0.0139
1837.0,0.0139
1836.0,0.0139
1835.0,0.0139
1834.0,0.014
1833.0,0.0141
1832.0,0.0142
1831.0,0.0142
1830.0,0.0142
1829.0,0.0141
1828.0,0.0141
1827.0,0.014
1826.0,0.014
1825.0,0.014
1824.0,0.014
1823.0,0.014
1822.0,0.014
1821.0,0.014
1820.0,0.0141
1819.0,0.0141
1818.0,0.0141
1817.0,0.014
1816.0,0.0141
1815.0,0.014
1814.0,0.0141
1813.0,0.0141
1812.0,0.0142
1811.0,0.0142
1810.0,0.0143
1809.0,0.0143
1808.0,0.0143
1807.0,0.0143
1806.0,0.0142
1805.0,0.0142
1804.0,0.0142
1803.0,0.0142
1802.0,0.0142
1801.0,0.0142
1800.0,0.0142
1799.0,0.0142
1798.0,0.0142
1797.0,0.0142
1796.0,0.0142
1795.0,0.0143
1794.0,0.0143
1793.0,0.0144
1792.0,0.0144
1791.0,0.0144
1790.0,0.0143
1789.0,0.0143
1788.0,0.0142
1787.0,0.0142
1786.0,0.0142
1785.0,0.0143
1784.0,0.0143
1783.0,0.0143
1782.0,0.0144
1781.0,0.0144
1780.0,0.0145
1779.0,0.0145
1778.0,0.0145
1777.0,0.0145
1776.0,0.0146
1775.0,0.0147
1774.0,0.0147
1773.0,0.0147
1772.0,0.0146
1771.0,0.0146
1770.0,0.0145
1769.0,0.0145
1768.0,0.0145
1767.0,0.0145
1766.0,0.0145
1765.0,0.0145
1764.0,0.0146
1763.0,0.0147
1762.0,0.0147
1761.0,0.0148
1760.0,0.0149
1759.0,0.015
1758.0,0.0151
1757.0,0.0152
1756.0,0.0152
1755.0,0.0152
1754.0,0.0153
1753.0,0.0154
1752.0,0.0157
1751.0,0.016
1750.0,0.0163
1749.0,0.0166
1748.0,0.0168
1747.0,0.017
1746.0,0.0171
1745.0,0.0172
1744.0,0.0172
1743.0,0.0172
1742.0,0.0171
1741.0,0.0171
1740.0,0.0171
1739.0,0.0171
1738.0,0.017
1737.0,0.017
1736.0,0.017
1735.0,0.0168
1734.0,0.0167
1733.0,0.0167
1732.0,0.0168
1731.0,0.0168
1730.0,0.0167
1729.0,0.0165
1728.0,0.0164
1727.0,0.0164
1726.0,0.0164
1725.0,0.0164
1724.0,0.0164
1723.0,0.0164
1722.0,0.0163
1721.0,0.0163
1720.0,0.0164
1719.0,0.0164
1718.0,0.0164
1717.0,0.0165
1716.0,0.0165
1715.0,0.0165
1714.0,0.0165
1713.0,0.0165
1712.0,0.0165
1711.0,0.0165
1710.0,0.0165
1709.0,0.0165
1708.0,0.0165
1707.0,0.0165
1706.0,0.0164
1705.0,0.0164
1704.0,0.0164
1703.0,0.0164
1702.0,0.0164
1701.0,0.0163
1700.0,0.0163
1699.0,0.0164
1698.0,0.0166
1697.0,0.017
1696.0,0.0171
1695.0,0.017
1694.0,0.0169
1693.0,0.017
1692.0,0.0171
1691.0,0.0171
1690.0,0.0172
1689.0,0.0172
1688.0,0.0173
1687.0,0.0174
1686.0,0.0173
1685.0,0.0172
1684.0,0.0173
1683.0,0.0175
1682.0,0.0176
1681.0,0.0178
1680.0,0.0179
1679.0,0.0179
1678.0,0.0179
1677.0,0.0179
1676.0,0.0179
1675.0,0.0179
1674.0,0.0179
1673.0,0.018
1672.0,0.0181
1671.0,0.0183
1670.0,0.0185
1669.0,0.0186
1668.0,0.0186
1667.0,0.0186
1666.0,0.0186
1665.0,0.0186
1664.0,0.0187
1663.0,0.0188
1662.0,0.0189
1661.0,0.019
1660.0,0.019
1659.0,0.0189
1658.0,0.0189
1657.0,0.0189
1656.0,0.0189
1655.0,0.0189
1654.0,0.019
1653.0,0.0193
1652.0,0.0194
1651.0,0.0194
1650.0,0.0194
1649.0,0.0195
1648.0,0.0195
1647.0,0.0196
1646.0,0.0197
1645.0,0.0197
1644.0,0.0198
1643.0,0.0199
1642.0,0.02
1641.0,0.02
1640.0,0.0199
1639.0,0.0197
1638.0,0.0196
1637.0,0.0195
1636.0,0.0195
1635.0,0.0196
1634.0,0.0195
1633.0,0.0194
1632.0,0.0194
1631.0,0.0194
1630.0,0.0193
1629.0,0.0193
1628.0,0.0193
1627.0,0.0192
1626.0,0.0191
1625.0,0.0191
1624.0,0.0191
1623.0,0.0191
1622.0,0.0191
1621.0,0.0191
1620.0,0.019
1619.0,0.0189
1618.0,0.0189
1617.0,0.0189
1616.0,0.0189
1615.0,0.0189
1614.0,0.0188
1613.0,0.0188
1612.0,0.0187
1611.0,0.0187
1610.0,0.0188
1609.0,0.0189
1608.0,0.019
1607.0,0.019
1606.0,0.019
1605.0,0.019
1604.0,0.019
1603.0,0.0191
1602.0,0.0191
1601.0,0.0191
1600.0,0.0191
1599.0,0.019
1598.0,0.019
1597.0,0.019
1596.0,0.0191
1595.0,0.0191
1594.0,0.0191
1593.0,0.0191
1592.0,0.0191
1591.0,0.0191
1590.0,0.0191
1589.0,0.0191
1588.0,0.0192
1587.0,0.0193
1586.0,0.0194
1585.0,0.0195
1584.0,0.0195
1583.0,0.0196
1582.0,0.0197
1581.0,0.0197
1580.0,0.0198
1579.0,0.0198
1578.0,0.0199
1577.0,0.0199
1576.0,0.02
1575.0,0.0199
1574.0,0.0198
1573.0,0.0198
1572.0,0.0197
1571.0,0.0197
1570.0,0.0196
1569.0,0.0196
1568.0,0.0195
1567.0,0.0195
1566.0,0.0194
1565.0,0.0193
1564.0,0.0192
1563.0,0.019
1562.0,0.0189
1561.0,0.0187
1560.0,0.0185
1559.0,0.0187
1558.0,0.0187
1557.0,0.0186
1556.0,0.0186
1555.0,0.0186
1554.0,0.0184
1553.0,0.0184
1552.0,0.0184
1551.0,0.0184
1550.0,0.0184
1549.0,0.0183
1548.0,0.0182
1547.0,0.0182
1546.0,0.0182
1545.0,0.0182
1544.0,0.0183
1543.0,0.0183
1542.0,0.0183
1541.0,0.0183
1540.0,0.0182
1539.0,0.0179
1538.0,0.0177
1537.0,0.0178
1536.0,0.0178
1535.0,0.0178
1534.0,0.0177
1533.0,0.0176
1532.0,0.0174
1531.0,0.0173
1530.0,0.0172
1529.0,0.0172
1528.0,0.0172
1527.0,0.0171
1526.0,0.017
1525.0,0.0169
1524.0,0.0169
1523.0,0.0169
1522.0,0.0168
1521.0,0.0168
1520.0,0.0168
1519.0,0.0168
1518.0,0.0168
1517.0,0.0169
1516.0,0.0169
1515.0,0.0169
1514.0,0.0168
1513.0,0.0169
1512.0,0.0169
1511.0,0.0169
1510.0,0.017
1509.0,0.0171
1508.0,0.0174
1507.0,0.0175
1506.0,0.0171
1505.0,0.0168
1504.0,0.0167
1503.0,0.0167
1502.0,0.0167
1501.0,0.0168
1500.0,0.0169
1499.0,0.017
1498.0,0.0171
1497.0,0.0174
1496.0,0.0177
1495.0,0.0178
1494.0,0.0179
1493.0,0.018
1492.0,0.0181
1491.0,0.0181
1490.0,0.0181
1489.0,0.0182
1488.0,0.0183
1487.0,0.0183
1486.0,0.0183
1485.0,0.0184
1484.0,0.0186
1483.0,0.0188
1482.0,0.0191
1481.0,0.0195
1480.0,0.0199
1479.0,0.0204
1478.0,0.021
1477.0,0.0221
1476.0,0.0236
1475.0,0.0253
1474.0,0.0277
1473.0,0.0311
1472.0,0.0347
1471.0,0.0374
1470.0,0.0399
1469.0,0.0426
1468.0,0.0456
1467.0,0.049
1466.0,0.0534
1465.0,0.0587
1464.0,0.0633
1463.0,0.0661
1462.0,0.0675
1461.0,0.0684
1460.0,0.0689
1459.0,0.0694
1458.0,0.0707
1457.0,0.0729
1456.0,0.0741
1455.0,0.0743
1454.0,0.0743
1453.0,0.0741
1452.0,0.0736
1451.0,0.0725
1450.0,0.0708
1449.0,0.0682
1448.0,0.0645
1447.0,0.0604
1446.0,0.0567
1445.0,0.0533
1444.0,0.0503
1443.0,0.0476
1442.0,0.0455
1441.0,0.0439
1440.0,0.0427
1439.0,0.042
1438.0,0.0418
1437.0,0.042
1436.0,0.0418
1435.0,0.0409
1434.0,0.0394
1433.0,0.0376
1432.0,0.0355
1431.0,0.0336
1430.0,0.0321
1429.0,0.0308
1428.0,0.0298
1427.0,0.0291
1426.0,0.0286
1425.0,0.0281
1424.0,0.0276
1423.0,0.0273
1422.0,0.027
1421.0,0.0267
1420.0,0.0263
1419.0,0.0261
1418.0,0.026
1417.0,0.0257
1416.0,0.0254
1415.0,0.0252
1414.0,0.0249
1413.0,0.0246
1412.0,0.0243
1411.0,0.0241
1410.0,0.0238
1409.0,0.0236
1408.0,0.0234
1407.0,0.0233
1406.0,0.0232
1405.0,0.023
1404.0,0.0227
1403.0,0.0225
1402.0,0.0223
1401.0,0.0221
1400.0,0.022
1399.0,0.0219
1398.0,0.0219
1397.0,0.0218
1396.0,0.0216
1395.0,0.0216
1394.0,0.0216
1393.0,0.0214
1392.0,0.0213
1391.0,0.0214
1390.0,0.0215
1389.0,0.0218
1388.0,0.0224
1387.0,0.0235
1386.0,0.0251
1385.0,0.0274
1384.0,0.0307
1383.0,0.0355
1382.0,0.0422
1381.0,0.0509
1380.0,0.062
1379.0,0.0751
1378.0,0.0879
1377.0,0.0976
1376.0,0.1016
1375.0,0.0985
1374.0,0.0893
1373.0,0.0782
1372.0,0.0685
1371.0,0.0604
1370.0,0.0535
1369.0,0.0479
1368.0,0.0439
1367.0,0.0413
1366.0,0.0396
1365.0,0.0387
1364.0,0.0386
1363.0,0.039
1362.0,0.04
1361.0,0.0411
1360.0,0.0419
1359.0,0.0421
1358.0,0.0417
1357.0,0.0406
1356.0,0.0391
1355.0,0.0373
1354.0,0.0356
1353.0,0.0342
1352.0,0.033
1351.0,0.032
1350.0,0.0312
1349.0,0.0304
1348.0,0.0298
1347.0,0.0292
1346.0,0.0287
1345.0,0.0283
1344.0,0.0279
1343.0,0.0277
1342.0,0.0275
1341.0,0.0274
1340.0,0.0273
1339.0,0.0271
1338.0,0.0269
1337.0,0.0268
1336.0,0.0266
1335.0,0.0266
1334.0,0.0266
1333.0,0.0267
1332.0,0.0269
1331.0,0.0271
1330.0,0.0272
1329.0,0.0271
1328.0,0.027
1327.0,0.0269
1326.0,0.0267
1325.0,0.0265
1324.0,0.0262
1323.0,0.0259
1322.0,0.0257
1321.0,0.0256
1320.0,0.0255
1319.0,0.0254
1318.0,0.0253
1317.0,0.0252
1316.0,0.0251
1315.0,0.025
1314.0,0.0249
1313.0,0.0248
1312.0,0.0248
1311.0,0.0249
1310.0,0.025
1309.0,0.0253
1308.0,0.0258
1307.0,0.0264
1306.0,0.0269
1305.0,0.0274
1304.0,0.0275
1303.0,0.0274
1302.0,0.0271
1301.0,0.0268
1300.0,0.0266
1299.0,0.0265
1298.0,0.0265
1297.0,0.0265
1296.0,0.0264
1295.0,0.0263
1294.0,0.0262
1293.0,0.026
1292.0,0.0257
1291.0,0.0255
1290.0,0.0254
1289.0,0.0252
1288.0,0.0251
1287.0,0.025
1286.0,0.0249
1285.0,0.0248
1284.0,0.0248
1283.0,0.0247
1282.0,0.0246
1281.0,0.0245
1280.0,0.0244
1279.0,0.0244
1278.0,0.0244
1277.0,0.0244
1276.0,0.0244
1275.0,0.0244
1274.0,0.0244
1273.0,0.0244
1272.0,0.0244
1271.0,0.0244
1270.0,0.0244
1269.0,0.0244
1268.0,0.0245
1267.0,0.0245
1266.0,0.0246
1265.0,0.0247
1264.0,0.0247
1263.0,0.0248
1262.0,0.025
1261.0,0.0252
1260.0,0.0256
1259.0,0.026
1258.0,0.0265
1257.0,0.0269
1256.0,0.0272
1255.0,0.0271
1254.0,0.0268
1253.0,0.0265
1252.0,0.0261
1251.0,0.0257
1250.0,0.0254
1249.0,0.0252
1248.0,0.025
1247.0,0.025
1246.0,0.0249
1245.0,0.0248
1244.0,0.0247
1243.0,0.0246
1242.0,0.0246
1241.0,0.0246
1240.0,0.0245
1239.0,0.0245
1238.0,0.0245
1237.0,0.0244
1236.0,0.0244
1235.0,0.0243
1234.0,0.0243
1233.0,0.0243
1232.0,0.0242
1231.0,0.0242
1230.0,0.0242
1229.0,0.0243
1228.0,0.0243
1227.0,0.0244
1226.0,0.0245
1225.0,0.0246
1224.0,0.0247
1223.0,0.0248
1222.0,0.025
1221.0,0.0251
1220.0,0.0252
1219.0,0.0252
1218.0,0.0252
1217.0,0.0252
1216.0,0.0252
1215.0,0.0251
1214.0,0.025
1213.0,0.0249
1212.0,0.0247
1211.0,0.0246
1210.0,0.0246
1209.0,0.0245
1208.0,0.0244
1207.0,0.0244
1206.0,0.0244
1205.0,0.0245
1204.0,0.0246
1203.0,0.0247
1202.0,0.0249
1201.0,0.025
1200.0,0.0251
1199.0,0.0253
1198.0,0.0253
1197.0,0.0253
1196.0,0.0253
1195.0,0.0252
1194.0,0.0252
1193.0,0.0251
1192.0,0.0252
1191.0,0.0252
1190.0,0.0254
1189.0,0.0256
1188.0,0.0259
1187.0,0.0262
1186.0,0.0266
1185.0,0.027
1184.0,0.0275
1183.0,0.028
1182.0,0.0285
1181.0,0.029
1180.0,0.0294
1179.0,0.0299
1178.0,0.0304
1177.0,0.0309
1176.0,0.0315
1175.0,0.0322
1174.0,0.0333
1173.0,0.0345
1172.0,0.036
1171.0,0.0376
1170.0,0.0392
1169.0,0.0404
1168.0,0.0411
1167.0,0.0411
1166.0,0.0406
1165.0,0.0396
1164.0,0.0385
1163.0,0.0374
1162.0,0.0363
1161.0,0.0355
1160.0,0.0348
1159.0,0.0342
1158.0,0.0337
1157.0,0.0333
1156.0,0.033
1155.0,0.0329
1154.0,0.0327
1153.0,0.0326
1152.0,0.0323
1151.0,0.032
1150.0,0.0316
1149.0,0.0311
1148.0,0.0307
1147.0,0.0303
1146.0,0.03
1145.0,0.0298
1144.0,0.0296
1143.0,0.0296
1142.0,0.0296
1141.0,0.0298
1140.0,0.0302
1139.0,0.0305
1138.0,0.0308
1137.0,0.0309
1136.0,0.031
1135.0,0.031
1134.0,0.031
1133.0,0.031
1132.0,0.031
1131.0,0.0311
1130.0,0.0312
1129.0,0.0314
1128.0,0.0317
1127.0,0.0319
1126.0,0.0321
1125.0,0.0322
1124.0,0.0321
1123.0,0.0319
1122.0,0.0316
1121.0,0.0312
1120.0,0.0309
1119.0,0.0305
1118.0,0.0302
1117.0,0.0299
1116.0,0.0296
1115.0,0.0293
1114.0,0.029
1113.0,0.0288
1112.0,0.0287
1111.0,0.0286
1110.0,0.0285
1109.0,0.0285
1108.0,0.0285
1107.0,0.0287
1106.0,0.0289
1105.0,0.0293
1104.0,0.0295
1103.0,0.0296
1102.0,0.0296
1101.0,0.0295
1100.0,0.0292
1099.0,0.0289
1098.0,0.0286
1097.0,0.0283
1096.0,0.028
1095.0,0.0277
1094.0,0.0275
1093.0,0.0274
1092.0,0.0273
1091.0,0.0272
1090.0,0.0271
1089.0,0.0269
1088.0,0.0268
1087.0,0.0267
1086.0,0.0266
1085.0,0.0265
1084.0,0.0264
1083.0,0.0263
1082.0,0.0263
1081.0,0.0262
1080.0,0.0262
1079.0,0.0262
1078.0,0.0263
1077.0,0.0263
1076.0,0.0262
1075.0,0.0261
1074.0,0.026
1073.0,0.0259
1072.0,0.026
1071.0,0.0261
1070.0,0.0261
1069.0,0.0261
1068.0,0.0261
1067.0,0.026
1066.0,0.0259
1065.0,0.0259
1064.0,0.0259
1063.0,0.0259
1062.0,0.0259
1061.0,0.0259
1060.0,0.0258
1059.0,0.0257
1058.0,0.0256
1057.0,0.0255
1056.0,0.0255
1055.0,0.0255
1054.0,0.0255
1053.0,0.0256
1052.0,0.0256
1051.0,0.0258
1050.0,0.026
1049.0,0.0262
1048.0,0.0264
1047.0,0.0265
1046.0,0.0266
1045.0,0.0267
1044.0,0.0267
1043.0,0.0266
1042.0,0.0264
1041.0,0.0263
1040.0,0.0263
1039.0,0.0263
1038.0,0.0262
1037.0,0.0262
1036.0,0.0261
1035.0,0.0261
1034.0,0.0261
1033.0,0.0262
1032.0,0.0262
1031.0,0.0262
1030.0,0.0262
1029.0,0.0262
1028.0,0.0263
1027.0,0.0263
1026.0,0.0264
1025.0,0.0265
1024.0,0.0266
1023.0,0.0266
1022.0,0.0267
1021.0,0.0268
1020.0,0.0268
1019.0,0.0268
1018.0,0.0268
1017.0,0.0267
1016.0,0.0266
1015.0,0.0266
1014.0,0.0266
1013.0,0.0267
1012.0,0.0267
1011.0,0.0268
1010.0,0.027
1009.0,0.0272
1008.0,0.0274
1007.0,0.0277
1006.0,0.0281
1005.0,0.0288
1004.0,0.0297
1003.0,0.031
1002.0,0.0328
1001.0,0.0351
1000.0,0.0377
999.0,0.04
998.0,0.0414
997.0,0.0415
996.0,0.0403
995.0,0.0383
994.0,0.0362
993.0,0.0344
992.0,0.0329
991.0,0.0318
990.0,0.031
989.0,0.0305
988.0,0.03
987.0,0.0297
986.0,0.0295
985.0,0.0294
984.0,0.0296
983.0,0.03
982.0,0.0305
981.0,0.0312
980.0,0.0323
979.0,0.0338
978.0,0.0356
977.0,0.038
976.0,0.0406
975.0,0.0433
974.0,0.0455
973.0,0.0466
972.0,0.0462
971.0,0.0446
970.0,0.0421
969.0,0.0396
968.0,0.0374
967.0,0.0357
966.0,0.0344
965.0,0.0334
964.0,0.0327
963.0,0.0322
962.0,0.0318
961.0,0.0314
960.0,0.0311
959.0,0.0308
958.0,0.0306
957.0,0.0305
956.0,0.0304
955.0,0.0303
954.0,0.0302
953.0,0.0301
952.0,0.03
951.0,0.03
950.0,0.0301
949.0,0.0301
948.0,0.0301
947.0,0.0302
946.0,0.0302
945.0,0.0302
944.0,0.0303
943.0,0.0304
942.0,0.0306
941.0,0.0308
940.0,0.031
939.0,0.031
938.0,0.0308
937.0,0.0306
936.0,0.0304
935.0,0.0302
934.0,0.0301
933.0,0.03
932.0,0.03
931.0,0.0299
930.0,0.0299
929.0,0.0298
928.0,0.0297
927.0,0.0296
926.0,0.0296
925.0,0.0296
924.0,0.0296
923.0,0.0297
922.0,0.0297
921.0,0.0298
920.0,0.0298
919.0,0.0299
918.0,0.03
917.0,0.0301
916.0,0.0302
915.0,0.0303
914.0,0.0303
913.0,0.0304
912.0,0.0306
911.0,0.0307
910.0,0.0309
909.0,0.031
908.0,0.0312
907.0,0.0314
906.0,0.0316
905.0,0.032
904.0,0.0327
903.0,0.0336
902.0,0.0346
901.0,0.0356
900.0,0.0364
899.0,0.0367
898.0,0.0366
897.0,0.0362
896.0,0.0356
895.0,0.0349
894.0,0.0343
893.0,0.0338
892.0,0.0334
891.0,0.0332
890.0,0.033
889.0,0.0329
888.0,0.0329
887.0,0.0329
886.0,0.0329
885.0,0.0329
884.0,0.0329
883.0,0.0329
882.0,0.033
881.0,0.0331
880.0,0.0332
879.0,0.0333
878.0,0.0335
877.0,0.0337
876.0,0.0339
875.0,0.034
874.0,0.034
873.0,0.0339
872.0,0.0338
871.0,0.0337
870.0,0.0335
869.0,0.0334
868.0,0.0334
867.0,0.0335
866.0,0.0335
865.0,0.0335
864.0,0.0335
863.0,0.0334
862.0,0.0335
861.0,0.0336
860.0,0.0338
859.0,0.0339
858.0,0.0339
857.0,0.0339
856.0,0.0339
855.0,0.0339
854.0,0.034
853.0,0.0342
852.0,0.0344
851.0,0.0347
850.0,0.0349
849.0,0.0352
848.0,0.0355
847.0,0.0361
846.0,0.037
845.0,0.0386
844.0,0.0411
843.0,0.0441
842.0,0.0469
841.0,0.0481
840.0,0.0475
839.0,0.0454
838.0,0.0429
837.0,0.0408
836.0,0.0394
835.0,0.0385
834.0,0.038
833.0,0.0376
832.0,0.0374
831.0,0.0372
830.0,0.0371
829.0,0.0371
828.0,0.037
827.0,0.0369
826.0,0.0368
825.0,0.0368
824.0,0.0368
823.0,0.0369
822.0,0.0369
821.0,0.0369
820.0,0.037
819.0,0.037
818.0,0.0371
817.0,0.0373
816.0,0.0378
815.0,0.0385
814.0,0.0393
813.0,0.0402
812.0,0.0411
811.0,0.0419
810.0,0.0426
809.0,0.043
808.0,0.0431
807.0,0.0428
806.0,0.0423
805.0,0.0415
804.0,0.0407
803.0,0.04
802.0,0.0396
801.0,0.0394
800.0,0.0394
799.0,0.0394
798.0,0.0393
797.0,0.0391
796.0,0.0389
795.0,0.0387
794.0,0.0386
793.0,0.0385
792.0,0.0385
791.0,0.0384
790.0,0.0384
789.0,0.0384
788.0,0.0384
787.0,0.0383
786.0,0.0381
785.0,0.0379
784.0,0.0378
783.0,0.0378
782.0,0.0379
781.0,0.038
780.0,0.0382
779.0,0.0383
778.0,0.0384
777.0,0.0386
776.0,0.0388
775.0,0.039
774.0,0.039
773.0,0.039
772.0,0.0389
771.0,0.0389
770.0,0.0389
769.0,0.0391
768.0,0.0393
767.0,0.0394
766.0,0.0395
765.0,0.0397
764.0,0.04
763.0,0.0403
762.0,0.0404
761.0,0.0404
760.0,0.0403
759.0,0.0401
758.0,0.0401
757.0,0.0404
756.0,0.0408
755.0,0.0411
754.0,0.0414
753.0,0.0416
752.0,0.0417
751.0,0.0417
750.0,0.0418
749.0,0.042
748.0,0.0423
747.0,0.0424
746.0,0.0424
745.0,0.0423
744.0,0.0423
743.0,0.0423
742.0,0.0424
741.0,0.0425
740.0,0.0426
739.0,0.0429
738.0,0.0431
737.0,0.0435
736.0,0.0438
735.0,0.0441
734.0,0.0445
733.0,0.045
732.0,0.0458
731.0,0.0466
730.0,0.0472
729.0,0.0475
728.0,0.0473
727.0,0.047
726.0,0.0466
725.0,0.0465
724.0,0.0467
723.0,0.0471
722.0,0.0479
721.0,0.0488
720.0,0.0494
719.0,0.0495
718.0,0.0491
717.0,0.0486
716.0,0.0482
715.0,0.0478
714.0,0.0472
713.0,0.0467
712.0,0.0463
711.0,0.046
710.0,0.0458
709.0,0.0459
708.0,0.0462
707.0,0.0468
706.0,0.0476
705.0,0.0484
704.0,0.0493
703.0,0.0501
702.0,0.0508
701.0,0.0515
700.0,0.0521
699.0,0.0524
698.0,0.0523
697.0,0.0518
696.0,0.051
695.0,0.0503
694.0,0.0497
693.0,0.0492
692.0,0.0488
691.0,0.0485
690.0,0.0483
689.0,0.0481
688.0,0.0477
687.0,0.0472
686.0,0.0469
685.0,0.0469
684.0,0.0471
683.0,0.0473
682.0,0.0475
681.0,0.0476
680.0,0.0478
679.0,0.048
678.0,0.0481
677.0,0.048
676.0,0.0478
675.0,0.0476
674.0,0.0474
673.0,0.047
672.0,0.0465
671.0,0.0461
670.0,0.0459
669.0,0.0467
668.0,0.0481
667.0,0.0483
666.0,0.048
665.0,0.048
664.0,0.0479
663.0,0.0478
662.0,0.0477
661.0,0.0477
660.0,0.0476
659.0,0.0478
658.0,0.0482
657.0,0.0484
656.0,0.0481
655.0,0.0473
654.0,0.0468
653.0,0.047
652.0,0.0477
651.0,0.0483
650.0,0.0484
649.0,0.0479
648.0,0.047
647.0,0.0463
646.0,0.0461
645.0,0.0462
644.0,0.0465
643.0,0.047
642.0,0.0479
641.0,0.0489
640.0,0.0497
639.0,0.0503
638.0,0.0508
637.0,0.0515
636.0,0.0522
635.0,0.0525
634.0,0.0527
633.0,0.053
632.0,0.0529
631.0,0.0522
630.0,0.0513
629.0,0.0507
628.0,0.0502
627.0,0.0497
626.0,0.0491
625.0,0.0485
624.0,0.048
623.0,0.0476
622.0,0.0475
621.0,0.0479
620.0,0.0483
619.0,0.0487
618.0,0.0493
617.0,0.05
616.0,0.0504
615.0,0.0504
614.0,0.0503
613.0,0.0506
612.0,0.0512
611.0,0.0514
610.0,0.0509
609.0,0.0502
608.0,0.0498
607.0,0.05
606.0,0.0505
605.0,0.0511
604.0,0.051
603.0,0.0503
602.0,0.0498
601.0,0.0499
600.0,0.0506
